SpectraSuite Data File
++++++++++++++++++++++++++++++++++++
Date: Wed May 04 22:46:11 CEST 2016
User: root
Dark Spectrum Present: No
Reference Spectrum Present: No
Number of Sampled Component Spectra: 1
Spectrometers: USB4C02835
Integration Time (usec): 100000 (USB4C02835)
Spectra Averaged: 1 (USB4C02835)
Boxcar Smoothing: 0 (USB4C02835)
Correct for Electrical Dark: No (USB4C02835)
Strobe/Lamp Enabled: No (USB4C02835)
Correct for Detector Non-linearity: No (USB4C02835)
Correct for Stray Light: No (USB4C02835)
Number of Pixels in Processed Spectrum: 3648
>>>>>Begin Processed Spectral Data<<<<<
177.47	1570.79
177.69	1570.79
177.91	1570.79
178.13	1687.53
178.36	1646.57
178.58	1867.75
178.80	1972.19
179.02	1847.27
179.24	1970.15
179.46	1892.32
179.68	2011.11
179.90	1992.67
180.13	1929.19
180.35	1863.65
180.57	1970.15
180.79	1996.77
181.01	1912.80
181.23	2000.87
181.45	2054.11
181.67	2054.11
181.90	2039.78
182.12	1871.84
182.34	1820.64
182.56	2009.06
182.78	2007.01
183.00	1964.00
183.22	1871.84
183.44	1798.12
183.66	2119.65
183.89	2082.78
184.11	1980.39
184.33	2052.06
184.55	2041.82
184.77	1888.23
184.99	1980.39
185.21	1953.76
185.43	2162.66
185.65	1880.04
185.87	1914.85
186.10	2174.94
186.32	2156.51
186.54	1898.47
186.76	1976.29
186.98	2002.91
187.20	1951.71
187.42	1931.23
187.64	1998.82
187.86	2013.15
188.08	1988.58
188.30	1978.34
188.52	2000.87
188.75	1972.19
188.97	2076.64
189.19	1882.08
189.41	1923.04
189.63	1941.47
189.85	1933.28
190.07	1900.52
190.29	1830.88
190.51	1978.34
190.73	1880.04
190.95	1990.63
191.17	1976.29
191.39	1816.55
191.61	1943.52
191.84	1925.09
192.06	1984.48
192.28	1845.22
192.50	2199.52
192.72	1957.86
192.94	1955.81
193.16	1982.43
193.38	1943.52
193.60	1824.74
193.82	1970.15
194.04	2095.07
194.26	1918.95
194.48	1996.77
194.70	1941.47
194.92	1986.53
195.14	2088.93
195.36	1906.66
195.58	1894.37
195.80	2011.11
196.02	1908.71
196.24	1857.51
196.46	1959.91
196.69	1863.65
196.91	2138.08
197.13	1937.38
197.35	1910.75
197.57	2072.54
197.79	1957.86
198.01	1976.29
198.23	2015.20
198.45	1990.63
198.67	1865.70
198.89	1939.43
199.11	1980.39
199.33	1902.56
199.55	1824.74
199.77	1927.14
199.99	1984.48
200.21	1849.32
200.43	1968.10
200.65	1873.89
200.87	1779.68
201.09	1904.61
201.31	1845.22
201.53	2021.35
201.75	1900.52
201.97	1998.82
202.19	1882.08
202.41	2017.25
202.63	2093.02
202.85	1990.63
203.07	2011.11
203.29	1890.28
203.51	1863.65
203.73	1943.52
203.95	2199.52
204.17	1982.43
204.39	1996.77
204.61	1986.53
204.83	1929.19
205.05	2009.06
205.27	1970.15
205.49	2064.35
205.71	1953.76
205.93	1832.93
206.15	1910.75
206.37	1918.95
206.59	1904.61
206.81	1910.75
207.03	1841.12
207.25	1910.75
207.47	1961.95
207.69	1845.22
207.91	2095.07
208.13	1990.63
208.34	1931.23
208.56	1875.94
208.78	1988.58
209.00	1843.17
209.22	1877.99
209.44	1927.14
209.66	1861.60
209.88	1923.04
210.10	1947.62
210.32	1902.56
210.54	2045.92
210.76	1931.23
210.98	2119.65
211.20	1736.68
211.42	1933.28
211.64	2039.78
211.86	1988.58
212.08	2011.11
212.30	1961.95
212.52	1947.62
212.74	2029.54
212.96	1955.81
213.17	1943.52
213.39	2031.58
213.61	2058.21
213.83	1974.24
214.05	1898.47
214.27	2007.01
214.49	1880.04
214.71	1785.83
214.93	2000.87
215.15	1982.43
215.37	2007.01
215.59	1832.93
215.81	1949.67
216.03	2125.79
216.24	1974.24
216.46	1867.75
216.68	1957.86
216.90	1968.10
217.12	1949.67
217.34	1892.32
217.56	1937.38
217.78	2027.49
218.00	2000.87
218.22	1982.43
218.44	1976.29
218.66	1873.89
218.87	2162.66
219.09	1853.41
219.31	1966.05
219.53	2015.20
219.75	1841.12
219.97	1939.43
220.19	1892.32
220.41	1970.15
220.63	2031.58
220.85	1970.15
221.06	1902.56
221.28	2017.25
221.50	1927.14
221.72	1941.47
221.94	1931.23
222.16	1964.00
222.38	2090.98
222.60	1968.10
222.82	1984.48
223.03	2000.87
223.25	1916.90
223.47	1980.39
223.69	2097.12
223.91	2041.82
224.13	1904.61
224.35	1892.32
224.57	2017.25
224.78	2015.20
225.00	1822.69
225.22	1980.39
225.44	1961.95
225.66	1990.63
225.88	1923.04
226.10	1961.95
226.32	1953.76
226.53	2050.02
226.75	1892.32
226.97	1884.13
227.19	1923.04
227.41	1873.89
227.63	1964.00
227.85	1863.65
228.06	1871.84
228.28	2019.30
228.50	2086.88
228.72	1918.95
228.94	1863.65
229.16	1845.22
229.37	1882.08
229.59	1873.89
229.81	2033.63
230.03	1955.81
230.25	1826.79
230.47	1925.09
230.69	1818.60
230.90	1968.10
231.12	1927.14
231.34	2015.20
231.56	2050.02
231.78	1920.99
232.00	1961.95
232.21	1941.47
232.43	1908.71
232.65	1845.22
232.87	1947.62
233.09	1902.56
233.30	1927.14
233.52	2023.39
233.74	1861.60
233.96	1906.66
234.18	1939.43
234.40	1943.52
234.61	2045.92
234.83	1785.83
235.05	1841.12
235.27	2213.85
235.49	2068.45
235.70	1920.99
235.92	2062.30
236.14	1939.43
236.36	2199.52
236.58	1843.17
236.79	1961.95
237.01	1937.38
237.23	1970.15
237.45	2062.30
237.67	1894.37
237.88	1961.95
238.10	2105.31
238.32	1859.56
238.54	1886.18
238.76	1964.00
238.97	1830.88
239.19	1834.98
239.41	2000.87
239.63	1986.53
239.85	1851.36
240.06	2011.11
240.28	1871.84
240.50	2027.49
240.72	1953.76
240.93	1949.67
241.15	1988.58
241.37	1964.00
241.59	2142.18
241.81	1904.61
242.02	1923.04
242.24	1933.28
242.46	2013.15
242.68	1851.36
242.89	1896.42
243.11	2027.49
243.33	1873.89
243.55	1964.00
243.76	2021.35
243.98	1810.40
244.20	1972.19
244.42	2033.63
244.64	1949.67
244.85	1892.32
245.07	1869.80
245.29	2013.15
245.51	1912.80
245.72	1961.95
245.94	2039.78
246.16	1880.04
246.38	1939.43
246.59	1933.28
246.81	1892.32
247.03	1863.65
247.24	1812.45
247.46	1902.56
247.68	1978.34
247.90	1888.23
248.11	1914.85
248.33	2011.11
248.55	1986.53
248.77	1951.71
248.98	1923.04
249.20	2043.87
249.42	1947.62
249.64	1972.19
249.85	1882.08
250.07	1873.89
250.29	1957.86
250.50	1976.29
250.72	1849.32
250.94	2002.91
251.16	2127.84
251.37	2043.87
251.59	2009.06
251.81	1982.43
252.02	1996.77
252.24	1980.39
252.46	2064.35
252.68	1951.71
252.89	1908.71
253.11	1814.50
253.33	2045.92
253.54	2078.69
253.76	1877.99
253.98	1908.71
254.20	1949.67
254.41	1900.52
254.63	1943.52
254.85	1904.61
255.06	1974.24
255.28	1955.81
255.50	1980.39
255.71	1906.66
255.93	1888.23
256.15	1888.23
256.36	1998.82
256.58	1908.71
256.80	1961.95
257.02	1959.91
257.23	1904.61
257.45	1986.53
257.67	1986.53
257.88	1865.70
258.10	2056.16
258.32	1933.28
258.53	1976.29
258.75	1980.39
258.97	1918.95
259.18	2013.15
259.40	1873.89
259.62	2037.73
259.83	2095.07
260.05	1968.10
260.27	2308.06
260.48	1980.39
260.70	1884.13
260.92	1937.38
261.13	1949.67
261.35	1990.63
261.57	2029.54
261.78	1810.40
262.00	1898.47
262.22	1966.05
262.43	1914.85
262.65	1949.67
262.86	1980.39
263.08	2115.55
263.30	2047.97
263.51	1839.08
263.73	1871.84
263.95	2066.40
264.16	1925.09
264.38	1918.95
264.60	1939.43
264.81	1937.38
265.03	2045.92
265.25	2021.35
265.46	1976.29
265.68	2033.63
265.89	2019.30
266.11	1882.08
266.33	2009.06
266.54	2004.96
266.76	1943.52
266.98	1949.67
267.19	2060.26
267.41	2058.21
267.62	1992.67
267.84	1906.66
268.06	2041.82
268.27	1927.14
268.49	2039.78
268.70	1943.52
268.92	1904.61
269.14	1953.76
269.35	1824.74
269.57	1959.91
269.79	1994.72
270.00	1925.09
270.22	2119.65
270.43	1906.66
270.65	1730.53
270.87	2009.06
271.08	2076.64
271.30	1980.39
271.51	1986.53
271.73	2007.01
271.95	2045.92
272.16	1998.82
272.38	1988.58
272.59	1959.91
272.81	2037.73
273.02	1902.56
273.24	1906.66
273.46	1931.23
273.67	1867.75
273.89	1865.70
274.10	1828.84
274.32	2007.01
274.54	1927.14
274.75	1947.62
274.97	1947.62
275.18	2045.92
275.40	1998.82
275.61	2027.49
275.83	1931.23
276.05	1812.45
276.26	1968.10
276.48	1916.90
276.69	1894.37
276.91	1857.51
277.12	1986.53
277.34	2033.63
277.55	2029.54
277.77	1898.47
277.99	1976.29
278.20	1923.04
278.42	1820.64
278.63	1904.61
278.85	1853.41
279.06	1943.52
279.28	1972.19
279.49	2058.21
279.71	2035.68
279.93	2015.20
280.14	1994.72
280.36	1914.85
280.57	2054.11
280.79	1990.63
281.00	1912.80
281.22	1841.12
281.43	2052.06
281.65	1783.78
281.86	1875.94
282.08	2033.63
282.29	2111.46
282.51	1882.08
282.73	1804.26
282.94	1822.69
283.16	1980.39
283.37	1986.53
283.59	1974.24
283.80	1968.10
284.02	1918.95
284.23	1947.62
284.45	1900.52
284.66	1927.14
284.88	1896.42
285.09	1959.91
285.31	1953.76
285.52	1935.33
285.74	1892.32
285.95	2019.30
286.17	1964.00
286.38	2007.01
286.60	1904.61
286.81	1964.00
287.03	1933.28
287.24	1935.33
287.46	1984.48
287.67	2007.01
287.89	2115.55
288.10	2031.58
288.32	1976.29
288.53	2084.83
288.75	1910.75
288.96	1996.77
289.18	1863.65
289.39	1939.43
289.61	1986.53
289.82	2088.93
290.04	2084.83
290.25	1865.70
290.47	1933.28
290.68	1898.47
290.90	2097.12
291.11	1894.37
291.33	1964.00
291.54	1970.15
291.76	1886.18
291.97	2023.39
292.18	1968.10
292.40	1880.04
292.61	1882.08
292.83	2119.65
293.04	1968.10
293.26	1945.57
293.47	1916.90
293.69	1898.47
293.90	1959.91
294.12	2115.55
294.33	1980.39
294.55	1931.23
294.76	2013.15
294.97	2021.35
295.19	2088.93
295.40	1888.23
295.62	2015.20
295.83	1955.81
296.05	1882.08
296.26	2009.06
296.48	1859.56
296.69	1972.19
296.90	1957.86
297.12	2000.87
297.33	2086.88
297.55	1966.05
297.76	2000.87
297.98	1980.39
298.19	1970.15
298.41	1873.89
298.62	1869.80
298.83	2070.50
299.05	1990.63
299.26	1968.10
299.48	1925.09
299.69	1959.91
299.90	1976.29
300.12	1906.66
300.33	2011.11
300.55	1910.75
300.76	2000.87
300.98	1949.67
301.19	1980.39
301.40	1959.91
301.62	1951.71
301.83	1980.39
302.05	1988.58
302.26	1972.19
302.47	1961.95
302.69	1847.27
302.90	2066.40
303.12	1828.84
303.33	2021.35
303.54	2039.78
303.76	1959.91
303.97	1970.15
304.19	2060.26
304.40	1796.07
304.61	1933.28
304.83	2023.39
305.04	2039.78
305.26	1980.39
305.47	1918.95
305.68	2007.01
305.90	1900.52
306.11	2029.54
306.33	1910.75
306.54	1888.23
306.75	1961.95
306.97	1800.16
307.18	1912.80
307.39	1886.18
307.61	1972.19
307.82	1914.85
308.04	2047.97
308.25	1902.56
308.46	1959.91
308.68	1894.37
308.89	1978.34
309.10	1994.72
309.32	1949.67
309.53	1920.99
309.74	2009.06
309.96	1927.14
310.17	2103.26
310.39	1880.04
310.60	2021.35
310.81	2017.25
311.03	1890.28
311.24	1964.00
311.45	1959.91
311.67	2080.74
311.88	1974.24
312.09	2007.01
312.31	1947.62
312.52	1947.62
312.73	1974.24
312.95	1865.70
313.16	1925.09
313.37	2045.92
313.59	1992.67
313.80	1978.34
314.01	2021.35
314.23	1916.90
314.44	1886.18
314.65	1767.40
314.87	1851.36
315.08	1957.86
315.29	1910.75
315.51	1837.03
315.72	1845.22
315.93	2050.02
316.15	1980.39
316.36	1931.23
316.57	2000.87
316.79	1896.42
317.00	1970.15
317.21	1925.09
317.43	1839.08
317.64	1849.32
317.85	1908.71
318.07	1920.99
318.28	1982.43
318.49	2115.55
318.70	2252.77
318.92	2068.45
319.13	2150.37
319.34	2148.32
319.56	2084.83
319.77	2072.54
319.98	2072.54
320.20	2090.98
320.41	2047.97
320.62	2029.54
320.83	1961.95
321.05	2140.13
321.26	1955.81
321.47	1949.67
321.69	2009.06
321.90	1861.60
322.11	1990.63
322.32	1939.43
322.54	2084.83
322.75	1923.04
322.96	2148.32
323.18	1808.36
323.39	1822.69
323.60	1873.89
323.81	1998.82
324.03	1931.23
324.24	1945.57
324.45	1986.53
324.66	1986.53
324.88	1964.00
325.09	2144.22
325.30	1964.00
325.52	1935.33
325.73	1951.71
325.94	1851.36
326.15	1886.18
326.37	1904.61
326.58	2013.15
326.79	2086.88
327.00	1857.51
327.22	2023.39
327.43	1957.86
327.64	1898.47
327.85	1980.39
328.07	2052.06
328.28	2136.03
328.49	1877.99
328.70	1927.14
328.92	1957.86
329.13	1884.13
329.34	2013.15
329.55	2021.35
329.76	2068.45
329.98	1949.67
330.19	2017.25
330.40	1925.09
330.61	2033.63
330.83	1986.53
331.04	1839.08
331.25	1972.19
331.46	1935.33
331.68	1847.27
331.89	2062.30
332.10	1925.09
332.31	1789.92
332.52	2011.11
332.74	1998.82
332.95	1826.79
333.16	1964.00
333.37	2068.45
333.58	1888.23
333.80	1990.63
334.01	1849.32
334.22	1900.52
334.43	1949.67
334.64	1992.67
334.86	1875.94
335.07	1935.33
335.28	2062.30
335.49	1837.03
335.70	2013.15
335.92	2029.54
336.13	2101.22
336.34	1923.04
336.55	1996.77
336.76	1955.81
336.98	1796.07
337.19	1949.67
337.40	2078.69
337.61	2111.46
337.82	1906.66
338.04	2004.96
338.25	1871.84
338.46	1996.77
338.67	1906.66
338.88	1910.75
339.09	1898.47
339.31	1974.24
339.52	1890.28
339.73	1863.65
339.94	1978.34
340.15	2023.39
340.36	1877.99
340.58	2019.30
340.79	1939.43
341.00	2033.63
341.21	1898.47
341.42	2043.87
341.63	1923.04
341.85	1970.15
342.06	1957.86
342.27	1931.23
342.48	2047.97
342.69	1869.80
342.90	1968.10
343.12	1976.29
343.33	1974.24
343.54	2037.73
343.75	2035.68
343.96	1964.00
344.17	1906.66
344.38	1912.80
344.60	1882.08
344.81	1933.28
345.02	1980.39
345.23	2045.92
345.44	2074.59
345.65	1988.58
345.86	1970.15
346.07	1961.95
346.29	1923.04
346.50	1961.95
346.71	2004.96
346.92	2080.74
347.13	2099.17
347.34	1984.48
347.55	1912.80
347.76	1894.37
347.98	1888.23
348.19	1908.71
348.40	2062.30
348.61	1941.47
348.82	2070.50
349.03	1990.63
349.24	1992.67
349.45	2015.20
349.66	1886.18
349.88	1912.80
350.09	1890.28
350.30	2004.96
350.51	2019.30
350.72	1980.39
350.93	1970.15
351.14	1968.10
351.35	2035.68
351.56	2015.20
351.77	1957.86
351.99	2007.01
352.20	2119.65
352.41	2041.82
352.62	1837.03
352.83	1931.23
353.04	2000.87
353.25	1884.13
353.46	1992.67
353.67	2064.35
353.88	1804.26
354.09	1994.72
354.30	1914.85
354.52	1978.34
354.73	1964.00
354.94	1890.28
355.15	2013.15
355.36	2004.96
355.57	1972.19
355.78	1951.71
355.99	1918.95
356.20	1945.57
356.41	2072.54
356.62	1923.04
356.83	1994.72
357.04	2095.07
357.25	1896.42
357.46	1951.71
357.68	1806.31
357.89	1843.17
358.10	1941.47
358.31	1947.62
358.52	1941.47
358.73	1853.41
358.94	1978.34
359.15	1904.61
359.36	1937.38
359.57	1916.90
359.78	1943.52
359.99	2033.63
360.20	1894.37
360.41	1929.19
360.62	1990.63
360.83	2027.49
361.04	1937.38
361.25	1961.95
361.46	2013.15
361.67	1974.24
361.88	2019.30
362.09	2000.87
362.30	2000.87
362.51	1978.34
362.72	1968.10
362.93	1961.95
363.14	2013.15
363.35	1941.47
363.56	1857.51
363.78	2004.96
363.99	2013.15
364.20	2011.11
364.41	2050.02
364.62	1994.72
364.83	2043.87
365.04	1890.28
365.25	1984.48
365.46	2070.50
365.67	1834.98
365.88	1996.77
366.09	1912.80
366.30	1918.95
366.51	1966.05
366.72	1900.52
366.93	1945.57
367.14	1927.14
367.35	2078.69
367.56	1957.86
367.77	2140.13
367.98	1908.71
368.18	1933.28
368.39	1951.71
368.60	1951.71
368.81	2047.97
369.02	1968.10
369.23	2054.11
369.44	1875.94
369.65	1882.08
369.86	1992.67
370.07	2037.73
370.28	1902.56
370.49	1998.82
370.70	1992.67
370.91	1927.14
371.12	1804.26
371.33	2072.54
371.54	1970.15
371.75	2072.54
371.96	1820.64
372.17	1996.77
372.38	1968.10
372.59	2050.02
372.80	1961.95
373.01	1937.38
373.22	1945.57
373.43	2000.87
373.64	1918.95
373.85	2027.49
374.06	2068.45
374.26	2007.01
374.47	1982.43
374.68	2052.06
374.89	1951.71
375.10	1947.62
375.31	2002.91
375.52	2015.20
375.73	1966.05
375.94	1918.95
376.15	2000.87
376.36	1886.18
376.57	1949.67
376.78	1951.71
376.99	1982.43
377.20	1996.77
377.40	1912.80
377.61	2097.12
377.82	1900.52
378.03	2082.78
378.24	2009.06
378.45	1943.52
378.66	2050.02
378.87	1851.36
379.08	1837.03
379.29	1896.42
379.50	1990.63
379.71	1939.43
379.91	2072.54
380.12	1908.71
380.33	1941.47
380.54	1873.89
380.75	1918.95
380.96	1939.43
381.17	1996.77
381.38	1972.19
381.59	2029.54
381.80	2004.96
382.00	2140.13
382.21	2045.92
382.42	2123.74
382.63	2154.46
382.84	2027.49
383.05	1978.34
383.26	2074.59
383.47	2041.82
383.68	2025.44
383.88	2035.68
384.09	2031.58
384.30	2070.50
384.51	1978.34
384.72	2107.36
384.93	1904.61
385.14	1943.52
385.35	1996.77
385.55	1890.28
385.76	2121.70
385.97	1939.43
386.18	1908.71
386.39	1892.32
386.60	1904.61
386.81	1964.00
387.02	1988.58
387.22	1961.95
387.43	2047.97
387.64	1992.67
387.85	2148.32
388.06	2299.87
388.27	4073.41
388.48	8644.48
388.68	11792.20
388.89	14004.01
389.10	15126.30
389.31	13766.45
389.52	10807.13
389.73	9478.00
389.93	8570.75
390.14	7759.75
390.35	7161.75
390.56	6393.76
390.77	5220.27
390.98	4009.92
391.18	3123.15
391.39	2498.52
391.60	2191.33
391.81	2084.83
392.02	1939.43
392.23	2123.74
392.43	1957.86
392.64	2095.07
392.85	1986.53
393.06	2101.22
393.27	1923.04
393.47	1931.23
393.68	2029.54
393.89	1920.99
394.10	2088.93
394.31	1933.28
394.52	1808.36
394.72	1900.52
394.93	2045.92
395.14	1869.80
395.35	1945.57
395.56	2004.96
395.76	1931.23
395.97	2015.20
396.18	2062.30
396.39	2127.84
396.60	2375.64
396.80	2205.66
397.01	2164.70
397.22	2113.50
397.43	2129.89
397.64	2021.35
397.84	2056.16
398.05	2199.52
398.26	1994.72
398.47	2080.74
398.67	2150.37
398.88	1945.57
399.09	2082.78
399.30	1931.23
399.51	2052.06
399.71	1970.15
399.92	1959.91
400.13	1970.15
400.34	1869.80
400.54	1920.99
400.75	2084.83
400.96	1943.52
401.17	2084.83
401.37	2050.02
401.58	1980.39
401.79	1988.58
402.00	2183.13
402.21	2377.69
402.41	2228.19
402.62	2373.60
402.83	2400.22
403.04	2451.42
403.24	2441.18
403.45	2148.32
403.66	2238.43
403.87	2166.75
404.07	2179.04
404.28	2193.37
404.49	2123.74
404.70	2052.06
404.90	1994.72
405.11	2041.82
405.32	2000.87
405.52	1998.82
405.73	1888.23
405.94	1904.61
406.15	1964.00
406.35	2115.55
406.56	1996.77
406.77	1941.47
406.98	2047.97
407.18	1910.75
407.39	2095.07
407.60	1957.86
407.80	2019.30
408.01	1918.95
408.22	1998.82
408.43	1906.66
408.63	2062.30
408.84	2015.20
409.05	2138.08
409.25	1875.94
409.46	1920.99
409.67	1984.48
409.88	1871.84
410.08	1970.15
410.29	1935.33
410.50	2074.59
410.70	1984.48
410.91	1970.15
411.12	1894.37
411.32	1863.65
411.53	1861.60
411.74	2105.31
411.95	2058.21
412.15	2086.88
412.36	2093.02
412.57	2066.40
412.77	2107.36
412.98	1964.00
413.19	1933.28
413.39	2017.25
413.60	2052.06
413.81	2037.73
414.01	1957.86
414.22	2031.58
414.43	2045.92
414.63	1984.48
414.84	2058.21
415.05	2011.11
415.25	1918.95
415.46	2021.35
415.67	1867.75
415.87	1976.29
416.08	1955.81
416.29	1964.00
416.49	2002.91
416.70	1890.28
416.91	1984.48
417.11	1964.00
417.32	1980.39
417.53	2056.16
417.73	2058.21
417.94	1925.09
418.15	2000.87
418.35	1970.15
418.56	1998.82
418.77	2111.46
418.97	1972.19
419.18	1908.71
419.38	1851.36
419.59	1931.23
419.80	2062.30
420.00	1912.80
420.21	1898.47
420.42	2095.07
420.62	2021.35
420.83	1906.66
421.04	1923.04
421.24	1908.71
421.45	2007.01
421.65	2035.68
421.86	1886.18
422.07	2009.06
422.27	2015.20
422.48	1896.42
422.69	1929.19
422.89	1982.43
423.10	1898.47
423.30	1949.67
423.51	2029.54
423.72	1955.81
423.92	2009.06
424.13	1949.67
424.33	1937.38
424.54	2017.25
424.75	1929.19
424.95	2099.17
425.16	1990.63
425.36	1933.28
425.57	1933.28
425.78	1957.86
425.98	2009.06
426.19	1908.71
426.39	1914.85
426.60	1955.81
426.81	1968.10
427.01	1908.71
427.22	1857.51
427.42	1871.84
427.63	1910.75
427.83	2033.63
428.04	2056.16
428.25	2068.45
428.45	2082.78
428.66	2101.22
428.86	1931.23
429.07	1916.90
429.28	1947.62
429.48	2011.11
429.69	1869.80
429.89	1972.19
430.10	1837.03
430.30	2043.87
430.51	1970.15
430.71	1882.08
430.92	1937.38
431.13	1935.33
431.33	2007.01
431.54	1945.57
431.74	2078.69
431.95	2215.90
432.15	1894.37
432.36	1929.19
432.56	2002.91
432.77	2039.78
432.98	2039.78
433.18	2045.92
433.39	1918.95
433.59	1918.95
433.80	2131.94
434.00	2179.04
434.21	1904.61
434.41	1992.67
434.62	2064.35
434.82	1931.23
435.03	1898.47
435.23	1996.77
435.44	1841.12
435.64	1925.09
435.85	1964.00
436.06	2080.74
436.26	2045.92
436.47	1939.43
436.67	1912.80
436.88	1935.33
437.08	2007.01
437.29	2004.96
437.49	2027.49
437.70	2113.50
437.90	2015.20
438.11	2185.18
438.31	2027.49
438.52	2181.09
438.72	2193.37
438.93	2224.09
439.13	2072.54
439.34	2199.52
439.54	2047.97
439.75	2082.78
439.95	2156.51
440.16	1943.52
440.36	2052.06
440.57	1998.82
440.77	1937.38
440.98	1990.63
441.18	2011.11
441.39	1898.47
441.59	1976.29
441.80	2236.38
442.00	2043.87
442.21	2131.94
442.41	1902.56
442.62	1990.63
442.82	1882.08
443.02	2045.92
443.23	1949.67
443.43	1933.28
443.64	2056.16
443.84	1939.43
444.05	2035.68
444.25	1994.72
444.46	1998.82
444.66	1964.00
444.87	2217.95
445.07	1826.79
445.28	2002.91
445.48	2082.78
445.69	1986.53
445.89	2176.99
446.09	1990.63
446.30	2213.85
446.50	2625.50
446.71	4122.56
446.91	5212.08
447.12	6084.52
447.32	6629.27
447.53	5939.11
447.73	4882.36
447.93	4315.07
448.14	3885.00
448.34	3831.75
448.55	3348.43
448.75	3370.96
448.96	3186.64
449.16	2899.92
449.36	2562.01
449.57	2349.02
449.77	2193.37
449.98	2013.15
450.18	2047.97
450.39	2060.26
450.59	2023.39
450.79	1974.24
451.00	1970.15
451.20	2004.96
451.41	1976.29
451.61	2045.92
451.81	1929.19
452.02	1974.24
452.22	1953.76
452.43	1867.75
452.63	1906.66
