SpectraSuite Data File
++++++++++++++++++++++++++++++++++++
Date: Wed May 04 22:45:55 CEST 2016
User: root
Dark Spectrum Present: No
Reference Spectrum Present: No
Number of Sampled Component Spectra: 1
Spectrometers: USB4C02835
Integration Time (usec): 100000 (USB4C02835)
Spectra Averaged: 1 (USB4C02835)
Boxcar Smoothing: 0 (USB4C02835)
Correct for Electrical Dark: No (USB4C02835)
Strobe/Lamp Enabled: No (USB4C02835)
Correct for Detector Non-linearity: No (USB4C02835)
Correct for Stray Light: No (USB4C02835)
Number of Pixels in Processed Spectrum: 3648
>>>>>Begin Processed Spectral Data<<<<<
177.47	1640.42
177.69	1640.42
177.91	1640.42
178.13	1634.28
178.36	1576.94
178.58	1943.52
178.80	2004.96
179.02	1896.42
179.24	1920.99
179.46	1949.67
179.68	1933.28
179.90	1892.32
180.13	1972.19
180.35	1937.38
180.57	1941.47
180.79	1986.53
181.01	1920.99
181.23	2033.63
181.45	2056.16
181.67	1949.67
181.90	2007.01
182.12	1859.56
182.34	1853.41
182.56	1964.00
182.78	1980.39
183.00	1871.84
183.22	2000.87
183.44	1761.25
183.66	2152.42
183.89	2004.96
184.11	1937.38
184.33	1980.39
184.55	2004.96
184.77	1900.52
184.99	1933.28
185.21	1861.60
185.43	2162.66
185.65	1925.09
185.87	1966.05
186.10	2021.35
186.32	2101.22
186.54	1988.58
186.76	1957.86
186.98	2056.16
187.20	1964.00
187.42	1873.89
187.64	1945.57
187.86	1976.29
188.08	2021.35
188.30	1873.89
188.52	1923.04
188.75	1984.48
188.97	2068.45
189.19	2023.39
189.41	1947.62
189.63	2000.87
189.85	1865.70
190.07	1869.80
190.29	1849.32
190.51	1972.19
190.73	1880.04
190.95	1957.86
191.17	1871.84
191.39	1820.64
191.61	1996.77
191.84	1873.89
192.06	1904.61
192.28	1882.08
192.50	2152.42
192.72	1859.56
192.94	1941.47
193.16	2074.59
193.38	2013.15
193.60	1912.80
193.82	1935.33
194.04	1998.82
194.26	1992.67
194.48	1951.71
194.70	1929.19
194.92	1947.62
195.14	1959.91
195.36	1945.57
195.58	1968.10
195.80	1886.18
196.02	1875.94
196.24	1839.08
196.46	1972.19
196.69	1925.09
196.91	2103.26
197.13	1943.52
197.35	1814.50
197.57	2052.06
197.79	1945.57
198.01	1910.75
198.23	1990.63
198.45	2015.20
198.67	1935.33
198.89	1886.18
199.11	1902.56
199.33	1912.80
199.55	1769.44
199.77	1925.09
199.99	2052.06
200.21	1923.04
200.43	1984.48
200.65	1843.17
200.87	1742.82
201.09	1996.77
201.31	1900.52
201.53	2015.20
201.75	1904.61
201.97	2000.87
202.19	1951.71
202.41	2027.49
202.63	2099.17
202.85	1992.67
203.07	1953.76
203.29	1859.56
203.51	1894.37
203.73	1898.47
203.95	2166.75
204.17	1978.34
204.39	2002.91
204.61	1912.80
204.83	1890.28
205.05	1982.43
205.27	1978.34
205.49	2054.11
205.71	1908.71
205.93	1869.80
206.15	1937.38
206.37	1914.85
206.59	1918.95
206.81	1818.60
207.03	1867.75
207.25	1933.28
207.47	2021.35
207.69	1996.77
207.91	2015.20
208.13	2058.21
208.34	1951.71
208.56	1894.37
208.78	2058.21
209.00	1925.09
209.22	1955.81
209.44	1898.47
209.66	1861.60
209.88	1892.32
210.10	1916.90
210.32	1920.99
210.54	1980.39
210.76	1931.23
210.98	1916.90
211.20	1802.21
211.42	1904.61
211.64	2037.73
211.86	1978.34
212.08	1974.24
212.30	1996.77
212.52	1957.86
212.74	1978.34
212.96	1898.47
213.17	2052.06
213.39	1990.63
213.61	2066.40
213.83	1859.56
214.05	1949.67
214.27	2023.39
214.49	1818.60
214.71	1849.32
214.93	2043.87
215.15	1966.05
215.37	2056.16
215.59	1824.74
215.81	1918.95
216.03	1996.77
216.24	2009.06
216.46	1863.65
216.68	1920.99
216.90	2086.88
217.12	2039.78
217.34	1884.13
217.56	2043.87
217.78	2009.06
218.00	1955.81
218.22	2019.30
218.44	2000.87
218.66	1978.34
218.87	2138.08
219.09	1974.24
219.31	1937.38
219.53	1992.67
219.75	1869.80
219.97	1929.19
220.19	1939.43
220.41	1982.43
220.63	2050.02
220.85	1931.23
221.06	1873.89
221.28	2031.58
221.50	1959.91
221.72	1920.99
221.94	1931.23
222.16	1882.08
222.38	1996.77
222.60	1947.62
222.82	1800.16
223.03	2019.30
223.25	1867.75
223.47	1910.75
223.69	2101.22
223.91	1949.67
224.13	1978.34
224.35	1882.08
224.57	2052.06
224.78	2015.20
225.00	1855.46
225.22	1884.13
225.44	1925.09
225.66	1988.58
225.88	1939.43
226.10	1947.62
226.32	1894.37
226.53	2152.42
226.75	1970.15
226.97	1949.67
227.19	1943.52
227.41	1912.80
227.63	2035.68
227.85	1853.41
228.06	1939.43
228.28	1988.58
228.50	2078.69
228.72	1914.85
228.94	1937.38
229.16	1880.04
229.37	1869.80
229.59	1873.89
229.81	2045.92
230.03	1916.90
230.25	1896.42
230.47	1839.08
230.69	1890.28
230.90	2035.68
231.12	1826.79
231.34	1902.56
231.56	2064.35
231.78	2009.06
232.00	1966.05
232.21	1996.77
232.43	1923.04
232.65	1800.16
232.87	1949.67
233.09	1808.36
233.30	1912.80
233.52	2052.06
233.74	1906.66
233.96	2015.20
234.18	1974.24
234.40	1927.14
234.61	2099.17
234.83	1912.80
235.05	1894.37
235.27	2064.35
235.49	2068.45
235.70	1941.47
235.92	2039.78
236.14	1986.53
236.36	2064.35
236.58	1877.99
236.79	2017.25
237.01	1974.24
237.23	2031.58
237.45	2101.22
237.67	1925.09
237.88	2025.44
238.10	2064.35
238.32	1839.08
238.54	1877.99
238.76	1970.15
238.97	1851.36
239.19	1886.18
239.41	1990.63
239.63	2017.25
239.85	1935.33
240.06	1959.91
240.28	1978.34
240.50	2017.25
240.72	1978.34
240.93	1974.24
241.15	1953.76
241.37	1892.32
241.59	2015.20
241.81	1910.75
242.02	1988.58
242.24	2015.20
242.46	1978.34
242.68	1933.28
242.89	1953.76
243.11	2090.98
243.33	1933.28
243.55	1972.19
243.76	1998.82
243.98	1906.66
244.20	1943.52
244.42	1941.47
244.64	2004.96
244.85	1841.12
245.07	1869.80
245.29	2015.20
245.51	1943.52
245.72	1941.47
245.94	2027.49
246.16	1945.57
246.38	1949.67
246.59	1898.47
246.81	1976.29
247.03	1912.80
247.24	1820.64
247.46	1927.14
247.68	1916.90
247.90	1968.10
248.11	1994.72
248.33	2072.54
248.55	1920.99
248.77	1982.43
248.98	2007.01
249.20	2062.30
249.42	1968.10
249.64	1961.95
249.85	1914.85
250.07	1875.94
250.29	2007.01
250.50	2050.02
250.72	1849.32
250.94	1998.82
251.16	2076.64
251.37	2050.02
251.59	1972.19
251.81	2009.06
252.02	2041.82
252.24	1900.52
252.46	2148.32
252.68	1847.27
252.89	1902.56
253.11	1800.16
253.33	2007.01
253.54	2050.02
253.76	1796.07
253.98	1888.23
254.20	1914.85
254.41	1863.65
254.63	1933.28
254.85	1832.93
255.06	1959.91
255.28	1935.33
255.50	1955.81
255.71	1814.50
255.93	1880.04
256.15	1945.57
256.36	2000.87
256.58	1900.52
256.80	1986.53
257.02	1941.47
257.23	1939.43
257.45	1988.58
257.67	1925.09
257.88	1906.66
258.10	2011.11
258.32	1912.80
258.53	1961.95
258.75	2007.01
258.97	1847.27
259.18	1929.19
259.40	1918.95
259.62	2043.87
259.83	2058.21
260.05	1941.47
260.27	2234.33
260.48	1972.19
260.70	1947.62
260.92	1912.80
261.13	2062.30
261.35	1906.66
261.57	1935.33
261.78	1849.32
262.00	1871.84
262.22	1998.82
262.43	1853.41
262.65	1880.04
262.86	1912.80
263.08	2191.33
263.30	1947.62
263.51	1804.26
263.73	1927.14
263.95	2095.07
264.16	1898.47
264.38	1851.36
264.60	2027.49
264.81	1984.48
265.03	2060.26
265.25	2037.73
265.46	1957.86
265.68	2066.40
265.89	1957.86
266.11	1822.69
266.33	1959.91
266.54	2043.87
266.76	2060.26
266.98	1951.71
267.19	1994.72
267.41	2093.02
267.62	1920.99
267.84	1820.64
268.06	1992.67
268.27	2004.96
268.49	2041.82
268.70	1961.95
268.92	1937.38
269.14	1863.65
269.35	1927.14
269.57	1974.24
269.79	1929.19
270.00	1931.23
270.22	2056.16
270.43	1894.37
270.65	1783.78
270.87	1939.43
271.08	1980.39
271.30	2023.39
271.51	1959.91
271.73	1984.48
271.95	1996.77
272.16	1966.05
272.38	1988.58
272.59	1943.52
272.81	1961.95
273.02	1949.67
273.24	1935.33
273.46	2090.98
273.67	1908.71
273.89	1906.66
274.10	1910.75
274.32	2029.54
274.54	1923.04
274.75	1968.10
274.97	1906.66
275.18	1980.39
275.40	2033.63
275.61	2009.06
275.83	1968.10
276.05	1869.80
276.26	1933.28
276.48	1994.72
276.69	1953.76
276.91	1906.66
277.12	2066.40
277.34	2033.63
277.55	2093.02
277.77	1959.91
277.99	1968.10
278.20	1867.75
278.42	1920.99
278.63	1888.23
278.85	1902.56
279.06	1873.89
279.28	1978.34
279.49	1986.53
279.71	2029.54
279.93	1957.86
280.14	1949.67
280.36	1980.39
280.57	1976.29
280.79	2033.63
281.00	1896.42
281.22	1927.14
281.43	2009.06
281.65	1781.73
281.86	1910.75
282.08	2000.87
282.29	2029.54
282.51	1880.04
282.73	1964.00
282.94	1816.55
283.16	1980.39
283.37	2045.92
283.59	2013.15
283.80	1980.39
284.02	1994.72
284.23	1990.63
284.45	2000.87
284.66	1959.91
284.88	1953.76
285.09	1955.81
285.31	1994.72
285.52	1970.15
285.74	1865.70
285.95	1949.67
286.17	2025.44
286.38	2017.25
286.60	1929.19
286.81	1902.56
287.03	1892.32
287.24	1896.42
287.46	2082.78
287.67	1951.71
287.89	2045.92
288.10	1941.47
288.32	1978.34
288.53	2058.21
288.75	1984.48
288.96	2039.78
289.18	1945.57
289.39	1984.48
289.61	1968.10
289.82	2121.70
290.04	2105.31
290.25	1802.21
290.47	1992.67
290.68	1861.60
290.90	2047.97
291.11	1912.80
291.33	2060.26
291.54	1863.65
291.76	1898.47
291.97	1927.14
292.18	1906.66
292.40	2033.63
292.61	1867.75
292.83	2191.33
293.04	1941.47
293.26	2076.64
293.47	2011.11
293.69	1912.80
293.90	2004.96
294.12	2045.92
294.33	1996.77
294.55	1900.52
294.76	1978.34
294.97	2047.97
295.19	2086.88
295.40	1931.23
295.62	1945.57
295.83	2047.97
296.05	1894.37
296.26	2035.68
296.48	1880.04
296.69	1968.10
296.90	1902.56
297.12	1935.33
297.33	2078.69
297.55	1974.24
297.76	2011.11
297.98	2013.15
298.19	1970.15
298.41	1984.48
298.62	1943.52
298.83	2058.21
299.05	1972.19
299.26	1884.13
299.48	1861.60
299.69	1943.52
299.90	1966.05
300.12	1941.47
300.33	2052.06
300.55	1898.47
300.76	1955.81
300.98	1886.18
301.19	2041.82
301.40	1910.75
301.62	1984.48
301.83	2007.01
302.05	2115.55
302.26	1886.18
302.47	1984.48
302.69	1834.98
302.90	2039.78
303.12	1867.75
303.33	1931.23
303.54	2138.08
303.76	1933.28
303.97	1957.86
304.19	2031.58
304.40	1861.60
304.61	2047.97
304.83	2138.08
305.04	1986.53
305.26	1925.09
305.47	1888.23
305.68	1964.00
305.90	1877.99
306.11	1992.67
306.33	1914.85
306.54	1853.41
306.75	2013.15
306.97	1851.36
307.18	1861.60
307.39	1882.08
307.61	2004.96
307.82	1914.85
308.04	1988.58
308.25	1884.13
308.46	1968.10
308.68	1990.63
308.89	1914.85
309.10	1966.05
309.32	2039.78
309.53	1931.23
309.74	1996.77
309.96	1906.66
310.17	2045.92
310.39	1949.67
310.60	1992.67
310.81	2019.30
311.03	1828.84
311.24	2043.87
311.45	2019.30
311.67	2105.31
311.88	1941.47
312.09	1941.47
312.31	1929.19
312.52	1957.86
312.73	1925.09
312.95	1886.18
313.16	1880.04
313.37	2027.49
313.59	2007.01
313.80	2025.44
314.01	2047.97
314.23	1865.70
314.44	1869.80
314.65	1855.46
314.87	1898.47
315.08	1912.80
315.29	1861.60
315.51	1894.37
315.72	1882.08
315.93	2095.07
316.15	1996.77
316.36	1904.61
316.57	2052.06
316.79	2045.92
317.00	1968.10
317.21	2047.97
317.43	1898.47
317.64	1949.67
317.85	1892.32
318.07	1902.56
318.28	1966.05
318.49	2109.41
318.70	2277.34
318.92	2113.50
319.13	2166.75
319.34	2224.09
319.56	2146.27
319.77	2160.61
319.98	2078.69
320.20	2090.98
320.41	2072.54
320.62	2037.73
320.83	1884.13
321.05	2064.35
321.26	1947.62
321.47	1939.43
321.69	2074.59
321.90	1873.89
322.11	1923.04
322.32	2037.73
322.54	2086.88
322.75	1914.85
322.96	2107.36
323.18	1912.80
323.39	1853.41
323.60	1832.93
323.81	1939.43
324.03	1929.19
324.24	1890.28
324.45	1931.23
324.66	1992.67
324.88	2007.01
325.09	2031.58
325.30	1957.86
325.52	2027.49
325.73	1994.72
325.94	1933.28
326.15	1847.27
326.37	1916.90
326.58	1966.05
326.79	2101.22
327.00	1923.04
327.22	1986.53
327.43	1894.37
327.64	1869.80
327.85	1933.28
328.07	1972.19
328.28	2082.78
328.49	1970.15
328.70	1929.19
328.92	1951.71
329.13	1947.62
329.34	1947.62
329.55	2121.70
329.76	2050.02
329.98	1949.67
330.19	2027.49
330.40	1955.81
330.61	2011.11
330.83	1984.48
331.04	1935.33
331.25	1908.71
331.46	1908.71
331.68	1957.86
331.89	2007.01
332.10	1941.47
332.31	1890.28
332.52	1941.47
332.74	2002.91
332.95	1894.37
333.16	1916.90
333.37	2007.01
333.58	1949.67
333.80	1931.23
334.01	1837.03
334.22	1996.77
334.43	1886.18
334.64	1896.42
334.86	1896.42
335.07	1892.32
335.28	2058.21
335.49	1847.27
335.70	2009.06
335.92	2062.30
336.13	2082.78
336.34	1978.34
336.55	1961.95
336.76	2004.96
336.98	1832.93
337.19	1945.57
337.40	2121.70
337.61	2179.04
337.82	1970.15
338.04	1984.48
338.25	1853.41
338.46	1974.24
338.67	1912.80
338.88	1964.00
339.09	1867.75
339.31	1949.67
339.52	1869.80
339.73	1896.42
339.94	1920.99
340.15	2068.45
340.36	1875.94
340.58	1937.38
340.79	1894.37
341.00	2058.21
341.21	1837.03
341.42	2052.06
341.63	1957.86
341.85	2027.49
342.06	1953.76
342.27	1871.84
342.48	2021.35
342.69	1800.16
342.90	1875.94
343.12	1998.82
343.33	1925.09
343.54	1984.48
343.75	2103.26
343.96	1978.34
344.17	1914.85
344.38	1937.38
344.60	1894.37
344.81	1847.27
345.02	1920.99
345.23	2037.73
345.44	2111.46
345.65	1943.52
345.86	1984.48
346.07	1943.52
346.29	1912.80
346.50	1961.95
346.71	1984.48
346.92	2154.46
347.13	2115.55
347.34	1998.82
347.55	1914.85
347.76	1959.91
347.98	1822.69
348.19	2015.20
348.40	2080.74
348.61	1996.77
348.82	2070.50
349.03	2037.73
349.24	1929.19
349.45	2021.35
349.66	1744.87
349.88	1990.63
350.09	1925.09
350.30	2095.07
350.51	2107.36
350.72	1886.18
350.93	1980.39
351.14	1949.67
351.35	2023.39
351.56	1945.57
351.77	1974.24
351.99	1994.72
352.20	2045.92
352.41	2058.21
352.62	1839.08
352.83	1882.08
353.04	1943.52
353.25	1945.57
353.46	2052.06
353.67	2070.50
353.88	1818.60
354.09	1957.86
354.30	1894.37
354.52	2088.93
354.73	1925.09
354.94	1912.80
355.15	1953.76
355.36	2082.78
355.57	1890.28
355.78	1943.52
355.99	1912.80
356.20	1912.80
356.41	1976.29
356.62	1994.72
356.83	1949.67
357.04	2033.63
357.25	1837.03
357.46	1943.52
357.68	1916.90
357.89	1818.60
358.10	1998.82
358.31	1918.95
358.52	1935.33
358.73	1898.47
358.94	1923.04
359.15	1914.85
359.36	1974.24
359.57	2019.30
359.78	1990.63
359.99	2074.59
360.20	1826.79
360.41	1867.75
360.62	1978.34
360.83	1953.76
361.04	1994.72
361.25	1992.67
361.46	2064.35
361.67	2039.78
361.88	1986.53
362.09	2007.01
362.30	2035.68
362.51	1920.99
362.72	1951.71
362.93	2088.93
363.14	1984.48
363.35	2011.11
363.56	1849.32
363.78	2064.35
363.99	1947.62
364.20	1923.04
364.41	1939.43
364.62	2062.30
364.83	1996.77
365.04	1890.28
365.25	1951.71
365.46	2123.74
365.67	1910.75
365.88	2000.87
366.09	1927.14
366.30	1955.81
366.51	2013.15
366.72	1939.43
366.93	1918.95
367.14	2047.97
367.35	2074.59
367.56	1970.15
367.77	2074.59
367.98	2035.68
368.18	1978.34
368.39	1990.63
368.60	1837.03
368.81	1996.77
369.02	1955.81
369.23	1935.33
369.44	1812.45
369.65	1957.86
369.86	1992.67
370.07	2043.87
370.28	1880.04
370.49	1953.76
370.70	2011.11
370.91	1851.36
371.12	1863.65
371.33	2011.11
371.54	1945.57
371.75	2168.80
371.96	1841.12
372.17	2037.73
372.38	1945.57
372.59	1998.82
372.80	1923.04
373.01	1914.85
373.22	1957.86
373.43	1959.91
373.64	1839.08
373.85	2050.02
374.06	2111.46
374.26	2000.87
374.47	2007.01
374.68	2119.65
374.89	1918.95
375.10	1904.61
375.31	2060.26
375.52	1939.43
375.73	1974.24
375.94	1869.80
376.15	2027.49
376.36	1937.38
376.57	1953.76
376.78	1890.28
376.99	1933.28
377.20	2074.59
377.40	1964.00
377.61	2117.60
377.82	1875.94
378.03	2113.50
378.24	2088.93
378.45	1898.47
378.66	1947.62
378.87	1834.98
379.08	1906.66
379.29	1966.05
379.50	1959.91
379.71	2029.54
379.91	2133.98
380.12	1959.91
380.33	1986.53
380.54	1923.04
380.75	1980.39
380.96	1869.80
381.17	2013.15
381.38	2004.96
381.59	1961.95
381.80	2054.11
382.00	2109.41
382.21	2070.50
382.42	2117.60
382.63	2187.23
382.84	2035.68
383.05	2037.73
383.26	2066.40
383.47	1933.28
383.68	2011.11
383.88	2041.82
384.09	2015.20
384.30	2172.89
384.51	1953.76
384.72	1966.05
384.93	1814.50
385.14	1941.47
385.35	1996.77
385.55	1853.41
385.76	2043.87
385.97	1953.76
386.18	1830.88
386.39	1916.90
386.60	1966.05
386.81	2000.87
387.02	1882.08
387.22	1894.37
387.43	2095.07
387.64	2176.99
387.85	2103.26
388.06	2295.77
388.27	4007.87
388.48	8488.83
388.68	11890.51
388.89	14047.02
389.10	15441.68
389.31	14026.54
389.52	11091.80
389.73	9658.22
389.93	8720.25
390.14	7833.48
390.35	7143.32
390.56	6373.28
390.77	5384.11
390.98	4116.42
391.18	3219.41
391.39	2531.29
391.60	2150.37
391.81	2115.55
392.02	2000.87
392.23	2168.80
392.43	1947.62
392.64	2074.59
392.85	1968.10
393.06	2103.26
393.27	2021.35
393.47	1947.62
393.68	2009.06
393.89	1904.61
394.10	1957.86
394.31	1939.43
394.52	1951.71
394.72	1949.67
394.93	2121.70
395.14	1923.04
395.35	1996.77
395.56	1955.81
395.76	1937.38
395.97	1974.24
396.18	2107.36
396.39	2211.81
396.60	2351.07
396.80	2256.86
397.01	2209.76
397.22	2090.98
397.43	2105.31
397.64	2013.15
397.84	2062.30
398.05	2187.23
398.26	2007.01
398.47	2154.46
398.67	2088.93
398.88	1906.66
399.09	2060.26
399.30	1906.66
399.51	1961.95
399.71	1902.56
399.92	2002.91
400.13	2025.44
400.34	1957.86
400.54	1941.47
400.75	2045.92
400.96	1990.63
401.17	2070.50
401.37	1976.29
401.58	1877.99
401.79	1982.43
402.00	2076.64
402.21	2275.29
402.41	2299.87
402.62	2420.70
402.83	2379.74
403.04	2387.93
403.24	2457.56
403.45	2146.27
403.66	2195.42
403.87	2125.79
404.07	2201.57
404.28	2179.04
404.49	2195.42
404.70	2138.08
404.90	2058.21
405.11	2039.78
405.32	2041.82
405.52	1986.53
405.73	1937.38
405.94	1843.17
406.15	1951.71
406.35	2025.44
406.56	2078.69
406.77	1953.76
406.98	1931.23
407.18	1933.28
407.39	2093.02
407.60	2013.15
407.80	2013.15
408.01	1908.71
408.22	1990.63
408.43	1906.66
408.63	1945.57
408.84	2011.11
409.05	2007.01
409.25	1949.67
409.46	1902.56
409.67	1900.52
409.88	1892.32
410.08	1968.10
410.29	1941.47
410.50	2013.15
410.70	1927.14
410.91	1886.18
411.12	1923.04
411.32	1908.71
411.53	1834.98
411.74	2095.07
411.95	2011.11
412.15	2029.54
412.36	2090.98
412.57	2062.30
412.77	2045.92
412.98	1988.58
413.19	1976.29
413.39	2058.21
413.60	1978.34
413.81	2086.88
414.01	1900.52
414.22	1972.19
414.43	2072.54
414.63	1998.82
414.84	2052.06
415.05	1951.71
415.25	1880.04
415.46	2054.11
415.67	1886.18
415.87	1988.58
416.08	1898.47
416.29	1920.99
416.49	2007.01
416.70	1955.81
416.91	1998.82
417.11	1908.71
417.32	2002.91
417.53	1970.15
417.73	1992.67
417.94	1982.43
418.15	1992.67
418.35	1998.82
418.56	2025.44
418.77	2131.94
418.97	1896.42
419.18	1947.62
419.38	1777.64
419.59	1945.57
419.80	2080.74
420.00	1961.95
420.21	1996.77
420.42	2021.35
420.62	1914.85
420.83	1902.56
421.04	1996.77
421.24	1920.99
421.45	1904.61
421.65	2080.74
421.86	1927.14
422.07	2033.63
422.27	1966.05
422.48	1953.76
422.69	1800.16
422.89	1933.28
423.10	2027.49
423.30	1927.14
423.51	1966.05
423.72	2035.68
423.92	2019.30
424.13	1839.08
424.33	1964.00
424.54	1974.24
424.75	1986.53
424.95	2043.87
425.16	1966.05
425.36	1902.56
425.57	1943.52
425.78	1998.82
425.98	2017.25
426.19	1914.85
426.39	1845.22
426.60	1925.09
426.81	2066.40
427.01	2021.35
427.22	1902.56
427.42	1718.25
427.63	1953.76
427.83	2050.02
428.04	2052.06
428.25	1980.39
428.45	2093.02
428.66	2025.44
428.86	1990.63
429.07	1861.60
429.28	2025.44
429.48	1961.95
429.69	1894.37
429.89	1998.82
430.10	1855.46
430.30	2043.87
430.51	2070.50
430.71	1861.60
430.92	1949.67
431.13	1843.17
431.33	2027.49
431.54	1998.82
431.74	2068.45
431.95	2152.42
432.15	1894.37
432.36	2031.58
432.56	2027.49
432.77	2117.60
432.98	2140.13
433.18	1947.62
433.39	2007.01
433.59	1955.81
433.80	2097.12
434.00	2181.09
434.21	1961.95
434.41	1918.95
434.62	2174.94
434.82	1884.13
435.03	1896.42
435.23	1966.05
435.44	1931.23
435.64	1916.90
435.85	2007.01
436.06	1970.15
436.26	1996.77
436.47	1994.72
436.67	1906.66
436.88	1978.34
437.08	2068.45
437.29	2097.12
437.49	1978.34
437.70	2037.73
437.90	1953.76
438.11	2097.12
438.31	2000.87
438.52	2131.94
438.72	2215.90
438.93	2238.43
439.13	2103.26
439.34	2156.51
439.54	2082.78
439.75	2070.50
439.95	2064.35
440.16	1966.05
440.36	2027.49
440.57	2025.44
440.77	1974.24
440.98	1968.10
441.18	2035.68
441.39	1894.37
441.59	1949.67
441.80	2084.83
442.00	1970.15
442.21	2095.07
442.41	1961.95
442.62	2031.58
442.82	1904.61
443.02	1980.39
443.23	1988.58
443.43	1980.39
443.64	2127.84
443.84	1984.48
444.05	2047.97
444.25	1939.43
444.46	1974.24
444.66	1904.61
444.87	2140.13
445.07	1865.70
445.28	2027.49
445.48	2080.74
445.69	2054.11
445.89	2078.69
446.09	1998.82
446.30	2252.77
446.50	2615.26
446.71	4247.49
446.91	5189.55
447.12	6223.78
447.32	6481.82
447.53	6047.65
447.73	4943.80
447.93	4317.12
448.14	4001.73
448.34	3882.95
448.55	3508.17
448.75	3452.88
448.96	3162.06
449.16	2865.11
449.36	2650.07
449.57	2357.21
449.77	2160.61
449.98	2025.44
450.18	2115.55
450.39	2025.44
450.59	1988.58
450.79	1906.66
451.00	1933.28
451.20	2050.02
451.41	2023.39
451.61	2021.35
451.81	1947.62
452.02	1994.72
452.22	1902.56
452.43	1910.75
452.63	1933.28
