SpectraSuite Data File
++++++++++++++++++++++++++++++++++++
Date: Wed May 04 22:46:04 CEST 2016
User: root
Dark Spectrum Present: No
Reference Spectrum Present: No
Number of Sampled Component Spectra: 1
Spectrometers: USB4C02835
Integration Time (usec): 100000 (USB4C02835)
Spectra Averaged: 1 (USB4C02835)
Boxcar Smoothing: 0 (USB4C02835)
Correct for Electrical Dark: No (USB4C02835)
Strobe/Lamp Enabled: No (USB4C02835)
Correct for Detector Non-linearity: No (USB4C02835)
Correct for Stray Light: No (USB4C02835)
Number of Pixels in Processed Spectrum: 3648
>>>>>Begin Processed Spectral Data<<<<<
177.47	1591.27
177.69	1591.27
177.91	1591.27
178.13	1591.27
178.36	1681.38
178.58	1798.12
178.80	2043.87
179.02	1857.51
179.24	1933.28
179.46	1937.38
179.68	1951.71
179.90	1916.90
180.13	1988.58
180.35	1939.43
180.57	1951.71
180.79	2021.35
181.01	1968.10
181.23	1939.43
181.45	1992.67
181.67	2029.54
181.90	2062.30
182.12	1877.99
182.34	1841.12
182.56	1918.95
182.78	1990.63
183.00	1937.38
183.22	1968.10
183.44	1794.02
183.66	2185.18
183.89	1916.90
184.11	2009.06
184.33	1955.81
184.55	2086.88
184.77	1947.62
184.99	1953.76
185.21	1920.99
185.43	2088.93
185.65	1953.76
185.87	1894.37
186.10	2156.51
186.32	2084.83
186.54	1910.75
186.76	1939.43
186.98	2064.35
187.20	1927.14
187.42	1855.46
187.64	1957.86
187.86	2078.69
188.08	2035.68
188.30	1931.23
188.52	1943.52
188.75	2047.97
188.97	2090.98
189.19	1951.71
189.41	1996.77
189.63	1988.58
189.85	1939.43
190.07	1798.12
190.29	1787.88
190.51	1961.95
190.73	1851.36
190.95	2043.87
191.17	1898.47
191.39	1832.93
191.61	1955.81
191.84	1906.66
192.06	1957.86
192.28	1834.98
192.50	2097.12
192.72	1964.00
192.94	1925.09
193.16	1982.43
193.38	1886.18
193.60	1916.90
193.82	1898.47
194.04	2025.44
194.26	1990.63
194.48	1912.80
194.70	1939.43
194.92	1933.28
195.14	2037.73
195.36	1812.45
195.58	2017.25
195.80	1933.28
196.02	1877.99
196.24	1972.19
196.46	1920.99
196.69	1898.47
196.91	2193.37
197.13	1910.75
197.35	1916.90
197.57	2068.45
197.79	2068.45
198.01	1964.00
198.23	1992.67
198.45	2027.49
198.67	1875.94
198.89	1951.71
199.11	2041.82
199.33	1970.15
199.55	1824.74
199.77	1900.52
199.99	2080.74
200.21	1875.94
200.43	1970.15
200.65	1822.69
200.87	1804.26
201.09	1980.39
201.31	1900.52
201.53	1990.63
201.75	1935.33
201.97	2009.06
202.19	1927.14
202.41	1884.13
202.63	2080.74
202.85	1988.58
203.07	1933.28
203.29	1933.28
203.51	1822.69
203.73	1918.95
203.95	2275.29
204.17	1935.33
204.39	2037.73
204.61	1910.75
204.83	1920.99
205.05	1918.95
205.27	1980.39
205.49	2101.22
205.71	1939.43
205.93	1869.80
206.15	1857.51
206.37	1959.91
206.59	1892.32
206.81	1818.60
207.03	1845.22
207.25	1853.41
207.47	1994.72
207.69	1929.19
207.91	2058.21
208.13	2101.22
208.34	1877.99
208.56	1904.61
208.78	1900.52
209.00	1912.80
209.22	1867.75
209.44	1898.47
209.66	1939.43
209.88	1953.76
210.10	1906.66
210.32	1873.89
210.54	1986.53
210.76	1974.24
210.98	2045.92
211.20	1779.68
211.42	1845.22
211.64	1964.00
211.86	1996.77
212.08	1998.82
212.30	1941.47
212.52	1837.03
212.74	1951.71
212.96	1937.38
213.17	2058.21
213.39	1984.48
213.61	2176.99
213.83	1923.04
214.05	1927.14
214.27	2021.35
214.49	1900.52
214.71	1873.89
214.93	1957.86
215.15	1976.29
215.37	2064.35
215.59	1828.84
215.81	1970.15
216.03	2037.73
216.24	1937.38
216.46	1900.52
216.68	1984.48
216.90	2029.54
217.12	2031.58
217.34	1931.23
217.56	1964.00
217.78	2125.79
218.00	1959.91
218.22	1933.28
218.44	1998.82
218.66	2025.44
218.87	2060.26
219.09	1929.19
219.31	1943.52
219.53	1918.95
219.75	1908.71
219.97	1931.23
220.19	1974.24
220.41	1925.09
220.63	2029.54
220.85	2029.54
221.06	1927.14
221.28	2056.16
221.50	2017.25
221.72	1996.77
221.94	1964.00
222.16	2011.11
222.38	2043.87
222.60	1970.15
222.82	1910.75
223.03	2007.01
223.25	1865.70
223.47	1937.38
223.69	2095.07
223.91	2029.54
224.13	1961.95
224.35	1906.66
224.57	2037.73
224.78	2025.44
225.00	1984.48
225.22	1945.57
225.44	1937.38
225.66	1972.19
225.88	1898.47
226.10	2054.11
226.32	1939.43
226.53	2093.02
226.75	1947.62
226.97	1945.57
227.19	1966.05
227.41	1828.84
227.63	1888.23
227.85	1880.04
228.06	1933.28
228.28	2015.20
228.50	2004.96
228.72	1832.93
228.94	1896.42
229.16	1847.27
229.37	1933.28
229.59	1914.85
229.81	2009.06
230.03	1966.05
230.25	1826.79
230.47	1914.85
230.69	1859.56
230.90	2035.68
231.12	1859.56
231.34	1941.47
231.56	1974.24
231.78	1841.12
232.00	2021.35
232.21	1970.15
232.43	1834.98
232.65	1857.51
232.87	1996.77
233.09	1787.88
233.30	1914.85
233.52	1980.39
233.74	1984.48
233.96	1908.71
234.18	1978.34
234.40	1964.00
234.61	2088.93
234.83	1845.22
235.05	1806.31
235.27	2189.28
235.49	2050.02
235.70	1951.71
235.92	2058.21
236.14	1982.43
236.36	2154.46
236.58	1896.42
236.79	2007.01
237.01	2011.11
237.23	1890.28
237.45	2015.20
237.67	1900.52
237.88	1976.29
238.10	2199.52
238.32	1873.89
238.54	1873.89
238.76	1990.63
238.97	1875.94
239.19	1851.36
239.41	1964.00
239.63	2054.11
239.85	1894.37
240.06	1904.61
240.28	1863.65
240.50	1996.77
240.72	2105.31
240.93	1923.04
241.15	2013.15
241.37	1957.86
241.59	2107.36
241.81	1961.95
242.02	1933.28
242.24	2039.78
242.46	1984.48
242.68	1941.47
242.89	1945.57
243.11	2031.58
243.33	1964.00
243.55	1978.34
243.76	1998.82
243.98	1884.13
244.20	1904.61
244.42	1900.52
244.64	2035.68
244.85	1875.94
245.07	1929.19
245.29	1916.90
245.51	1929.19
245.72	1955.81
245.94	2056.16
246.16	1916.90
246.38	1945.57
246.59	1937.38
246.81	1830.88
247.03	1910.75
247.24	1834.98
247.46	1929.19
247.68	1920.99
247.90	1898.47
248.11	1990.63
248.33	2056.16
248.55	1959.91
248.77	2002.91
248.98	1984.48
249.20	2129.89
249.42	1984.48
249.64	1949.67
249.85	1961.95
250.07	1949.67
250.29	1961.95
250.50	2041.82
250.72	1843.17
250.94	1953.76
251.16	2086.88
251.37	2023.39
251.59	1972.19
251.81	2002.91
252.02	2060.26
252.24	1900.52
252.46	2039.78
252.68	1877.99
252.89	1918.95
253.11	1841.12
253.33	2070.50
253.54	2095.07
253.76	1904.61
253.98	1933.28
254.20	1943.52
254.41	1822.69
254.63	1957.86
254.85	1873.89
255.06	1959.91
255.28	2031.58
255.50	1988.58
255.71	1941.47
255.93	1796.07
256.15	1955.81
256.36	2004.96
256.58	1884.13
256.80	1957.86
257.02	1927.14
257.23	1982.43
257.45	1910.75
257.67	2009.06
257.88	1931.23
258.10	2037.73
258.32	1957.86
258.53	1998.82
258.75	2027.49
258.97	1888.23
259.18	1949.67
259.40	1951.71
259.62	2068.45
259.83	2035.68
260.05	2025.44
260.27	2277.34
260.48	1972.19
260.70	1900.52
260.92	1908.71
261.13	1984.48
261.35	1966.05
261.57	1951.71
261.78	1816.55
262.00	1845.22
262.22	1951.71
262.43	1849.32
262.65	1955.81
262.86	1966.05
263.08	2086.88
263.30	1970.15
263.51	1753.06
263.73	1869.80
263.95	2025.44
264.16	1955.81
264.38	1873.89
264.60	1980.39
264.81	1898.47
265.03	2023.39
265.25	2056.16
265.46	1964.00
265.68	2013.15
265.89	1970.15
266.11	1849.32
266.33	2013.15
266.54	2027.49
266.76	1947.62
266.98	1957.86
267.19	2066.40
267.41	2021.35
267.62	1935.33
267.84	1839.08
268.06	1931.23
268.27	1964.00
268.49	2007.01
268.70	1988.58
268.92	1871.84
269.14	1943.52
269.35	1810.40
269.57	1900.52
269.79	1957.86
270.00	1888.23
270.22	2093.02
270.43	1853.41
270.65	1769.44
270.87	1968.10
271.08	2013.15
271.30	1976.29
271.51	1873.89
271.73	1959.91
271.95	1992.67
272.16	1937.38
272.38	1978.34
272.59	1892.32
272.81	2052.06
273.02	1894.37
273.24	1970.15
273.46	2009.06
273.67	1882.08
273.89	1896.42
274.10	1906.66
274.32	2039.78
274.54	1898.47
274.75	1959.91
274.97	1927.14
275.18	2033.63
275.40	1976.29
275.61	1980.39
275.83	2035.68
276.05	1865.70
276.26	1968.10
276.48	1978.34
276.69	1990.63
276.91	1890.28
277.12	2084.83
277.34	1978.34
277.55	2050.02
277.77	1927.14
277.99	1841.12
278.20	1884.13
278.42	1918.95
278.63	1906.66
278.85	1880.04
279.06	1925.09
279.28	1986.53
279.49	2039.78
279.71	2031.58
279.93	1964.00
280.14	1951.71
280.36	1869.80
280.57	1980.39
280.79	2037.73
281.00	1873.89
281.22	1947.62
281.43	2019.30
281.65	1865.70
281.86	1914.85
282.08	1966.05
282.29	2054.11
282.51	1935.33
282.73	1927.14
282.94	1789.92
283.16	1996.77
283.37	2066.40
283.59	1945.57
283.80	1927.14
284.02	1953.76
284.23	2037.73
284.45	1896.42
284.66	1837.03
284.88	1972.19
285.09	1978.34
285.31	1949.67
285.52	1964.00
285.74	1902.56
285.95	2105.31
286.17	1949.67
286.38	2050.02
286.60	1908.71
286.81	1855.46
287.03	1873.89
287.24	1947.62
287.46	2004.96
287.67	1998.82
287.89	2142.18
288.10	2002.91
288.32	2043.87
288.53	2084.83
288.75	1976.29
288.96	2000.87
289.18	1859.56
289.39	1945.57
289.61	1982.43
289.82	2191.33
290.04	2060.26
290.25	1818.60
290.47	1982.43
290.68	1939.43
290.90	1998.82
291.11	1791.97
291.33	2052.06
291.54	1824.74
291.76	1900.52
291.97	2002.91
292.18	1984.48
292.40	1822.69
292.61	1927.14
292.83	2058.21
293.04	1918.95
293.26	1955.81
293.47	1916.90
293.69	1994.72
293.90	1943.52
294.12	2121.70
294.33	2031.58
294.55	1990.63
294.76	2025.44
294.97	2041.82
295.19	2045.92
295.40	1964.00
295.62	1986.53
295.83	1947.62
296.05	1970.15
296.26	2025.44
296.48	1890.28
296.69	2019.30
296.90	1896.42
297.12	2009.06
297.33	1966.05
297.55	1968.10
297.76	1964.00
297.98	2056.16
298.19	1951.71
298.41	1925.09
298.62	1898.47
298.83	2011.11
299.05	1990.63
299.26	1947.62
299.48	1830.88
299.69	2021.35
299.90	2017.25
300.12	1849.32
300.33	2088.93
300.55	1947.62
300.76	1929.19
300.98	1877.99
301.19	1918.95
301.40	1925.09
301.62	1945.57
301.83	1966.05
302.05	2037.73
302.26	1937.38
302.47	1957.86
302.69	1841.12
302.90	1941.47
303.12	1751.01
303.33	1990.63
303.54	2113.50
303.76	1904.61
303.97	1951.71
304.19	2060.26
304.40	1857.51
304.61	1980.39
304.83	2111.46
305.04	2050.02
305.26	2029.54
305.47	1951.71
305.68	1974.24
305.90	1837.03
306.11	2078.69
306.33	1976.29
306.54	1894.37
306.75	1892.32
306.97	1843.17
307.18	1937.38
307.39	1982.43
307.61	2017.25
307.82	1898.47
308.04	1957.86
308.25	1845.22
308.46	1968.10
308.68	2013.15
308.89	1894.37
309.10	2045.92
309.32	1984.48
309.53	1923.04
309.74	1951.71
309.96	1945.57
310.17	2072.54
310.39	1951.71
310.60	1968.10
310.81	1968.10
311.03	1853.41
311.24	2007.01
311.45	1898.47
311.67	2076.64
311.88	1902.56
312.09	1929.19
312.31	1810.40
312.52	1918.95
312.73	1896.42
312.95	1818.60
313.16	1957.86
313.37	1992.67
313.59	1937.38
313.80	1982.43
314.01	2084.83
314.23	1896.42
314.44	1953.76
314.65	1816.55
314.87	1945.57
315.08	1898.47
315.29	1884.13
315.51	1890.28
315.72	1884.13
315.93	1923.04
316.15	2117.60
316.36	1904.61
316.57	1904.61
316.79	2033.63
317.00	1880.04
317.21	2050.02
317.43	1910.75
317.64	2004.96
317.85	1951.71
318.07	1937.38
318.28	1968.10
318.49	2148.32
318.70	2242.53
318.92	2086.88
319.13	2176.99
319.34	2176.99
319.56	2103.26
319.77	2146.27
319.98	2093.02
320.20	2129.89
320.41	2095.07
320.62	2050.02
320.83	1982.43
321.05	2082.78
321.26	1918.95
321.47	1923.04
321.69	1992.67
321.90	1834.98
322.11	1918.95
322.32	2002.91
322.54	2068.45
322.75	1931.23
322.96	2162.66
323.18	1877.99
323.39	1748.97
323.60	1918.95
323.81	2054.11
324.03	1849.32
324.24	1957.86
324.45	1964.00
324.66	1931.23
324.88	2011.11
325.09	2140.13
325.30	1927.14
325.52	1910.75
325.73	2007.01
325.94	1861.60
326.15	1904.61
326.37	1941.47
326.58	2033.63
326.79	2027.49
327.00	1923.04
327.22	1980.39
327.43	1892.32
327.64	1820.64
327.85	1978.34
328.07	2002.91
328.28	2123.74
328.49	1902.56
328.70	1945.57
328.92	1867.75
329.13	1914.85
329.34	1961.95
329.55	2050.02
329.76	2009.06
329.98	1880.04
330.19	2056.16
330.40	1945.57
330.61	1918.95
330.83	2009.06
331.04	1939.43
331.25	2011.11
331.46	1959.91
331.68	1925.09
331.89	2072.54
332.10	1957.86
332.31	1857.51
332.52	1976.29
332.74	1966.05
332.95	1914.85
333.16	1892.32
333.37	1959.91
333.58	1912.80
333.80	2021.35
334.01	1847.27
334.22	1957.86
334.43	1945.57
334.64	1869.80
334.86	1886.18
335.07	1912.80
335.28	2013.15
335.49	1865.70
335.70	2015.20
335.92	2047.97
336.13	2152.42
336.34	2004.96
336.55	2035.68
336.76	1957.86
336.98	1853.41
337.19	1988.58
337.40	2009.06
337.61	2099.17
337.82	1935.33
338.04	2033.63
338.25	1806.31
338.46	1951.71
338.67	1865.70
338.88	1849.32
339.09	1912.80
339.31	1853.41
339.52	1888.23
339.73	1890.28
339.94	1961.95
340.15	1994.72
340.36	1880.04
340.58	1925.09
340.79	1832.93
341.00	2039.78
341.21	1851.36
341.42	2029.54
341.63	1957.86
341.85	2017.25
342.06	1988.58
342.27	1925.09
342.48	1949.67
342.69	1816.55
342.90	1984.48
343.12	2031.58
343.33	1923.04
343.54	2142.18
343.75	2123.74
343.96	2000.87
344.17	1906.66
344.38	1964.00
344.60	1845.22
344.81	1923.04
345.02	1945.57
345.23	2041.82
345.44	2050.02
345.65	2031.58
345.86	1976.29
346.07	1988.58
346.29	1894.37
346.50	2009.06
346.71	2000.87
346.92	2041.82
347.13	2062.30
347.34	1984.48
347.55	1914.85
347.76	2060.26
347.98	1896.42
348.19	1972.19
348.40	2009.06
348.61	1912.80
348.82	2105.31
349.03	2015.20
349.24	1865.70
349.45	2035.68
349.66	1773.54
349.88	2015.20
350.09	1906.66
350.30	2035.68
350.51	2125.79
350.72	1933.28
350.93	1986.53
351.14	1898.47
351.35	1959.91
351.56	1947.62
351.77	1939.43
351.99	1937.38
352.20	2107.36
352.41	2009.06
352.62	1896.42
352.83	1916.90
353.04	1935.33
353.25	1929.19
353.46	2009.06
353.67	2043.87
353.88	1781.73
354.09	1974.24
354.30	1984.48
354.52	2078.69
354.73	2058.21
354.94	1871.84
355.15	2004.96
355.36	2117.60
355.57	1935.33
355.78	2013.15
355.99	1902.56
356.20	1982.43
356.41	2039.78
356.62	1980.39
356.83	1914.85
357.04	2090.98
357.25	1875.94
357.46	1914.85
357.68	1851.36
357.89	1904.61
358.10	1951.71
358.31	1933.28
358.52	1974.24
358.73	1845.22
358.94	1886.18
359.15	1865.70
359.36	1931.23
359.57	2031.58
359.78	1974.24
359.99	1964.00
360.20	1890.28
360.41	1947.62
360.62	2056.16
360.83	1974.24
361.04	1892.32
361.25	2007.01
361.46	2125.79
361.67	2033.63
361.88	2035.68
362.09	1978.34
362.30	1947.62
362.51	1935.33
362.72	1947.62
362.93	2013.15
363.14	1988.58
363.35	1996.77
363.56	1904.61
363.78	1996.77
363.99	1994.72
364.20	1877.99
364.41	1986.53
364.62	2166.75
364.83	1939.43
365.04	1964.00
365.25	1996.77
365.46	2109.41
365.67	1964.00
365.88	1875.94
366.09	1933.28
366.30	1986.53
366.51	1896.42
366.72	1834.98
366.93	1933.28
367.14	1941.47
367.35	2043.87
367.56	1984.48
367.77	2068.45
367.98	1990.63
368.18	1972.19
368.39	2054.11
368.60	1918.95
368.81	1949.67
369.02	1966.05
369.23	1863.65
369.44	1845.22
369.65	1931.23
369.86	2052.06
370.07	1988.58
370.28	1916.90
370.49	1990.63
370.70	2011.11
370.91	1898.47
371.12	1845.22
371.33	2070.50
371.54	1880.04
371.75	2033.63
371.96	1830.88
372.17	1990.63
372.38	1941.47
372.59	2047.97
372.80	1980.39
373.01	1947.62
373.22	2047.97
373.43	1957.86
373.64	1857.51
373.85	2088.93
374.06	2007.01
374.26	2068.45
374.47	1939.43
374.68	2072.54
374.89	1988.58
375.10	1949.67
375.31	1972.19
375.52	2029.54
375.73	1982.43
375.94	1918.95
376.15	2068.45
376.36	1939.43
376.57	1882.08
376.78	1941.47
376.99	1998.82
377.20	2070.50
377.40	1941.47
377.61	2097.12
377.82	1927.14
378.03	2072.54
378.24	1941.47
378.45	1918.95
378.66	1957.86
378.87	1894.37
379.08	1824.74
379.29	1927.14
379.50	2052.06
379.71	1982.43
379.91	1984.48
380.12	1951.71
380.33	1939.43
380.54	1964.00
380.75	1949.67
380.96	1865.70
381.17	2168.80
381.38	1994.72
381.59	1992.67
381.80	2015.20
382.00	2168.80
382.21	2045.92
382.42	2166.75
382.63	2189.28
382.84	2027.49
383.05	2119.65
383.26	2090.98
383.47	1951.71
383.68	1998.82
383.88	1937.38
384.09	2035.68
384.30	2166.75
384.51	1986.53
384.72	1851.36
384.93	1873.89
385.14	1970.15
385.35	2002.91
385.55	1949.67
385.76	2019.30
385.97	1964.00
386.18	1886.18
386.39	1974.24
386.60	1949.67
386.81	1933.28
387.02	1949.67
387.22	1964.00
387.43	2066.40
387.64	2039.78
387.85	2144.22
388.06	2193.37
388.27	3993.54
388.48	8519.55
388.68	11978.57
388.89	14141.22
389.10	15046.43
389.31	14028.59
389.52	10985.30
389.73	9473.90
389.93	8746.87
390.14	7833.48
390.35	7149.46
390.56	6492.06
390.77	5439.40
390.98	4126.66
391.18	3055.57
391.39	2521.05
391.60	2172.89
391.81	2133.98
392.02	2007.01
392.23	2170.85
392.43	2041.82
392.64	2076.64
392.85	2021.35
393.06	2127.84
393.27	1984.48
393.47	1841.12
393.68	2027.49
393.89	1966.05
394.10	2064.35
394.31	1957.86
394.52	1943.52
394.72	1968.10
394.93	2099.17
395.14	1890.28
395.35	2002.91
395.56	1832.93
395.76	1951.71
395.97	2039.78
396.18	2166.75
396.39	2144.22
396.60	2435.03
396.80	2232.29
397.01	2152.42
397.22	2144.22
397.43	2082.78
397.64	1947.62
397.84	2082.78
398.05	2152.42
398.26	2054.11
398.47	2070.50
398.67	1970.15
398.88	1964.00
399.09	2015.20
399.30	1972.19
399.51	1980.39
399.71	1935.33
399.92	2002.91
400.13	1968.10
400.34	2037.73
400.54	1916.90
400.75	2131.94
400.96	2009.06
401.17	2133.98
401.37	2011.11
401.58	1859.56
401.79	1898.47
402.00	2131.94
402.21	2291.68
402.41	2330.59
402.62	2316.25
402.83	2457.56
403.04	2349.02
403.24	2494.43
403.45	2150.37
403.66	2295.77
403.87	2154.46
404.07	2232.29
404.28	2156.51
404.49	2191.33
404.70	2037.73
404.90	2119.65
405.11	2013.15
405.32	2015.20
405.52	1904.61
405.73	1947.62
405.94	1875.94
406.15	1947.62
406.35	2021.35
406.56	2039.78
406.77	1978.34
406.98	2047.97
407.18	1857.51
407.39	2095.07
407.60	1902.56
407.80	1978.34
408.01	1933.28
408.22	1980.39
408.43	1904.61
408.63	1994.72
408.84	2002.91
409.05	1970.15
409.25	1892.32
409.46	1957.86
409.67	1970.15
409.88	1941.47
410.08	2013.15
410.29	1906.66
410.50	2062.30
410.70	2029.54
410.91	1857.51
411.12	2039.78
411.32	1986.53
411.53	1912.80
411.74	2043.87
411.95	2093.02
412.15	1996.77
412.36	2009.06
412.57	2078.69
412.77	2127.84
412.98	1992.67
413.19	2029.54
413.39	2086.88
413.60	2025.44
413.81	2066.40
414.01	1912.80
414.22	1945.57
414.43	2050.02
414.63	1964.00
414.84	2084.83
415.05	2041.82
415.25	1869.80
415.46	2082.78
415.67	2002.91
415.87	2031.58
416.08	1986.53
416.29	1929.19
416.49	2029.54
416.70	1861.60
416.91	1920.99
417.11	1916.90
417.32	2015.20
417.53	1998.82
417.73	2047.97
417.94	1943.52
418.15	2000.87
418.35	1949.67
418.56	1984.48
418.77	2170.85
418.97	1933.28
419.18	1986.53
419.38	1810.40
419.59	2013.15
419.80	2101.22
420.00	1925.09
420.21	1970.15
420.42	2142.18
420.62	2007.01
420.83	1859.56
421.04	1966.05
421.24	1888.23
421.45	2068.45
421.65	2045.92
421.86	1871.84
422.07	2025.44
422.27	1964.00
422.48	2002.91
422.69	1918.95
422.89	1978.34
423.10	1859.56
423.30	1896.42
423.51	1953.76
423.72	1972.19
423.92	2015.20
424.13	1920.99
424.33	1937.38
424.54	2056.16
424.75	1955.81
424.95	2101.22
425.16	1974.24
425.36	1945.57
425.57	1972.19
425.78	1964.00
425.98	2058.21
426.19	1918.95
426.39	1865.70
426.60	1957.86
426.81	2080.74
427.01	2023.39
427.22	1896.42
427.42	1837.03
427.63	1933.28
427.83	1998.82
428.04	2090.98
428.25	2105.31
428.45	2050.02
428.66	2013.15
428.86	1939.43
429.07	1947.62
429.28	1974.24
429.48	1914.85
429.69	1943.52
429.89	2033.63
430.10	1900.52
430.30	2015.20
430.51	2056.16
430.71	1896.42
430.92	1935.33
431.13	1947.62
431.33	2027.49
431.54	1951.71
431.74	2058.21
431.95	2105.31
432.15	1896.42
432.36	1931.23
432.56	2021.35
432.77	2150.37
432.98	2156.51
433.18	1994.72
433.39	1894.37
433.59	1951.71
433.80	2185.18
434.00	2101.22
434.21	1953.76
434.41	1957.86
434.62	2187.23
434.82	1931.23
435.03	1888.23
435.23	1933.28
435.44	1798.12
435.64	1910.75
435.85	2009.06
436.06	2097.12
436.26	2009.06
436.47	1994.72
436.67	1855.46
436.88	1939.43
437.08	2031.58
437.29	2029.54
437.49	1947.62
437.70	2062.30
437.90	1884.13
438.11	2144.22
438.31	2002.91
438.52	2148.32
438.72	2095.07
438.93	2238.43
439.13	2131.94
439.34	2111.46
439.54	2050.02
439.75	2033.63
439.95	2090.98
440.16	1945.57
440.36	2031.58
440.57	2117.60
440.77	1968.10
440.98	2054.11
441.18	1984.48
441.39	1923.04
441.59	1953.76
441.80	2090.98
442.00	1945.57
442.21	2045.92
442.41	1920.99
442.62	2090.98
442.82	1927.14
443.02	1966.05
443.23	1988.58
443.43	1916.90
443.64	2170.85
443.84	2011.11
444.05	2156.51
444.25	2033.63
444.46	1976.29
444.66	1992.67
444.87	2119.65
445.07	1800.16
445.28	2035.68
445.48	2045.92
445.69	2039.78
445.89	2193.37
446.09	1966.05
446.30	2217.95
446.50	2635.74
446.71	4265.92
446.91	5363.63
447.12	6129.57
447.32	6377.37
447.53	6018.98
447.73	4847.54
447.93	4407.23
448.14	3940.29
448.34	3897.28
448.55	3385.29
448.75	3305.42
448.96	3135.44
449.16	2918.36
449.36	2594.78
449.57	2308.06
449.77	2179.04
449.98	2060.26
450.18	2017.25
450.39	2027.49
450.59	2025.44
450.79	1959.91
451.00	1888.23
451.20	1943.52
451.41	1966.05
451.61	2013.15
451.81	1984.48
452.02	1882.08
452.22	1910.75
452.43	1945.57
452.63	1923.04
