SpectraSuite Data File
++++++++++++++++++++++++++++++++++++
Date: Wed May 04 22:46:01 CEST 2016
User: root
Dark Spectrum Present: No
Reference Spectrum Present: No
Number of Sampled Component Spectra: 1
Spectrometers: USB4C02835
Integration Time (usec): 100000 (USB4C02835)
Spectra Averaged: 1 (USB4C02835)
Boxcar Smoothing: 0 (USB4C02835)
Correct for Electrical Dark: No (USB4C02835)
Strobe/Lamp Enabled: No (USB4C02835)
Correct for Detector Non-linearity: No (USB4C02835)
Correct for Stray Light: No (USB4C02835)
Number of Pixels in Processed Spectrum: 3648
>>>>>Begin Processed Spectral Data<<<<<
177.47	1638.38
177.69	1638.38
177.91	1638.38
178.13	1621.99
178.36	1636.33
178.58	1861.60
178.80	1937.38
179.02	1888.23
179.24	1877.99
179.46	1890.28
179.68	2033.63
179.90	1927.14
180.13	1927.14
180.35	1841.12
180.57	1974.24
180.79	2035.68
181.01	2037.73
181.23	1964.00
181.45	2029.54
181.67	1974.24
181.90	1998.82
182.12	1900.52
182.34	1894.37
182.56	1984.48
182.78	1955.81
183.00	1894.37
183.22	1941.47
183.44	1869.80
183.66	2146.27
183.89	1964.00
184.11	2004.96
184.33	2056.16
184.55	1992.67
184.77	1920.99
184.99	1892.32
185.21	1920.99
185.43	2168.80
185.65	1863.65
185.87	1966.05
186.10	2072.54
186.32	2109.41
186.54	1970.15
186.76	1982.43
186.98	2019.30
187.20	1941.47
187.42	1933.28
187.64	1908.71
187.86	1916.90
188.08	2031.58
188.30	1927.14
188.52	1945.57
188.75	2000.87
188.97	2033.63
189.19	1959.91
189.41	1855.46
189.63	2017.25
189.85	1918.95
190.07	1871.84
190.29	1861.60
190.51	1961.95
190.73	1873.89
190.95	1988.58
191.17	1955.81
191.39	1880.04
191.61	1882.08
191.84	1920.99
192.06	1914.85
192.28	1906.66
192.50	2215.90
192.72	1998.82
192.94	1920.99
193.16	1976.29
193.38	1974.24
193.60	1871.84
193.82	1902.56
194.04	2068.45
194.26	1980.39
194.48	1941.47
194.70	1931.23
194.92	1875.94
195.14	2019.30
195.36	1867.75
195.58	2031.58
195.80	1988.58
196.02	1888.23
196.24	1847.27
196.46	1974.24
196.69	1902.56
196.91	2039.78
197.13	1826.79
197.35	1908.71
197.57	2050.02
197.79	2023.39
198.01	1957.86
198.23	1957.86
198.45	2068.45
198.67	1945.57
198.89	1925.09
199.11	1927.14
199.33	1865.70
199.55	1781.73
199.77	1871.84
199.99	2035.68
200.21	1902.56
200.43	1961.95
200.65	1822.69
200.87	1828.84
201.09	1863.65
201.31	1972.19
201.53	1931.23
201.75	1941.47
201.97	1988.58
202.19	1898.47
202.41	1945.57
202.63	2039.78
202.85	2009.06
203.07	1982.43
203.29	1918.95
203.51	1900.52
203.73	1851.36
203.95	2090.98
204.17	1972.19
204.39	1972.19
204.61	1982.43
204.83	1931.23
205.05	2037.73
205.27	1949.67
205.49	2105.31
205.71	1902.56
205.93	1826.79
206.15	1920.99
206.37	1968.10
206.59	1955.81
206.81	1861.60
207.03	1849.32
207.25	1863.65
207.47	1986.53
207.69	1929.19
207.91	2056.16
208.13	2058.21
208.34	1933.28
208.56	1869.80
208.78	1964.00
209.00	1912.80
209.22	1929.19
209.44	1853.41
209.66	1849.32
209.88	1914.85
210.10	1935.33
210.32	1816.55
210.54	2043.87
210.76	1933.28
210.98	2072.54
211.20	1794.02
211.42	1976.29
211.64	2076.64
211.86	1974.24
212.08	1943.52
212.30	1894.37
212.52	1912.80
212.74	2007.01
212.96	1986.53
213.17	2076.64
213.39	1978.34
213.61	2037.73
213.83	2027.49
214.05	2015.20
214.27	2009.06
214.49	1855.46
214.71	1847.27
214.93	2019.30
215.15	1984.48
215.37	2025.44
215.59	1841.12
215.81	1935.33
216.03	2082.78
216.24	2027.49
216.46	1955.81
216.68	1951.71
216.90	1980.39
217.12	1986.53
217.34	1964.00
217.56	1998.82
217.78	2015.20
218.00	1933.28
218.22	1951.71
218.44	1951.71
218.66	1949.67
218.87	2142.18
219.09	1834.98
219.31	1964.00
219.53	1925.09
219.75	1984.48
219.97	1951.71
220.19	1968.10
220.41	2017.25
220.63	2084.83
220.85	1966.05
221.06	1898.47
221.28	2047.97
221.50	1970.15
221.72	1923.04
221.94	1945.57
222.16	2002.91
222.38	2013.15
222.60	1990.63
222.82	1925.09
223.03	1943.52
223.25	1894.37
223.47	1955.81
223.69	2101.22
223.91	2107.36
224.13	2041.82
224.35	1867.75
224.57	1994.72
224.78	2029.54
225.00	1871.84
225.22	1949.67
225.44	1939.43
225.66	2027.49
225.88	1912.80
226.10	1996.77
226.32	1966.05
226.53	2152.42
226.75	2019.30
226.97	1877.99
227.19	1923.04
227.41	1949.67
227.63	1904.61
227.85	1877.99
228.06	1978.34
228.28	1912.80
228.50	2047.97
228.72	1892.32
228.94	1935.33
229.16	1791.97
229.37	1875.94
229.59	1812.45
229.81	2009.06
230.03	1923.04
230.25	1822.69
230.47	1824.74
230.69	1900.52
230.90	2025.44
231.12	1906.66
231.34	2009.06
231.56	1982.43
231.78	1830.88
232.00	1968.10
232.21	1910.75
232.43	1912.80
232.65	1781.73
232.87	1988.58
233.09	1941.47
233.30	1910.75
233.52	2054.11
233.74	1908.71
233.96	1900.52
234.18	1929.19
234.40	1990.63
234.61	2113.50
234.83	1871.84
235.05	1865.70
235.27	2111.46
235.49	2043.87
235.70	1955.81
235.92	2037.73
236.14	1961.95
236.36	2176.99
236.58	1853.41
236.79	1968.10
237.01	1849.32
237.23	1943.52
237.45	2056.16
237.67	1953.76
237.88	1996.77
238.10	2078.69
238.32	1873.89
238.54	1920.99
238.76	1994.72
238.97	1871.84
239.19	1904.61
239.41	1968.10
239.63	2056.16
239.85	1980.39
240.06	1890.28
240.28	1933.28
240.50	1994.72
240.72	1964.00
240.93	1908.71
241.15	2090.98
241.37	1898.47
241.59	2011.11
241.81	1925.09
242.02	1929.19
242.24	2060.26
242.46	2037.73
242.68	1941.47
242.89	1920.99
243.11	2070.50
243.33	1931.23
243.55	1959.91
243.76	1939.43
243.98	1888.23
244.20	1951.71
244.42	1935.33
244.64	1959.91
244.85	1882.08
245.07	1898.47
245.29	1955.81
245.51	1916.90
245.72	2054.11
245.94	2056.16
246.16	1931.23
246.38	1933.28
246.59	1914.85
246.81	1916.90
247.03	1925.09
247.24	1857.51
247.46	1912.80
247.68	1945.57
247.90	1853.41
248.11	1943.52
248.33	2039.78
248.55	1961.95
248.77	1978.34
248.98	1996.77
249.20	2072.54
249.42	1988.58
249.64	1984.48
249.85	1984.48
250.07	1882.08
250.29	2064.35
250.50	1955.81
250.72	1843.17
250.94	2043.87
251.16	2111.46
251.37	1955.81
251.59	1916.90
251.81	1986.53
252.02	2115.55
252.24	1871.84
252.46	2068.45
252.68	1906.66
252.89	1966.05
253.11	1765.35
253.33	2037.73
253.54	2058.21
253.76	1927.14
253.98	1961.95
254.20	1931.23
254.41	1781.73
254.63	1900.52
254.85	1906.66
255.06	1941.47
255.28	1994.72
255.50	1990.63
255.71	1951.71
255.93	1875.94
256.15	1970.15
256.36	1986.53
256.58	1937.38
256.80	1957.86
257.02	1943.52
257.23	1918.95
257.45	1920.99
257.67	2076.64
257.88	1912.80
258.10	1949.67
258.32	1955.81
258.53	1968.10
258.75	2084.83
258.97	1947.62
259.18	1955.81
259.40	1906.66
259.62	2047.97
259.83	2060.26
260.05	1947.62
260.27	2246.62
260.48	2043.87
260.70	1896.42
260.92	1994.72
261.13	1937.38
261.35	1906.66
261.57	1955.81
261.78	1877.99
262.00	1906.66
262.22	2093.02
262.43	1894.37
262.65	1875.94
262.86	1841.12
263.08	2095.07
263.30	2009.06
263.51	1847.27
263.73	1871.84
263.95	2058.21
264.16	1865.70
264.38	1845.22
264.60	1990.63
264.81	1955.81
265.03	1972.19
265.25	2029.54
265.46	1966.05
265.68	2039.78
265.89	1892.32
266.11	1855.46
266.33	1861.60
266.54	1984.48
266.76	2047.97
266.98	1935.33
267.19	2019.30
267.41	2029.54
267.62	1984.48
267.84	1789.92
268.06	1980.39
268.27	1980.39
268.49	2000.87
268.70	2031.58
268.92	1900.52
269.14	1875.94
269.35	1918.95
269.57	1949.67
269.79	1976.29
270.00	1955.81
270.22	2072.54
270.43	1898.47
270.65	1800.16
270.87	1959.91
271.08	2013.15
271.30	1931.23
271.51	2017.25
271.73	2023.39
271.95	2004.96
272.16	1964.00
272.38	2004.96
272.59	1906.66
272.81	2031.58
273.02	2017.25
273.24	2039.78
273.46	1947.62
273.67	1908.71
273.89	1875.94
274.10	1900.52
274.32	2039.78
274.54	1998.82
274.75	2004.96
274.97	1904.61
275.18	1949.67
275.40	2066.40
275.61	1945.57
275.83	1947.62
276.05	1957.86
276.26	1890.28
276.48	1994.72
276.69	1914.85
276.91	1902.56
277.12	2058.21
277.34	2013.15
277.55	2088.93
277.77	1923.04
277.99	1978.34
278.20	1900.52
278.42	1867.75
278.63	1908.71
278.85	1869.80
279.06	1873.89
279.28	1957.86
279.49	1994.72
279.71	1994.72
279.93	1990.63
280.14	1918.95
280.36	1853.41
280.57	1994.72
280.79	2060.26
281.00	1871.84
281.22	1888.23
281.43	2052.06
281.65	1779.68
281.86	1841.12
282.08	1943.52
282.29	2107.36
282.51	1843.17
282.73	1968.10
282.94	1822.69
283.16	1970.15
283.37	2007.01
283.59	1859.56
283.80	1920.99
284.02	1947.62
284.23	1943.52
284.45	1894.37
284.66	1861.60
284.88	1935.33
285.09	2019.30
285.31	1996.77
285.52	1986.53
285.74	1804.26
285.95	1929.19
286.17	1882.08
286.38	1992.67
286.60	1877.99
286.81	2007.01
287.03	1916.90
287.24	1894.37
287.46	1972.19
287.67	2013.15
287.89	2101.22
288.10	1990.63
288.32	1953.76
288.53	2043.87
288.75	1974.24
288.96	2095.07
289.18	1890.28
289.39	1984.48
289.61	2021.35
289.82	2111.46
290.04	2082.78
290.25	1892.32
290.47	1961.95
290.68	1990.63
290.90	2015.20
291.11	1910.75
291.33	2066.40
291.54	1884.13
291.76	1955.81
291.97	1927.14
292.18	1996.77
292.40	1927.14
292.61	1882.08
292.83	2129.89
293.04	1994.72
293.26	2004.96
293.47	1961.95
293.69	1931.23
293.90	1992.67
294.12	2029.54
294.33	1910.75
294.55	1964.00
294.76	1986.53
294.97	2056.16
295.19	2129.89
295.40	1853.41
295.62	1933.28
295.83	2045.92
296.05	1867.75
296.26	2004.96
296.48	1933.28
296.69	1943.52
296.90	2058.21
297.12	2088.93
297.33	2041.82
297.55	1959.91
297.76	2050.02
297.98	2013.15
298.19	1959.91
298.41	1968.10
298.62	1898.47
298.83	2064.35
299.05	1931.23
299.26	1871.84
299.48	1882.08
299.69	1945.57
299.90	1998.82
300.12	1894.37
300.33	2037.73
300.55	2027.49
300.76	1912.80
300.98	1884.13
301.19	2080.74
301.40	1886.18
301.62	1914.85
301.83	1923.04
302.05	1943.52
302.26	1920.99
302.47	2025.44
302.69	1906.66
302.90	1994.72
303.12	1855.46
303.33	1980.39
303.54	2000.87
303.76	1894.37
303.97	1966.05
304.19	2072.54
304.40	1918.95
304.61	2000.87
304.83	2074.59
305.04	2093.02
305.26	2015.20
305.47	1888.23
305.68	1918.95
305.90	1902.56
306.11	2021.35
306.33	1898.47
306.54	1900.52
306.75	1933.28
306.97	1824.74
307.18	1861.60
307.39	1910.75
307.61	1904.61
307.82	1959.91
308.04	1970.15
308.25	1877.99
308.46	1972.19
308.68	1964.00
308.89	1941.47
309.10	2017.25
309.32	2070.50
309.53	1908.71
309.74	1996.77
309.96	1884.13
310.17	1927.14
310.39	1861.60
310.60	2054.11
310.81	1898.47
311.03	1988.58
311.24	1974.24
311.45	1935.33
311.67	2045.92
311.88	2043.87
312.09	1877.99
312.31	1951.71
312.52	1914.85
312.73	1976.29
312.95	1880.04
313.16	1957.86
313.37	2027.49
313.59	1949.67
313.80	2050.02
314.01	2039.78
314.23	1900.52
314.44	1929.19
314.65	1884.13
314.87	1892.32
315.08	1900.52
315.29	1966.05
315.51	1902.56
315.72	1847.27
315.93	2060.26
316.15	1964.00
316.36	1886.18
316.57	1992.67
316.79	2009.06
317.00	1966.05
317.21	1867.75
317.43	1961.95
317.64	1976.29
317.85	1894.37
318.07	1959.91
318.28	1966.05
318.49	2113.50
318.70	2267.10
318.92	2068.45
319.13	2129.89
319.34	2127.84
319.56	2080.74
319.77	2041.82
319.98	2070.50
320.20	2125.79
320.41	2013.15
320.62	2078.69
320.83	1976.29
321.05	2144.22
321.26	2011.11
321.47	2007.01
321.69	2082.78
321.90	1818.60
322.11	1943.52
322.32	2009.06
322.54	2084.83
322.75	1964.00
322.96	2074.59
323.18	1853.41
323.39	1798.12
323.60	1841.12
323.81	1970.15
324.03	1953.76
324.24	1884.13
324.45	1982.43
324.66	1884.13
324.88	1982.43
325.09	2086.88
325.30	1927.14
325.52	1992.67
325.73	2007.01
325.94	1933.28
326.15	1884.13
326.37	1904.61
326.58	2007.01
326.79	2152.42
327.00	1853.41
327.22	1945.57
327.43	1953.76
327.64	1931.23
327.85	1865.70
328.07	1957.86
328.28	2052.06
328.49	1964.00
328.70	1918.95
328.92	1939.43
329.13	1941.47
329.34	2015.20
329.55	2154.46
329.76	2111.46
329.98	1996.77
330.19	2078.69
330.40	2072.54
330.61	1980.39
330.83	2033.63
331.04	1904.61
331.25	1978.34
331.46	1947.62
331.68	1884.13
331.89	2047.97
332.10	1968.10
332.31	1882.08
332.52	2039.78
332.74	1937.38
332.95	1820.64
333.16	1867.75
333.37	2000.87
333.58	1880.04
333.80	1972.19
334.01	1855.46
334.22	1964.00
334.43	1863.65
334.64	1939.43
334.86	1845.22
335.07	1906.66
335.28	2054.11
335.49	1867.75
335.70	1951.71
335.92	2007.01
336.13	2205.66
336.34	1998.82
336.55	1951.71
336.76	1941.47
336.98	1796.07
337.19	1937.38
337.40	2052.06
337.61	2154.46
337.82	1906.66
338.04	2023.39
338.25	1794.02
338.46	1865.70
338.67	1951.71
338.88	1865.70
339.09	1830.88
339.31	1904.61
339.52	1839.08
339.73	1916.90
339.94	1949.67
340.15	2068.45
340.36	1845.22
340.58	1992.67
340.79	1904.61
341.00	2004.96
341.21	1888.23
341.42	2080.74
341.63	1953.76
341.85	2062.30
342.06	1970.15
342.27	1957.86
342.48	2052.06
342.69	1859.56
342.90	1970.15
343.12	1947.62
343.33	1933.28
343.54	1996.77
343.75	2013.15
343.96	1898.47
344.17	1949.67
344.38	1957.86
344.60	1818.60
344.81	1867.75
345.02	1953.76
345.23	1959.91
345.44	2152.42
345.65	2095.07
345.86	1953.76
346.07	1988.58
346.29	1898.47
346.50	2039.78
346.71	2000.87
346.92	2011.11
347.13	2133.98
347.34	1951.71
347.55	1867.75
347.76	1998.82
347.98	1810.40
348.19	1904.61
348.40	2072.54
348.61	1986.53
348.82	2056.16
349.03	2013.15
349.24	1875.94
349.45	2080.74
349.66	1826.79
349.88	1966.05
350.09	1873.89
350.30	2007.01
350.51	2064.35
350.72	1986.53
350.93	1957.86
351.14	1933.28
351.35	2000.87
351.56	1978.34
351.77	1974.24
351.99	1970.15
352.20	2025.44
352.41	2050.02
352.62	1804.26
352.83	1910.75
353.04	1955.81
353.25	1912.80
353.46	2045.92
353.67	2023.39
353.88	1808.36
354.09	1964.00
354.30	1820.64
354.52	1871.84
354.73	2025.44
354.94	1918.95
355.15	2000.87
355.36	2140.13
355.57	1914.85
355.78	1966.05
355.99	1857.51
356.20	1853.41
356.41	2002.91
356.62	1908.71
356.83	1992.67
357.04	2039.78
357.25	1906.66
357.46	1964.00
357.68	1902.56
357.89	1964.00
358.10	1939.43
358.31	1900.52
358.52	1972.19
358.73	1890.28
358.94	1812.45
359.15	1888.23
359.36	1968.10
359.57	1984.48
359.78	1843.17
359.99	1933.28
360.20	1933.28
360.41	1953.76
360.62	1931.23
360.83	1986.53
361.04	1941.47
361.25	1984.48
361.46	2080.74
361.67	1990.63
361.88	2136.03
362.09	2004.96
362.30	2002.91
362.51	1910.75
362.72	1912.80
362.93	2058.21
363.14	2050.02
363.35	1929.19
363.56	1974.24
363.78	2025.44
363.99	2029.54
364.20	1912.80
364.41	2011.11
364.62	2109.41
364.83	1959.91
365.04	1830.88
365.25	1914.85
365.46	2127.84
365.67	1800.16
365.88	1964.00
366.09	1937.38
366.30	1914.85
366.51	1925.09
366.72	1865.70
366.93	1937.38
367.14	1902.56
367.35	2144.22
367.56	1890.28
367.77	2095.07
367.98	1957.86
368.18	2017.25
368.39	1951.71
368.60	1914.85
368.81	2029.54
369.02	1984.48
369.23	1931.23
369.44	1873.89
369.65	1970.15
369.86	2023.39
370.07	2029.54
370.28	1902.56
370.49	2033.63
370.70	1992.67
370.91	1845.22
371.12	1894.37
371.33	2041.82
371.54	2002.91
371.75	2088.93
371.96	1785.83
372.17	1996.77
372.38	2000.87
372.59	2035.68
372.80	1898.47
373.01	1857.51
373.22	2033.63
373.43	2002.91
373.64	1832.93
373.85	2097.12
374.06	2078.69
374.26	2021.35
374.47	2009.06
374.68	2101.22
374.89	1957.86
375.10	1966.05
375.31	2076.64
375.52	1955.81
375.73	1964.00
375.94	1896.42
376.15	2050.02
376.36	1888.23
376.57	1908.71
376.78	1937.38
376.99	2015.20
377.20	2066.40
377.40	1912.80
377.61	2131.94
377.82	1884.13
378.03	2052.06
378.24	1980.39
378.45	1992.67
378.66	1976.29
378.87	1822.69
379.08	1847.27
379.29	1961.95
379.50	2041.82
379.71	1968.10
379.91	1937.38
380.12	2033.63
380.33	1898.47
380.54	1918.95
380.75	1914.85
380.96	1988.58
381.17	2037.73
381.38	1914.85
381.59	2093.02
381.80	1996.77
382.00	2150.37
382.21	2002.91
382.42	2138.08
382.63	2172.89
382.84	2033.63
383.05	2031.58
383.26	2105.31
383.47	2002.91
383.68	2009.06
383.88	2056.16
384.09	1959.91
384.30	2119.65
384.51	2045.92
384.72	1902.56
384.93	1892.32
385.14	1976.29
385.35	2000.87
385.55	1937.38
385.76	2074.59
385.97	1972.19
386.18	1945.57
386.39	1959.91
386.60	1959.91
386.81	1929.19
387.02	1920.99
387.22	1851.36
387.43	2033.63
387.64	1959.91
387.85	2133.98
388.06	2260.96
388.27	4018.11
388.48	8615.80
388.68	12228.42
388.89	14090.02
389.10	15396.63
389.31	13975.34
389.52	10966.87
389.73	9647.98
389.93	8537.98
390.14	8036.23
390.35	7098.26
390.56	6408.09
390.77	5367.73
390.98	4067.27
391.18	3170.26
391.39	2672.60
391.60	2220.00
391.81	2074.59
392.02	1914.85
392.23	2133.98
392.43	2074.59
392.64	2066.40
392.85	1931.23
393.06	2043.87
393.27	1992.67
393.47	1914.85
393.68	1947.62
393.89	1964.00
394.10	2076.64
394.31	1894.37
394.52	1906.66
394.72	1931.23
394.93	2121.70
395.14	1929.19
395.35	1937.38
395.56	1947.62
395.76	1947.62
395.97	1978.34
396.18	2052.06
396.39	2181.09
396.60	2396.12
396.80	2277.34
397.01	2068.45
397.22	2090.98
397.43	2090.98
397.64	2033.63
397.84	2017.25
398.05	2125.79
398.26	2045.92
398.47	2058.21
398.67	2070.50
398.88	2021.35
399.09	2037.73
399.30	1882.08
399.51	2037.73
399.71	1941.47
399.92	1974.24
400.13	1939.43
400.34	1998.82
400.54	2023.39
400.75	2131.94
400.96	1984.48
401.17	2138.08
401.37	2035.68
401.58	1992.67
401.79	1900.52
402.00	2011.11
402.21	2306.01
402.41	2320.35
402.62	2383.84
402.83	2465.75
403.04	2402.27
403.24	2494.43
403.45	2129.89
403.66	2172.89
403.87	2140.13
404.07	2172.89
404.28	2199.52
404.49	2144.22
404.70	2115.55
404.90	2084.83
405.11	2004.96
405.32	1994.72
405.52	2023.39
405.73	1918.95
405.94	1945.57
406.15	1906.66
406.35	2000.87
406.56	2084.83
406.77	2009.06
406.98	2002.91
407.18	2007.01
407.39	2070.50
407.60	1970.15
407.80	1992.67
408.01	1998.82
408.22	2031.58
408.43	1996.77
408.63	1941.47
408.84	2017.25
409.05	2002.91
409.25	1814.50
409.46	1959.91
409.67	1880.04
409.88	1949.67
410.08	2007.01
410.29	1974.24
410.50	1986.53
410.70	2011.11
410.91	1873.89
411.12	2041.82
411.32	1996.77
411.53	1929.19
411.74	2043.87
411.95	2088.93
412.15	2103.26
412.36	2140.13
412.57	2144.22
412.77	2107.36
412.98	1988.58
413.19	2000.87
413.39	2043.87
413.60	1972.19
413.81	2060.26
414.01	1898.47
414.22	2009.06
414.43	2107.36
414.63	1927.14
414.84	2058.21
415.05	1992.67
415.25	1851.36
415.46	2074.59
415.67	1916.90
415.87	2050.02
416.08	1918.95
416.29	1900.52
416.49	1961.95
416.70	1933.28
416.91	1906.66
417.11	1945.57
417.32	2017.25
417.53	2035.68
417.73	1996.77
417.94	1994.72
418.15	1980.39
418.35	1988.58
418.56	1900.52
418.77	2201.57
418.97	1968.10
419.18	1978.34
419.38	1826.79
419.59	1953.76
419.80	2031.58
420.00	1898.47
420.21	2035.68
420.42	2052.06
420.62	1992.67
420.83	1974.24
421.04	2013.15
421.24	1994.72
421.45	2013.15
421.65	2072.54
421.86	1898.47
422.07	2033.63
422.27	1970.15
422.48	2015.20
422.69	1863.65
422.89	1996.77
423.10	1843.17
423.30	1871.84
423.51	2017.25
423.72	2015.20
423.92	2052.06
424.13	1855.46
424.33	1937.38
424.54	2015.20
424.75	1931.23
424.95	2064.35
425.16	2019.30
425.36	1925.09
425.57	2039.78
425.78	2099.17
425.98	2068.45
426.19	1888.23
426.39	1904.61
426.60	1941.47
426.81	2054.11
427.01	2015.20
427.22	1884.13
427.42	1873.89
427.63	1918.95
427.83	1994.72
428.04	2109.41
428.25	2031.58
428.45	2017.25
428.66	2090.98
428.86	1998.82
429.07	1900.52
429.28	1966.05
429.48	1927.14
429.69	1947.62
429.89	2009.06
430.10	1861.60
430.30	1992.67
430.51	2041.82
430.71	1869.80
430.92	1992.67
431.13	1908.71
431.33	2082.78
431.54	1988.58
431.74	2140.13
431.95	2172.89
432.15	1863.65
432.36	1961.95
432.56	2023.39
432.77	2068.45
432.98	2011.11
433.18	2015.20
433.39	1908.71
433.59	1964.00
433.80	2105.31
434.00	2095.07
434.21	1898.47
434.41	1920.99
434.62	2238.43
434.82	1910.75
435.03	1949.67
435.23	2043.87
435.44	1931.23
435.64	1937.38
435.85	2004.96
436.06	2031.58
436.26	2033.63
436.47	1988.58
436.67	1984.48
436.88	1914.85
437.08	2037.73
437.29	2115.55
437.49	1923.04
437.70	2025.44
437.90	1951.71
438.11	2144.22
438.31	2043.87
438.52	2111.46
438.72	2136.03
438.93	2181.09
439.13	1998.82
439.34	2086.88
439.54	2107.36
439.75	2029.54
439.95	2064.35
440.16	1961.95
440.36	1996.77
440.57	2029.54
440.77	1957.86
440.98	1980.39
441.18	1996.77
441.39	1955.81
441.59	1908.71
441.80	2066.40
442.00	1959.91
442.21	2037.73
442.41	1939.43
442.62	2070.50
442.82	1980.39
443.02	1955.81
443.23	2015.20
443.43	1945.57
443.64	2054.11
443.84	1851.36
444.05	2150.37
444.25	1966.05
444.46	2082.78
444.66	2000.87
444.87	2125.79
445.07	1857.51
445.28	1982.43
445.48	2078.69
445.69	2017.25
445.89	2174.94
446.09	2004.96
446.30	2283.49
446.50	2516.95
446.71	4218.82
446.91	5330.86
447.12	6160.29
447.32	6694.81
447.53	5865.38
447.73	4943.80
447.93	4319.17
448.14	3985.35
448.34	3762.12
448.55	3387.34
448.75	3280.85
448.96	3182.54
449.16	2861.01
449.36	2703.32
449.57	2326.49
449.77	2088.93
449.98	1990.63
450.18	2113.50
450.39	2068.45
450.59	2103.26
450.79	2011.11
451.00	1980.39
451.20	2060.26
451.41	1941.47
451.61	2031.58
451.81	1951.71
452.02	1877.99
452.22	1886.18
452.43	1976.29
452.63	1875.94
