SpectraSuite Data File
++++++++++++++++++++++++++++++++++++
Date: Wed May 04 22:46:00 CEST 2016
User: root
Dark Spectrum Present: No
Reference Spectrum Present: No
Number of Sampled Component Spectra: 1
Spectrometers: USB4C02835
Integration Time (usec): 100000 (USB4C02835)
Spectra Averaged: 1 (USB4C02835)
Boxcar Smoothing: 0 (USB4C02835)
Correct for Electrical Dark: No (USB4C02835)
Strobe/Lamp Enabled: No (USB4C02835)
Correct for Detector Non-linearity: No (USB4C02835)
Correct for Stray Light: No (USB4C02835)
Number of Pixels in Processed Spectrum: 3648
>>>>>Begin Processed Spectral Data<<<<<
177.47	1609.70
177.69	1609.70
177.91	1609.70
178.13	1654.76
178.36	1609.70
178.58	1910.75
178.80	1984.48
179.02	1882.08
179.24	1896.42
179.46	1937.38
179.68	2009.06
179.90	1908.71
180.13	2056.16
180.35	1841.12
180.57	1875.94
180.79	2058.21
181.01	1937.38
181.23	2000.87
181.45	2043.87
181.67	2031.58
181.90	2015.20
182.12	1828.84
182.34	1904.61
182.56	1955.81
182.78	1957.86
183.00	1877.99
183.22	1951.71
183.44	1863.65
183.66	2187.23
183.89	2013.15
184.11	1896.42
184.33	1918.95
184.55	2101.22
184.77	1998.82
184.99	1908.71
185.21	1966.05
185.43	2154.46
185.65	1964.00
185.87	1857.51
186.10	2140.13
186.32	2086.88
186.54	2023.39
186.76	1910.75
186.98	2047.97
187.20	1949.67
187.42	1982.43
187.64	1931.23
187.86	1939.43
188.08	1986.53
188.30	1906.66
188.52	1908.71
188.75	2064.35
188.97	2058.21
189.19	1849.32
189.41	1914.85
189.63	1951.71
189.85	1966.05
190.07	1869.80
190.29	1824.74
190.51	1882.08
190.73	1937.38
190.95	1992.67
191.17	1892.32
191.39	1869.80
191.61	1918.95
191.84	1906.66
192.06	1900.52
192.28	1886.18
192.50	2260.96
192.72	1966.05
192.94	1964.00
193.16	1978.34
193.38	1929.19
193.60	1955.81
193.82	1980.39
194.04	2052.06
194.26	1935.33
194.48	1957.86
194.70	1900.52
194.92	1970.15
195.14	1957.86
195.36	1953.76
195.58	1902.56
195.80	2009.06
196.02	1947.62
196.24	1931.23
196.46	1961.95
196.69	1929.19
196.91	2193.37
197.13	1875.94
197.35	1961.95
197.57	2090.98
197.79	1943.52
198.01	1980.39
198.23	1982.43
198.45	1910.75
198.67	1933.28
198.89	1923.04
199.11	1927.14
199.33	1912.80
199.55	1783.78
199.77	1959.91
199.99	2021.35
200.21	1873.89
200.43	2017.25
200.65	1875.94
200.87	1785.83
201.09	1943.52
201.31	1951.71
201.53	2009.06
201.75	1953.76
201.97	1939.43
202.19	1912.80
202.41	1906.66
202.63	2072.54
202.85	1996.77
203.07	1976.29
203.29	1972.19
203.51	1867.75
203.73	1916.90
203.95	2220.00
204.17	1904.61
204.39	1984.48
204.61	2037.73
204.83	1935.33
205.05	1941.47
205.27	1994.72
205.49	2109.41
205.71	1984.48
205.93	1791.97
206.15	1935.33
206.37	1916.90
206.59	1904.61
206.81	1912.80
207.03	1931.23
207.25	1898.47
207.47	2009.06
207.69	1986.53
207.91	2047.97
208.13	1982.43
208.34	1904.61
208.56	1935.33
208.78	1949.67
209.00	1935.33
209.22	1853.41
209.44	1929.19
209.66	1904.61
209.88	1898.47
210.10	1974.24
210.32	1908.71
210.54	2088.93
210.76	1994.72
210.98	2011.11
211.20	1818.60
211.42	1996.77
211.64	1980.39
211.86	1920.99
212.08	2037.73
212.30	1957.86
212.52	1957.86
212.74	1947.62
212.96	1935.33
213.17	2023.39
213.39	1953.76
213.61	2107.36
213.83	1927.14
214.05	1931.23
214.27	1949.67
214.49	1877.99
214.71	1898.47
214.93	2019.30
215.15	1892.32
215.37	1990.63
215.59	1900.52
215.81	1976.29
216.03	2045.92
216.24	2029.54
216.46	1972.19
216.68	1984.48
216.90	2052.06
217.12	2000.87
217.34	1884.13
217.56	1996.77
217.78	2078.69
218.00	1992.67
218.22	1912.80
218.44	1976.29
218.66	1968.10
218.87	2142.18
219.09	1949.67
219.31	1902.56
219.53	1904.61
219.75	1902.56
219.97	1945.57
220.19	1937.38
220.41	2039.78
220.63	2084.83
220.85	2013.15
221.06	1970.15
221.28	2060.26
221.50	2000.87
221.72	1953.76
221.94	1959.91
222.16	1937.38
222.38	2084.83
222.60	1949.67
222.82	1912.80
223.03	1990.63
223.25	1880.04
223.47	1937.38
223.69	2023.39
223.91	1990.63
224.13	1933.28
224.35	1884.13
224.57	2050.02
224.78	2021.35
225.00	1918.95
225.22	1916.90
225.44	1955.81
225.66	1941.47
225.88	1927.14
226.10	1978.34
226.32	1945.57
226.53	2133.98
226.75	1947.62
226.97	1982.43
227.19	1990.63
227.41	1920.99
227.63	2009.06
227.85	1830.88
228.06	1927.14
228.28	1976.29
228.50	2000.87
228.72	1873.89
228.94	1935.33
229.16	1859.56
229.37	1837.03
229.59	1931.23
229.81	2029.54
230.03	1916.90
230.25	1767.40
230.47	1880.04
230.69	1789.92
230.90	2068.45
231.12	1787.88
231.34	1978.34
231.56	1982.43
231.78	1861.60
232.00	1996.77
232.21	2002.91
232.43	1906.66
232.65	1847.27
232.87	1972.19
233.09	1847.27
233.30	1853.41
233.52	1947.62
233.74	1918.95
233.96	1830.88
234.18	1984.48
234.40	2007.01
234.61	2117.60
234.83	1869.80
235.05	1859.56
235.27	2146.27
235.49	2062.30
235.70	1929.19
235.92	1972.19
236.14	1998.82
236.36	2146.27
236.58	1882.08
236.79	2004.96
237.01	2000.87
237.23	1970.15
237.45	2052.06
237.67	1886.18
237.88	1912.80
238.10	2131.94
238.32	1810.40
238.54	1927.14
238.76	2035.68
238.97	1914.85
239.19	1918.95
239.41	1990.63
239.63	2066.40
239.85	1925.09
240.06	1853.41
240.28	1929.19
240.50	1998.82
240.72	1986.53
240.93	1886.18
241.15	1984.48
241.37	2002.91
241.59	2004.96
241.81	1945.57
242.02	1927.14
242.24	1951.71
242.46	1933.28
242.68	1947.62
242.89	2037.73
243.11	2027.49
243.33	2047.97
243.55	1937.38
243.76	1910.75
243.98	1988.58
244.20	1951.71
244.42	1939.43
244.64	1943.52
244.85	1834.98
245.07	1916.90
245.29	2029.54
245.51	1941.47
245.72	1966.05
245.94	2031.58
246.16	1927.14
246.38	2004.96
246.59	1912.80
246.81	1820.64
247.03	1910.75
247.24	1830.88
247.46	1945.57
247.68	1978.34
247.90	1949.67
248.11	1869.80
248.33	1970.15
248.55	1966.05
248.77	2013.15
248.98	1943.52
249.20	2136.03
249.42	1951.71
249.64	1892.32
249.85	1941.47
250.07	1890.28
250.29	2007.01
250.50	1968.10
250.72	1892.32
250.94	1884.13
251.16	2133.98
251.37	1931.23
251.59	1947.62
251.81	1968.10
252.02	2076.64
252.24	1894.37
252.46	1992.67
252.68	1912.80
252.89	1859.56
253.11	1863.65
253.33	2078.69
253.54	2033.63
253.76	1914.85
253.98	1957.86
254.20	1994.72
254.41	1869.80
254.63	1904.61
254.85	1892.32
255.06	1959.91
255.28	1918.95
255.50	1920.99
255.71	1902.56
255.93	1869.80
256.15	1986.53
256.36	1914.85
256.58	1875.94
256.80	1984.48
257.02	1900.52
257.23	1982.43
257.45	1955.81
257.67	1957.86
257.88	1925.09
258.10	2019.30
258.32	1961.95
258.53	1951.71
258.75	2138.08
258.97	1994.72
259.18	1898.47
259.40	1998.82
259.62	2041.82
259.83	2013.15
260.05	1998.82
260.27	2334.68
260.48	2025.44
260.70	1820.64
260.92	1898.47
261.13	1947.62
261.35	1918.95
261.57	2060.26
261.78	1880.04
262.00	1951.71
262.22	1927.14
262.43	1964.00
262.65	1877.99
262.86	2004.96
263.08	2084.83
263.30	1927.14
263.51	1822.69
263.73	1898.47
263.95	2015.20
264.16	1869.80
264.38	1918.95
264.60	1931.23
264.81	1972.19
265.03	2043.87
265.25	1992.67
265.46	1941.47
265.68	1992.67
265.89	2025.44
266.11	1845.22
266.33	1970.15
266.54	2039.78
266.76	2029.54
266.98	1953.76
267.19	2056.16
267.41	1974.24
267.62	1937.38
267.84	1787.88
268.06	1982.43
268.27	2027.49
268.49	2111.46
268.70	1964.00
268.92	1920.99
269.14	1871.84
269.35	1857.51
269.57	1929.19
269.79	1947.62
270.00	1882.08
270.22	2060.26
270.43	1873.89
270.65	1810.40
270.87	1959.91
271.08	1984.48
271.30	1998.82
271.51	1941.47
271.73	1986.53
271.95	2066.40
272.16	1937.38
272.38	1943.52
272.59	1873.89
272.81	1955.81
273.02	1929.19
273.24	1982.43
273.46	2017.25
273.67	1791.97
273.89	1834.98
274.10	1884.13
274.32	2068.45
274.54	2027.49
274.75	1916.90
274.97	1902.56
275.18	2047.97
275.40	1933.28
275.61	1925.09
275.83	1974.24
276.05	1857.51
276.26	1937.38
276.48	1994.72
276.69	1880.04
276.91	1910.75
277.12	2101.22
277.34	2000.87
277.55	2047.97
277.77	1968.10
277.99	1837.03
278.20	1908.71
278.42	1880.04
278.63	1957.86
278.85	1966.05
279.06	1830.88
279.28	1994.72
279.49	2011.11
279.71	1978.34
279.93	1943.52
280.14	1918.95
280.36	1918.95
280.57	2017.25
280.79	1986.53
281.00	1888.23
281.22	1912.80
281.43	2000.87
281.65	1837.03
281.86	1904.61
282.08	2043.87
282.29	2074.59
282.51	1830.88
282.73	1867.75
282.94	1843.17
283.16	1974.24
283.37	1966.05
283.59	1976.29
283.80	1955.81
284.02	1968.10
284.23	1927.14
284.45	1873.89
284.66	1867.75
284.88	1880.04
285.09	1972.19
285.31	2000.87
285.52	1949.67
285.74	1912.80
285.95	2013.15
286.17	2064.35
286.38	2039.78
286.60	1961.95
286.81	1970.15
287.03	2009.06
287.24	1986.53
287.46	1931.23
287.67	2004.96
287.89	2133.98
288.10	1949.67
288.32	1914.85
288.53	2080.74
288.75	2033.63
288.96	2109.41
289.18	1882.08
289.39	2023.39
289.61	2004.96
289.82	2174.94
290.04	2093.02
290.25	1869.80
290.47	1920.99
290.68	1902.56
290.90	2070.50
291.11	1865.70
291.33	2043.87
291.54	1900.52
291.76	1976.29
291.97	2084.83
292.18	2029.54
292.40	1927.14
292.61	1890.28
292.83	2138.08
293.04	2033.63
293.26	1961.95
293.47	2002.91
293.69	1857.51
293.90	1896.42
294.12	2099.17
294.33	1888.23
294.55	1968.10
294.76	2007.01
294.97	2078.69
295.19	2090.98
295.40	1947.62
295.62	2002.91
295.83	2013.15
296.05	1935.33
296.26	2111.46
296.48	1834.98
296.69	1886.18
296.90	1980.39
297.12	2000.87
297.33	2103.26
297.55	2031.58
297.76	1931.23
297.98	2054.11
298.19	1927.14
298.41	1935.33
298.62	1961.95
298.83	2025.44
299.05	1920.99
299.26	1984.48
299.48	1877.99
299.69	1949.67
299.90	1978.34
300.12	1875.94
300.33	1996.77
300.55	2007.01
300.76	1976.29
300.98	1931.23
301.19	1976.29
301.40	1884.13
301.62	1880.04
301.83	2082.78
302.05	1968.10
302.26	1929.19
302.47	2029.54
302.69	1947.62
302.90	1925.09
303.12	1804.26
303.33	2033.63
303.54	2031.58
303.76	1945.57
303.97	1976.29
304.19	2133.98
304.40	1837.03
304.61	1996.77
304.83	2000.87
305.04	1929.19
305.26	1994.72
305.47	1929.19
305.68	1961.95
305.90	1990.63
306.11	2021.35
306.33	1978.34
306.54	1882.08
306.75	1951.71
306.97	1751.01
307.18	1886.18
307.39	1974.24
307.61	1986.53
307.82	1861.60
308.04	2084.83
308.25	1882.08
308.46	2080.74
308.68	1923.04
308.89	1920.99
309.10	2017.25
309.32	1994.72
309.53	1961.95
309.74	1974.24
309.96	1892.32
310.17	2047.97
310.39	1916.90
310.60	1925.09
310.81	1898.47
311.03	1898.47
311.24	1976.29
311.45	1900.52
311.67	2168.80
311.88	1986.53
312.09	1875.94
312.31	1966.05
312.52	1890.28
312.73	1910.75
312.95	1794.02
313.16	1910.75
313.37	2074.59
313.59	1929.19
313.80	1925.09
314.01	2021.35
314.23	1959.91
314.44	1920.99
314.65	1957.86
314.87	1927.14
315.08	1980.39
315.29	1855.46
315.51	1873.89
315.72	1894.37
315.93	2076.64
316.15	2035.68
316.36	1904.61
316.57	1980.39
316.79	1959.91
317.00	1884.13
317.21	2031.58
317.43	1916.90
317.64	1947.62
317.85	1800.16
318.07	1830.88
318.28	1943.52
318.49	2123.74
318.70	2222.05
318.92	2119.65
319.13	2201.57
319.34	2086.88
319.56	2054.11
319.77	2064.35
319.98	2097.12
320.20	2103.26
320.41	2019.30
320.62	2105.31
320.83	2011.11
321.05	2043.87
321.26	1976.29
321.47	1935.33
321.69	2072.54
321.90	1841.12
322.11	1906.66
322.32	1961.95
322.54	2136.03
322.75	1865.70
322.96	2111.46
323.18	1857.51
323.39	1812.45
323.60	1888.23
323.81	2031.58
324.03	1927.14
324.24	1927.14
324.45	1927.14
324.66	1990.63
324.88	2007.01
325.09	2039.78
325.30	1923.04
325.52	1931.23
325.73	2060.26
325.94	1882.08
326.15	1808.36
326.37	1974.24
326.58	2039.78
326.79	2027.49
327.00	1867.75
327.22	1931.23
327.43	2015.20
327.64	1959.91
327.85	1957.86
328.07	2017.25
328.28	2123.74
328.49	1955.81
328.70	1966.05
328.92	1902.56
329.13	1990.63
329.34	2037.73
329.55	2088.93
329.76	2045.92
329.98	1896.42
330.19	2017.25
330.40	2029.54
330.61	1976.29
330.83	2045.92
331.04	1886.18
331.25	1920.99
331.46	1910.75
331.68	1830.88
331.89	2039.78
332.10	1943.52
332.31	1873.89
332.52	1941.47
332.74	2070.50
332.95	1890.28
333.16	1908.71
333.37	1918.95
333.58	1877.99
333.80	1923.04
334.01	1796.07
334.22	1949.67
334.43	1880.04
334.64	1947.62
334.86	1886.18
335.07	1886.18
335.28	1974.24
335.49	1908.71
335.70	2019.30
335.92	2017.25
336.13	2115.55
336.34	2045.92
336.55	2004.96
336.76	1976.29
336.98	1947.62
337.19	1908.71
337.40	2013.15
337.61	2136.03
337.82	1861.60
338.04	2013.15
338.25	1828.84
338.46	1914.85
338.67	1914.85
338.88	1955.81
339.09	1791.97
339.31	1884.13
339.52	1849.32
339.73	1867.75
339.94	1929.19
340.15	1994.72
340.36	1875.94
340.58	1931.23
340.79	1894.37
341.00	2007.01
341.21	1865.70
341.42	2082.78
341.63	1972.19
341.85	2025.44
342.06	1945.57
342.27	1884.13
342.48	2054.11
342.69	1841.12
342.90	1961.95
343.12	2039.78
343.33	1943.52
343.54	2033.63
343.75	2052.06
343.96	1931.23
344.17	1910.75
344.38	1931.23
344.60	1923.04
344.81	1886.18
345.02	1949.67
345.23	2015.20
345.44	2166.75
345.65	1972.19
345.86	1990.63
346.07	1957.86
346.29	1964.00
346.50	2013.15
346.71	2027.49
346.92	2060.26
347.13	2160.61
347.34	1931.23
347.55	1976.29
347.76	1988.58
347.98	1857.51
348.19	1982.43
348.40	1982.43
348.61	1980.39
348.82	2066.40
349.03	2047.97
349.24	1867.75
349.45	2115.55
349.66	1865.70
349.88	1959.91
350.09	1937.38
350.30	2105.31
350.51	2078.69
350.72	1972.19
350.93	2021.35
351.14	1882.08
351.35	1980.39
351.56	1914.85
351.77	2009.06
351.99	1998.82
352.20	2054.11
352.41	2066.40
352.62	1875.94
352.83	1982.43
353.04	1882.08
353.25	1863.65
353.46	1988.58
353.67	2056.16
353.88	1791.97
354.09	1939.43
354.30	2011.11
354.52	1996.77
354.73	1964.00
354.94	1916.90
355.15	1933.28
355.36	2062.30
355.57	1920.99
355.78	1961.95
355.99	1929.19
356.20	1955.81
356.41	2084.83
356.62	2017.25
356.83	1978.34
357.04	2074.59
357.25	1894.37
357.46	1961.95
357.68	1865.70
357.89	1882.08
358.10	2009.06
358.31	1923.04
358.52	1937.38
358.73	1814.50
358.94	1964.00
359.15	1982.43
359.36	1988.58
359.57	1951.71
359.78	1974.24
359.99	2000.87
360.20	1877.99
360.41	1931.23
360.62	1998.82
360.83	1978.34
361.04	1947.62
361.25	2017.25
361.46	2142.18
361.67	2013.15
361.88	1916.90
362.09	1974.24
362.30	1998.82
362.51	1931.23
362.72	1898.47
362.93	2074.59
363.14	2041.82
363.35	1918.95
363.56	1904.61
363.78	2080.74
363.99	1931.23
364.20	1933.28
364.41	1980.39
364.62	2090.98
364.83	1947.62
365.04	2017.25
365.25	1982.43
365.46	2060.26
365.67	1949.67
365.88	1923.04
366.09	1943.52
366.30	1910.75
366.51	1863.65
366.72	1923.04
366.93	1929.19
367.14	1933.28
367.35	2004.96
367.56	1945.57
367.77	2066.40
367.98	1951.71
368.18	2002.91
368.39	2050.02
368.60	1894.37
368.81	2095.07
369.02	1994.72
369.23	1966.05
369.44	1800.16
369.65	1935.33
369.86	2015.20
370.07	2068.45
370.28	1884.13
370.49	2027.49
370.70	2000.87
370.91	1996.77
371.12	1861.60
371.33	2025.44
371.54	1953.76
371.75	2090.98
371.96	1822.69
372.17	1964.00
372.38	1923.04
372.59	1980.39
372.80	1953.76
373.01	1906.66
373.22	1951.71
373.43	2015.20
373.64	1834.98
373.85	2136.03
374.06	2074.59
374.26	2037.73
374.47	1920.99
374.68	2088.93
374.89	1976.29
375.10	1910.75
375.31	2019.30
375.52	1929.19
375.73	1978.34
375.94	1828.84
376.15	2062.30
376.36	1898.47
376.57	1933.28
376.78	1935.33
376.99	2000.87
377.20	2111.46
377.40	1949.67
377.61	2074.59
377.82	1804.26
378.03	2078.69
378.24	2047.97
378.45	1925.09
378.66	1923.04
378.87	1851.36
379.08	1814.50
379.29	1961.95
379.50	2035.68
379.71	1945.57
379.91	2039.78
380.12	1935.33
380.33	1943.52
380.54	1961.95
380.75	1892.32
380.96	1908.71
381.17	2023.39
381.38	1996.77
381.59	2004.96
381.80	1966.05
382.00	2187.23
382.21	2041.82
382.42	2263.01
382.63	2220.00
382.84	2080.74
383.05	2013.15
383.26	2119.65
383.47	1959.91
383.68	2019.30
383.88	1982.43
384.09	1941.47
384.30	2154.46
384.51	1955.81
384.72	1892.32
384.93	1810.40
385.14	2031.58
385.35	2056.16
385.55	1822.69
385.76	2013.15
385.97	1933.28
386.18	1863.65
386.39	1861.60
386.60	1945.57
386.81	1953.76
387.02	1914.85
387.22	1990.63
387.43	2004.96
387.64	2105.31
387.85	2136.03
388.06	2224.09
388.27	4018.11
388.48	8615.80
388.68	12060.49
388.89	14311.21
389.10	15730.45
389.31	14128.94
389.52	11151.19
389.73	9559.92
389.93	8791.93
390.14	7923.59
390.35	7217.04
390.56	6576.03
390.77	5310.38
390.98	4097.99
391.18	3182.54
391.39	2549.72
391.60	2154.46
391.81	2099.17
392.02	1951.71
392.23	2166.75
392.43	2041.82
392.64	2068.45
392.85	1882.08
393.06	2150.37
393.27	1923.04
393.47	1916.90
393.68	1980.39
393.89	1890.28
394.10	2050.02
394.31	1916.90
394.52	1816.55
394.72	1947.62
394.93	2058.21
395.14	1843.17
395.35	1994.72
395.56	1867.75
395.76	1994.72
395.97	2007.01
396.18	2058.21
396.39	2176.99
396.60	2432.99
396.80	2250.72
397.01	2103.26
397.22	2140.13
397.43	2181.09
397.64	2021.35
397.84	2058.21
398.05	2162.66
398.26	1972.19
398.47	2068.45
398.67	2039.78
398.88	1951.71
399.09	2072.54
399.30	1959.91
399.51	1964.00
399.71	1955.81
399.92	1929.19
400.13	1976.29
400.34	2041.82
400.54	1896.42
400.75	2125.79
400.96	1980.39
401.17	2062.30
401.37	2021.35
401.58	1933.28
401.79	1920.99
402.00	2119.65
402.21	2324.44
402.41	2271.20
402.62	2392.03
402.83	2504.67
403.04	2410.46
403.24	2475.99
403.45	2107.36
403.66	2170.85
403.87	2191.33
404.07	2246.62
404.28	2127.84
404.49	2271.20
404.70	2138.08
404.90	1968.10
405.11	2007.01
405.32	2041.82
405.52	1910.75
405.73	1916.90
405.94	1839.08
406.15	1992.67
406.35	2011.11
406.56	1980.39
406.77	1949.67
406.98	2009.06
407.18	1935.33
407.39	2127.84
407.60	1906.66
407.80	2017.25
408.01	1882.08
408.22	1959.91
408.43	1925.09
408.63	1935.33
408.84	1978.34
409.05	2017.25
409.25	1884.13
409.46	1939.43
409.67	1908.71
409.88	1959.91
410.08	1976.29
410.29	2002.91
410.50	1992.67
410.70	2033.63
410.91	1937.38
411.12	1882.08
411.32	1882.08
411.53	1998.82
411.74	2127.84
411.95	2168.80
412.15	2004.96
412.36	2105.31
412.57	2047.97
412.77	2107.36
412.98	2007.01
413.19	1931.23
413.39	2047.97
413.60	2056.16
413.81	2105.31
414.01	1966.05
414.22	1994.72
414.43	2031.58
414.63	1984.48
414.84	2058.21
415.05	1900.52
415.25	1791.97
415.46	1951.71
415.67	1929.19
415.87	2000.87
416.08	1990.63
416.29	1945.57
416.49	1980.39
416.70	1933.28
416.91	1933.28
417.11	1935.33
417.32	1974.24
417.53	2015.20
417.73	1988.58
417.94	1837.03
418.15	2009.06
418.35	1923.04
418.56	1939.43
418.77	2136.03
418.97	1941.47
419.18	1886.18
419.38	1814.50
419.59	2027.49
419.80	2086.88
420.00	1918.95
420.21	1968.10
420.42	2109.41
420.62	1951.71
420.83	1849.32
421.04	2047.97
421.24	1947.62
421.45	2035.68
421.65	1988.58
421.86	1988.58
422.07	1996.77
422.27	1937.38
422.48	2002.91
422.69	1933.28
422.89	1906.66
423.10	1898.47
423.30	1957.86
423.51	1992.67
423.72	1982.43
423.92	2062.30
424.13	1910.75
424.33	1992.67
424.54	2019.30
424.75	1986.53
424.95	2033.63
425.16	1914.85
425.36	1959.91
425.57	2082.78
425.78	2047.97
425.98	1976.29
426.19	2013.15
426.39	1865.70
426.60	1986.53
426.81	2105.31
427.01	1988.58
427.22	1937.38
427.42	1847.27
427.63	1986.53
427.83	2043.87
428.04	2107.36
428.25	2004.96
428.45	2019.30
428.66	2066.40
428.86	1972.19
429.07	1996.77
429.28	1996.77
429.48	1978.34
429.69	1959.91
429.89	1933.28
430.10	1861.60
430.30	2037.73
430.51	2017.25
430.71	1894.37
430.92	1964.00
431.13	1927.14
431.33	1974.24
431.54	2037.73
431.74	2090.98
431.95	2113.50
432.15	1966.05
432.36	1994.72
432.56	2056.16
432.77	2138.08
432.98	2082.78
433.18	2035.68
433.39	1994.72
433.59	1964.00
433.80	2168.80
434.00	2158.56
434.21	1871.84
434.41	1898.47
434.62	2189.28
434.82	1890.28
435.03	1904.61
435.23	2027.49
435.44	1794.02
435.64	1873.89
435.85	2013.15
436.06	1986.53
436.26	1972.19
436.47	2047.97
436.67	1918.95
436.88	1990.63
437.08	2146.27
437.29	2074.59
437.49	1980.39
437.70	2119.65
437.90	1974.24
438.11	2086.88
438.31	2013.15
438.52	2207.71
438.72	2224.09
438.93	2185.18
439.13	2039.78
439.34	2115.55
439.54	2027.49
439.75	2070.50
439.95	2097.12
440.16	1970.15
440.36	2013.15
440.57	1970.15
440.77	2017.25
440.98	2009.06
441.18	2004.96
441.39	1894.37
441.59	1849.32
441.80	2103.26
442.00	1966.05
442.21	2066.40
442.41	1953.76
442.62	2043.87
442.82	1935.33
443.02	2004.96
443.23	2000.87
443.43	1982.43
443.64	2121.70
443.84	1875.94
444.05	2074.59
444.25	2052.06
444.46	1978.34
444.66	2021.35
444.87	2076.64
445.07	1912.80
445.28	1937.38
445.48	2129.89
445.69	2021.35
445.89	2119.65
446.09	2064.35
446.30	2240.48
446.50	2648.02
446.71	4222.91
446.91	5418.93
447.12	6221.73
447.32	6451.10
447.53	5990.31
447.73	4855.73
447.93	4433.85
448.14	3913.67
448.34	3794.89
448.55	3346.38
448.75	3344.33
448.96	3039.19
449.16	2949.08
449.36	2705.37
449.57	2392.03
449.77	2181.09
449.98	2037.73
450.18	2105.31
450.39	2050.02
450.59	2039.78
450.79	1933.28
451.00	1925.09
451.20	2093.02
451.41	1978.34
451.61	2078.69
451.81	1988.58
452.02	2002.91
452.22	1996.77
452.43	1982.43
452.63	1894.37
