SpectraSuite Data File
++++++++++++++++++++++++++++++++++++
Date: Wed May 04 22:45:42 CEST 2016
User: root
Dark Spectrum Present: No
Reference Spectrum Present: No
Number of Sampled Component Spectra: 1
Spectrometers: USB4C02835
Integration Time (usec): 100000 (USB4C02835)
Spectra Averaged: 1 (USB4C02835)
Boxcar Smoothing: 0 (USB4C02835)
Correct for Electrical Dark: No (USB4C02835)
Strobe/Lamp Enabled: No (USB4C02835)
Correct for Detector Non-linearity: No (USB4C02835)
Correct for Stray Light: No (USB4C02835)
Number of Pixels in Processed Spectrum: 3648
>>>>>Begin Processed Spectral Data<<<<<
177.47	1654.76
177.69	1654.76
177.91	1654.76
178.13	1675.24
178.36	1636.33
178.58	1857.51
178.80	1978.34
179.02	1882.08
179.24	1947.62
179.46	1961.95
179.68	1968.10
179.90	1968.10
180.13	1904.61
180.35	1910.75
180.57	1886.18
180.79	2113.50
181.01	1871.84
181.23	2043.87
181.45	1951.71
181.67	2041.82
181.90	1964.00
182.12	1957.86
182.34	1779.68
182.56	1959.91
182.78	2011.11
183.00	1853.41
183.22	2009.06
183.44	1816.55
183.66	2082.78
183.89	2058.21
184.11	1968.10
184.33	1982.43
184.55	2078.69
184.77	2045.92
184.99	1902.56
185.21	1970.15
185.43	2160.61
185.65	1888.23
185.87	1949.67
186.10	2064.35
186.32	2248.67
186.54	1935.33
186.76	1998.82
186.98	2068.45
187.20	1970.15
187.42	1974.24
187.64	1916.90
187.86	1980.39
188.08	2021.35
188.30	1968.10
188.52	1943.52
188.75	2095.07
188.97	2043.87
189.19	1894.37
189.41	1886.18
189.63	1982.43
189.85	1970.15
190.07	1882.08
190.29	1873.89
190.51	1941.47
190.73	1908.71
190.95	2029.54
191.17	1937.38
191.39	1882.08
191.61	1939.43
191.84	1953.76
192.06	2056.16
192.28	1794.02
192.50	2211.81
192.72	1998.82
192.94	1945.57
193.16	2088.93
193.38	1972.19
193.60	1939.43
193.82	1955.81
194.04	2002.91
194.26	2017.25
194.48	1920.99
194.70	1873.89
194.92	1888.23
195.14	2004.96
195.36	1923.04
195.58	1966.05
195.80	1943.52
196.02	1890.28
196.24	1927.14
196.46	1914.85
196.69	1890.28
196.91	2172.89
197.13	1918.95
197.35	1947.62
197.57	2064.35
197.79	1896.42
198.01	1914.85
198.23	2011.11
198.45	1990.63
198.67	1843.17
198.89	1914.85
199.11	2029.54
199.33	1978.34
199.55	1892.32
199.77	1892.32
199.99	2060.26
200.21	1886.18
200.43	2043.87
200.65	1859.56
200.87	1761.25
201.09	1966.05
201.31	1877.99
201.53	2031.58
201.75	1978.34
201.97	2021.35
202.19	1912.80
202.41	1931.23
202.63	2027.49
202.85	1994.72
203.07	1972.19
203.29	1890.28
203.51	1929.19
203.73	1904.61
203.95	2211.81
204.17	2015.20
204.39	1871.84
204.61	1918.95
204.83	1951.71
205.05	2017.25
205.27	2035.68
205.49	2082.78
205.71	2011.11
205.93	1871.84
206.15	1894.37
206.37	1953.76
206.59	1955.81
206.81	1865.70
207.03	1920.99
207.25	1925.09
207.47	1933.28
207.69	1951.71
207.91	2047.97
208.13	2070.50
208.34	1873.89
208.56	1871.84
208.78	1947.62
209.00	1865.70
209.22	1943.52
209.44	1935.33
209.66	1902.56
209.88	1875.94
210.10	1961.95
210.32	1920.99
210.54	2041.82
210.76	1920.99
210.98	2031.58
211.20	1834.98
211.42	1896.42
211.64	2011.11
211.86	2007.01
212.08	1968.10
212.30	1916.90
212.52	1978.34
212.74	1994.72
212.96	1927.14
213.17	1998.82
213.39	2054.11
213.61	2072.54
213.83	1925.09
214.05	1914.85
214.27	2088.93
214.49	1832.93
214.71	1875.94
214.93	2019.30
215.15	1912.80
215.37	1976.29
215.59	1818.60
215.81	1890.28
216.03	2064.35
216.24	1955.81
216.46	1906.66
216.68	1972.19
216.90	2131.94
217.12	1992.67
217.34	1943.52
217.56	1955.81
217.78	2127.84
218.00	1974.24
218.22	2039.78
218.44	1994.72
218.66	1916.90
218.87	2152.42
219.09	1869.80
219.31	1939.43
219.53	2021.35
219.75	2007.01
219.97	1961.95
220.19	2002.91
220.41	1953.76
220.63	2068.45
220.85	1968.10
221.06	1916.90
221.28	1992.67
221.50	1966.05
221.72	1957.86
221.94	1984.48
222.16	1976.29
222.38	1990.63
222.60	1955.81
222.82	1929.19
223.03	2029.54
223.25	1824.74
223.47	1966.05
223.69	2097.12
223.91	2007.01
224.13	1970.15
224.35	1894.37
224.57	2113.50
224.78	2000.87
225.00	1869.80
225.22	1978.34
225.44	1898.47
225.66	2007.01
225.88	1961.95
226.10	2015.20
226.32	1972.19
226.53	2052.06
226.75	1945.57
226.97	1849.32
227.19	1923.04
227.41	1920.99
227.63	1933.28
227.85	1794.02
228.06	1947.62
228.28	1964.00
228.50	2050.02
228.72	1804.26
228.94	1867.75
229.16	1841.12
229.37	1890.28
229.59	1871.84
229.81	2054.11
230.03	1851.36
230.25	1888.23
230.47	1898.47
230.69	1832.93
230.90	2045.92
231.12	1785.83
231.34	1931.23
231.56	2033.63
231.78	1865.70
232.00	2004.96
232.21	1951.71
232.43	1884.13
232.65	1832.93
232.87	1980.39
233.09	1853.41
233.30	1894.37
233.52	1988.58
233.74	2009.06
233.96	1902.56
234.18	1943.52
234.40	2007.01
234.61	2131.94
234.83	1910.75
235.05	1837.03
235.27	2148.32
235.49	2054.11
235.70	1941.47
235.92	2011.11
236.14	1984.48
236.36	2160.61
236.58	1820.64
236.79	1949.67
237.01	1947.62
237.23	1941.47
237.45	2076.64
237.67	1894.37
237.88	1968.10
238.10	2070.50
238.32	1824.74
238.54	1918.95
238.76	1939.43
238.97	1892.32
239.19	1918.95
239.41	1986.53
239.63	2062.30
239.85	1916.90
240.06	1959.91
240.28	1900.52
240.50	2101.22
240.72	1894.37
240.93	1931.23
241.15	1976.29
241.37	1947.62
241.59	2060.26
241.81	1916.90
242.02	1949.67
242.24	2004.96
242.46	2037.73
242.68	1865.70
242.89	1976.29
243.11	2052.06
243.33	1978.34
243.55	1957.86
243.76	2029.54
243.98	1972.19
244.20	1998.82
244.42	1949.67
244.64	1964.00
244.85	1826.79
245.07	1841.12
245.29	1976.29
245.51	1943.52
245.72	2023.39
245.94	2041.82
246.16	1974.24
246.38	1966.05
246.59	1927.14
246.81	1871.84
247.03	1972.19
247.24	1802.21
247.46	1896.42
247.68	2023.39
247.90	1884.13
248.11	1904.61
248.33	2050.02
248.55	1976.29
248.77	1933.28
248.98	2002.91
249.20	2144.22
249.42	1945.57
249.64	1974.24
249.85	1882.08
250.07	1933.28
250.29	2050.02
250.50	1929.19
250.72	1869.80
250.94	2000.87
251.16	2093.02
251.37	1957.86
251.59	1974.24
251.81	1943.52
252.02	2015.20
252.24	1845.22
252.46	2013.15
252.68	1828.84
252.89	1972.19
253.11	1902.56
253.33	2115.55
253.54	2019.30
253.76	1920.99
253.98	1951.71
254.20	1916.90
254.41	1794.02
254.63	1898.47
254.85	1888.23
255.06	1943.52
255.28	1990.63
255.50	1935.33
255.71	1875.94
255.93	1865.70
256.15	1914.85
256.36	2019.30
256.58	1916.90
256.80	1945.57
257.02	1966.05
257.23	1902.56
257.45	1957.86
257.67	2060.26
257.88	1884.13
258.10	2047.97
258.32	1951.71
258.53	1914.85
258.75	2084.83
258.97	1970.15
259.18	1933.28
259.40	1918.95
259.62	2088.93
259.83	1972.19
260.05	1980.39
260.27	2312.16
260.48	2031.58
260.70	1861.60
260.92	1900.52
261.13	1951.71
261.35	1957.86
261.57	1992.67
261.78	1863.65
262.00	1849.32
262.22	1996.77
262.43	1947.62
262.65	1953.76
262.86	1961.95
263.08	2189.28
263.30	1914.85
263.51	1804.26
263.73	1875.94
263.95	2060.26
264.16	1953.76
264.38	1914.85
264.60	1968.10
264.81	2019.30
265.03	2107.36
265.25	2050.02
265.46	1994.72
265.68	2068.45
265.89	1966.05
266.11	1832.93
266.33	1996.77
266.54	2058.21
266.76	1941.47
266.98	2002.91
267.19	2027.49
267.41	1945.57
267.62	2019.30
267.84	1886.18
268.06	1986.53
268.27	1951.71
268.49	1939.43
268.70	2054.11
268.92	1972.19
269.14	1859.56
269.35	1886.18
269.57	1955.81
269.79	1972.19
270.00	1937.38
270.22	2093.02
270.43	1890.28
270.65	1798.12
270.87	2002.91
271.08	2007.01
271.30	2066.40
271.51	1941.47
271.73	2031.58
271.95	2068.45
272.16	1984.48
272.38	1898.47
272.59	1849.32
272.81	1931.23
273.02	1974.24
273.24	1992.67
273.46	2035.68
273.67	1865.70
273.89	1845.22
274.10	1949.67
274.32	2011.11
274.54	1957.86
274.75	1912.80
274.97	1908.71
275.18	1912.80
275.40	1961.95
275.61	1910.75
275.83	2052.06
276.05	1898.47
276.26	2015.20
276.48	1968.10
276.69	1949.67
276.91	1923.04
277.12	2043.87
277.34	1998.82
277.55	2002.91
277.77	1937.38
277.99	1912.80
278.20	1890.28
278.42	1865.70
278.63	1929.19
278.85	1806.31
279.06	1830.88
279.28	1941.47
279.49	2043.87
279.71	1943.52
279.93	2007.01
280.14	1990.63
280.36	1937.38
280.57	2023.39
280.79	2045.92
281.00	1945.57
281.22	1839.08
281.43	1964.00
281.65	1814.50
281.86	1834.98
282.08	2090.98
282.29	2084.83
282.51	1816.55
282.73	1841.12
282.94	1861.60
283.16	2009.06
283.37	2127.84
283.59	1853.41
283.80	1910.75
284.02	1970.15
284.23	1900.52
284.45	1929.19
284.66	1867.75
284.88	1886.18
285.09	1968.10
285.31	1972.19
285.52	1927.14
285.74	1853.41
285.95	2066.40
286.17	1970.15
286.38	2117.60
286.60	1927.14
286.81	1935.33
287.03	1970.15
287.24	2009.06
287.46	1994.72
287.67	1959.91
287.89	2121.70
288.10	1988.58
288.32	1937.38
288.53	2082.78
288.75	1953.76
288.96	2027.49
289.18	1841.12
289.39	1910.75
289.61	2007.01
289.82	2129.89
290.04	2142.18
290.25	1847.27
290.47	1941.47
290.68	1943.52
290.90	2007.01
291.11	1800.16
291.33	2021.35
291.54	1812.45
291.76	1816.55
291.97	1955.81
292.18	1886.18
292.40	1914.85
292.61	1949.67
292.83	2140.13
293.04	1984.48
293.26	1986.53
293.47	1957.86
293.69	1914.85
293.90	1988.58
294.12	2031.58
294.33	1992.67
294.55	1906.66
294.76	2009.06
294.97	2070.50
295.19	2090.98
295.40	1912.80
295.62	1990.63
295.83	2095.07
296.05	1910.75
296.26	1957.86
296.48	1914.85
296.69	1935.33
296.90	1908.71
297.12	1980.39
297.33	2004.96
297.55	1994.72
297.76	1941.47
297.98	2025.44
298.19	1996.77
298.41	1966.05
298.62	1892.32
298.83	2062.30
299.05	2009.06
299.26	1857.51
299.48	1947.62
299.69	1996.77
299.90	1994.72
300.12	1906.66
300.33	1982.43
300.55	1935.33
300.76	2004.96
300.98	1918.95
301.19	1988.58
301.40	1955.81
301.62	1904.61
301.83	1953.76
302.05	2017.25
302.26	1920.99
302.47	2004.96
302.69	1853.41
302.90	2023.39
303.12	1847.27
303.33	1990.63
303.54	2095.07
303.76	1955.81
303.97	2025.44
304.19	2052.06
304.40	1908.71
304.61	1970.15
304.83	2093.02
305.04	2066.40
305.26	1929.19
305.47	1896.42
305.68	1929.19
305.90	1863.65
306.11	2009.06
306.33	1898.47
306.54	1902.56
306.75	1955.81
306.97	1839.08
307.18	1875.94
307.39	1900.52
307.61	2031.58
307.82	1957.86
308.04	1982.43
308.25	1902.56
308.46	1976.29
308.68	1961.95
308.89	1961.95
309.10	2035.68
309.32	2025.44
309.53	1939.43
309.74	1935.33
309.96	1912.80
310.17	2066.40
310.39	1929.19
310.60	1978.34
310.81	1998.82
311.03	1873.89
311.24	2021.35
311.45	1947.62
311.67	2148.32
311.88	1980.39
312.09	1892.32
312.31	1875.94
312.52	1937.38
312.73	1931.23
312.95	1877.99
313.16	1839.08
313.37	2033.63
313.59	2056.16
313.80	1970.15
314.01	2068.45
314.23	1908.71
314.44	1910.75
314.65	1927.14
314.87	1974.24
315.08	1966.05
315.29	1914.85
315.51	1843.17
315.72	1869.80
315.93	2054.11
316.15	1992.67
316.36	1892.32
316.57	1937.38
316.79	1992.67
317.00	1898.47
317.21	2009.06
317.43	1802.21
317.64	1918.95
317.85	1802.21
318.07	1898.47
318.28	2058.21
318.49	2133.98
318.70	2179.04
318.92	2152.42
319.13	2127.84
319.34	2144.22
319.56	2033.63
319.77	2148.32
319.98	2047.97
320.20	2013.15
320.41	2047.97
320.62	2084.83
320.83	1935.33
321.05	2127.84
321.26	1990.63
321.47	1920.99
321.69	2029.54
321.90	1855.46
322.11	1943.52
322.32	1964.00
322.54	2058.21
322.75	1929.19
322.96	2199.52
323.18	1834.98
323.39	1783.78
323.60	1847.27
323.81	2013.15
324.03	1957.86
324.24	1955.81
324.45	1920.99
324.66	1882.08
324.88	2004.96
325.09	2052.06
325.30	1961.95
325.52	1980.39
325.73	1978.34
325.94	1949.67
326.15	1890.28
326.37	1939.43
326.58	1980.39
326.79	2103.26
327.00	1863.65
327.22	2000.87
327.43	1961.95
327.64	1916.90
327.85	1992.67
328.07	1939.43
328.28	2074.59
328.49	1859.56
328.70	1949.67
328.92	1923.04
329.13	1955.81
329.34	2031.58
329.55	2080.74
329.76	2113.50
329.98	1927.14
330.19	2070.50
330.40	1972.19
330.61	1955.81
330.83	1961.95
331.04	1912.80
331.25	1933.28
331.46	1890.28
331.68	1880.04
331.89	2011.11
332.10	1949.67
332.31	1910.75
332.52	1875.94
332.74	1980.39
332.95	1902.56
333.16	1925.09
333.37	1974.24
333.58	1941.47
333.80	2064.35
334.01	1886.18
334.22	1959.91
334.43	1912.80
334.64	1916.90
334.86	1871.84
335.07	1849.32
335.28	2136.03
335.49	1931.23
335.70	2029.54
335.92	2035.68
336.13	2062.30
336.34	1968.10
336.55	2019.30
336.76	1937.38
336.98	1818.60
337.19	1880.04
337.40	1990.63
337.61	2113.50
337.82	1982.43
338.04	2058.21
338.25	1896.42
338.46	1925.09
338.67	1953.76
338.88	1912.80
339.09	1873.89
339.31	1888.23
339.52	1847.27
339.73	1871.84
339.94	1906.66
340.15	1986.53
340.36	1890.28
340.58	1953.76
340.79	1906.66
341.00	1976.29
341.21	1875.94
341.42	2045.92
341.63	1877.99
341.85	2004.96
342.06	1949.67
342.27	1892.32
342.48	1994.72
342.69	1841.12
342.90	2047.97
343.12	2107.36
343.33	1988.58
343.54	1998.82
343.75	2138.08
343.96	1959.91
344.17	1898.47
344.38	1910.75
344.60	1896.42
344.81	1886.18
345.02	1994.72
345.23	2082.78
345.44	2115.55
345.65	2002.91
345.86	1959.91
346.07	1970.15
346.29	1832.93
346.50	2000.87
346.71	2043.87
346.92	2015.20
347.13	2086.88
347.34	1910.75
347.55	1964.00
347.76	1996.77
347.98	1839.08
348.19	1929.19
348.40	2033.63
348.61	1972.19
348.82	2119.65
349.03	2029.54
349.24	1857.51
349.45	2154.46
349.66	1863.65
349.88	1964.00
350.09	1990.63
350.30	2148.32
350.51	2076.64
350.72	1955.81
350.93	1998.82
351.14	1988.58
351.35	2000.87
351.56	1988.58
351.77	1966.05
351.99	2027.49
352.20	2047.97
352.41	1986.53
352.62	1839.08
352.83	1925.09
353.04	2076.64
353.25	1845.22
353.46	2056.16
353.67	1982.43
353.88	1820.64
354.09	1982.43
354.30	1959.91
354.52	1966.05
354.73	1904.61
354.94	1896.42
355.15	1920.99
355.36	1994.72
355.57	1900.52
355.78	2004.96
355.99	1890.28
356.20	1918.95
356.41	2035.68
356.62	1984.48
356.83	2007.01
357.04	2068.45
357.25	1855.46
357.46	1886.18
357.68	1787.88
357.89	1867.75
358.10	1976.29
358.31	1961.95
358.52	2011.11
358.73	1882.08
358.94	1886.18
359.15	1898.47
359.36	1994.72
359.57	2000.87
359.78	1927.14
359.99	2002.91
360.20	1888.23
360.41	1974.24
360.62	1925.09
360.83	1892.32
361.04	1920.99
361.25	1988.58
361.46	2088.93
361.67	2002.91
361.88	2056.16
362.09	2002.91
362.30	2009.06
362.51	1869.80
362.72	1976.29
362.93	1978.34
363.14	2033.63
363.35	1931.23
363.56	1834.98
363.78	2074.59
363.99	1968.10
364.20	1943.52
364.41	1945.57
364.62	2107.36
364.83	1935.33
365.04	1920.99
365.25	1929.19
365.46	2103.26
365.67	1892.32
365.88	1908.71
366.09	1957.86
366.30	1945.57
366.51	1951.71
366.72	1832.93
366.93	1953.76
367.14	2045.92
367.35	2123.74
367.56	1929.19
367.77	2080.74
367.98	2015.20
368.18	1910.75
368.39	1996.77
368.60	1920.99
368.81	2058.21
369.02	1935.33
369.23	1961.95
369.44	1867.75
369.65	1826.79
369.86	2041.82
370.07	1996.77
370.28	1875.94
370.49	1972.19
370.70	2023.39
370.91	1937.38
371.12	1830.88
371.33	2062.30
371.54	1896.42
371.75	2125.79
371.96	1802.21
372.17	2013.15
372.38	1935.33
372.59	1908.71
372.80	1916.90
373.01	1990.63
373.22	2033.63
373.43	1916.90
373.64	1931.23
373.85	2136.03
374.06	2117.60
374.26	2029.54
374.47	1937.38
374.68	2064.35
374.89	1927.14
375.10	1935.33
375.31	2021.35
375.52	2009.06
375.73	1906.66
375.94	1894.37
376.15	2119.65
376.36	1933.28
376.57	1877.99
376.78	1859.56
376.99	1945.57
377.20	2090.98
377.40	1886.18
377.61	2111.46
377.82	1849.32
378.03	2166.75
378.24	1994.72
378.45	1968.10
378.66	2013.15
378.87	1886.18
379.08	1912.80
379.29	1910.75
379.50	2082.78
379.71	1972.19
379.91	2064.35
380.12	1941.47
380.33	1927.14
380.54	1894.37
380.75	1972.19
380.96	1961.95
381.17	1912.80
381.38	1943.52
381.59	2037.73
381.80	1982.43
382.00	2109.41
382.21	2015.20
382.42	2181.09
382.63	2201.57
382.84	2066.40
383.05	2015.20
383.26	2170.85
383.47	2015.20
383.68	2047.97
383.88	2013.15
384.09	1949.67
384.30	2119.65
384.51	2078.69
384.72	1830.88
384.93	1806.31
385.14	1966.05
385.35	2027.49
385.55	1904.61
385.76	2035.68
385.97	1875.94
386.18	1888.23
386.39	1884.13
386.60	1937.38
386.81	1910.75
387.02	1896.42
387.22	1877.99
387.43	2074.59
387.64	2000.87
387.85	2226.14
388.06	2234.33
388.27	4014.02
388.48	8714.11
388.68	12105.54
388.89	14034.73
389.10	15408.92
389.31	14141.22
389.52	11130.71
389.73	9609.07
389.93	8660.86
390.14	7989.13
390.35	7280.53
390.56	6430.62
390.77	5265.33
390.98	4052.93
391.18	3252.17
391.39	2539.48
391.60	2189.28
391.81	2140.13
392.02	1947.62
392.23	2121.70
392.43	1992.67
392.64	2000.87
392.85	2021.35
393.06	2058.21
393.27	1974.24
393.47	1912.80
393.68	2047.97
393.89	1933.28
394.10	2101.22
394.31	1968.10
394.52	1918.95
394.72	1957.86
394.93	2123.74
395.14	1976.29
395.35	1990.63
395.56	1900.52
395.76	1945.57
395.97	2021.35
396.18	2115.55
396.39	2170.85
396.60	2422.75
396.80	2185.18
397.01	2140.13
397.22	2166.75
397.43	2125.79
397.64	2009.06
397.84	1996.77
398.05	2271.20
398.26	2015.20
398.47	2029.54
398.67	2090.98
398.88	2004.96
399.09	2004.96
399.30	1961.95
399.51	2025.44
399.71	1939.43
399.92	1970.15
400.13	1984.48
400.34	1896.42
400.54	1964.00
400.75	2039.78
400.96	1984.48
401.17	2097.12
401.37	1939.43
401.58	1984.48
401.79	2004.96
402.00	2080.74
402.21	2369.50
402.41	2377.69
402.62	2392.03
402.83	2357.21
403.04	2389.98
403.24	2441.18
403.45	2119.65
403.66	2318.30
403.87	2164.70
404.07	2176.99
404.28	2203.61
404.49	2209.76
404.70	1998.82
404.90	2027.49
405.11	2041.82
405.32	2099.17
405.52	1867.75
405.73	1902.56
405.94	1978.34
406.15	1939.43
406.35	1998.82
406.56	1976.29
406.77	1990.63
406.98	1966.05
407.18	1865.70
407.39	2068.45
407.60	2011.11
407.80	1976.29
408.01	1925.09
408.22	1994.72
408.43	1933.28
408.63	1988.58
408.84	2064.35
409.05	1988.58
409.25	1935.33
409.46	1853.41
409.67	1886.18
409.88	1949.67
410.08	1994.72
410.29	1902.56
410.50	2029.54
410.70	2086.88
410.91	1898.47
411.12	1980.39
411.32	1935.33
411.53	1871.84
411.74	2111.46
411.95	2140.13
412.15	2088.93
412.36	2080.74
412.57	2064.35
412.77	2052.06
412.98	2037.73
413.19	2004.96
413.39	2117.60
413.60	2004.96
413.81	2033.63
414.01	1941.47
414.22	2021.35
414.43	2027.49
414.63	2029.54
414.84	2064.35
415.05	1914.85
415.25	1845.22
415.46	1988.58
415.67	1914.85
415.87	1994.72
416.08	1990.63
416.29	1920.99
416.49	1976.29
416.70	1931.23
416.91	1943.52
417.11	1996.77
417.32	1929.19
417.53	1933.28
417.73	1933.28
417.94	2013.15
418.15	1951.71
418.35	2015.20
418.56	2035.68
418.77	2129.89
418.97	1976.29
419.18	1943.52
419.38	1763.30
419.59	1986.53
419.80	2058.21
420.00	1937.38
420.21	1894.37
420.42	1961.95
420.62	1982.43
420.83	1853.41
421.04	2000.87
421.24	1988.58
421.45	1957.86
421.65	2043.87
421.86	1966.05
422.07	2035.68
422.27	1961.95
422.48	1955.81
422.69	1845.22
422.89	1939.43
423.10	1914.85
423.30	1929.19
423.51	2000.87
423.72	2064.35
423.92	1943.52
424.13	1826.79
424.33	1961.95
424.54	1966.05
424.75	1902.56
424.95	2074.59
425.16	1939.43
425.36	1931.23
425.57	2013.15
425.78	2035.68
425.98	2056.16
426.19	1945.57
426.39	1906.66
426.60	2039.78
426.81	2025.44
427.01	1996.77
427.22	1970.15
427.42	1834.98
427.63	1933.28
427.83	1964.00
428.04	2074.59
428.25	2074.59
428.45	2084.83
428.66	2082.78
428.86	1884.13
429.07	1943.52
429.28	2004.96
429.48	1935.33
429.69	1959.91
429.89	2062.30
430.10	1923.04
430.30	2007.01
430.51	2072.54
430.71	1931.23
430.92	1964.00
431.13	1966.05
431.33	2056.16
431.54	2029.54
431.74	2111.46
431.95	2090.98
432.15	1857.51
432.36	1929.19
432.56	2029.54
432.77	2086.88
432.98	2109.41
433.18	1906.66
433.39	1884.13
433.59	1976.29
433.80	2115.55
434.00	2133.98
434.21	1984.48
434.41	1884.13
434.62	2127.84
434.82	1837.03
435.03	1845.22
435.23	1966.05
435.44	1810.40
435.64	2043.87
435.85	1996.77
436.06	2050.02
436.26	2029.54
436.47	1871.84
436.67	1943.52
436.88	1857.51
437.08	2043.87
437.29	2078.69
437.49	2050.02
437.70	2025.44
437.90	1990.63
438.11	2084.83
438.31	2011.11
438.52	2127.84
438.72	2205.66
438.93	2215.90
439.13	2174.94
439.34	2133.98
439.54	2060.26
439.75	2052.06
439.95	2078.69
440.16	2031.58
440.36	2004.96
440.57	2011.11
440.77	2047.97
440.98	2015.20
441.18	1970.15
441.39	1964.00
441.59	1908.71
441.80	2146.27
442.00	1974.24
442.21	2076.64
442.41	1904.61
442.62	1996.77
442.82	1941.47
443.02	1877.99
443.23	1955.81
443.43	2023.39
443.64	2095.07
443.84	1953.76
444.05	2093.02
444.25	2021.35
444.46	2004.96
444.66	1986.53
444.87	2156.51
445.07	1898.47
445.28	1951.71
445.48	2086.88
445.69	2015.20
445.89	2179.04
446.09	1994.72
446.30	2246.62
446.50	2637.78
446.71	4186.05
446.91	5339.05
447.12	5961.64
447.32	6545.31
447.53	6088.61
447.73	4849.59
447.93	4437.95
448.14	4044.74
448.34	3813.32
448.55	3471.31
448.75	3250.13
448.96	3207.12
449.16	2861.01
449.36	2691.03
449.57	2340.83
449.77	2150.37
449.98	2023.39
450.18	2082.78
450.39	2007.01
450.59	2097.12
450.79	1959.91
451.00	1972.19
451.20	1996.77
451.41	1941.47
451.61	2029.54
451.81	1982.43
452.02	1947.62
452.22	1978.34
452.43	1894.37
452.63	1914.85
