SpectraSuite Data File
++++++++++++++++++++++++++++++++++++
Date: Wed May 04 22:45:29 CEST 2016
User: root
Dark Spectrum Present: No
Reference Spectrum Present: No
Number of Sampled Component Spectra: 1
Spectrometers: USB4C02835
Integration Time (usec): 100000 (USB4C02835)
Spectra Averaged: 1 (USB4C02835)
Boxcar Smoothing: 0 (USB4C02835)
Correct for Electrical Dark: No (USB4C02835)
Strobe/Lamp Enabled: No (USB4C02835)
Correct for Detector Non-linearity: No (USB4C02835)
Correct for Stray Light: No (USB4C02835)
Number of Pixels in Processed Spectrum: 3648
>>>>>Begin Processed Spectral Data<<<<<
177.47	1671.14
177.69	1671.14
177.91	1671.14
178.13	1572.84
178.36	1624.04
178.58	1949.67
178.80	2017.25
179.02	1818.60
179.24	1871.84
179.46	1912.80
179.68	2021.35
179.90	1902.56
180.13	1961.95
180.35	1853.41
180.57	1906.66
180.79	1957.86
181.01	1955.81
181.23	2004.96
181.45	2037.73
181.67	2058.21
181.90	2068.45
182.12	1880.04
182.34	1900.52
182.56	2013.15
182.78	2039.78
183.00	1892.32
183.22	1908.71
183.44	1906.66
183.66	2136.03
183.89	2015.20
184.11	1970.15
184.33	2023.39
184.55	2090.98
184.77	1923.04
184.99	1886.18
185.21	1894.37
185.43	2090.98
185.65	1863.65
185.87	1923.04
186.10	2105.31
186.32	2111.46
186.54	1970.15
186.76	1943.52
186.98	1996.77
187.20	1966.05
187.42	1908.71
187.64	1970.15
187.86	1912.80
188.08	2023.39
188.30	1873.89
188.52	1900.52
188.75	2099.17
188.97	2070.50
189.19	1931.23
189.41	1939.43
189.63	1937.38
189.85	1906.66
190.07	1869.80
190.29	1804.26
190.51	1988.58
190.73	1877.99
190.95	2035.68
191.17	1894.37
191.39	1880.04
191.61	1886.18
191.84	1884.13
192.06	1929.19
192.28	1867.75
192.50	2156.51
192.72	1980.39
192.94	1990.63
193.16	1970.15
193.38	2027.49
193.60	1908.71
193.82	1896.42
194.04	2060.26
194.26	1953.76
194.48	1980.39
194.70	1869.80
194.92	1920.99
195.14	2029.54
195.36	1834.98
195.58	2013.15
195.80	1955.81
196.02	1972.19
196.24	1904.61
196.46	1982.43
196.69	1943.52
196.91	2199.52
197.13	1939.43
197.35	1896.42
197.57	2035.68
197.79	2119.65
198.01	1896.42
198.23	2045.92
198.45	1964.00
198.67	1914.85
198.89	1912.80
199.11	1943.52
199.33	1912.80
199.55	1798.12
199.77	1908.71
199.99	2015.20
200.21	1871.84
200.43	2009.06
200.65	1902.56
200.87	1841.12
201.09	1918.95
201.31	1957.86
201.53	1966.05
201.75	1951.71
201.97	2027.49
202.19	1957.86
202.41	1945.57
202.63	2115.55
202.85	2017.25
203.07	2050.02
203.29	1900.52
203.51	1789.92
203.73	1906.66
203.95	2195.42
204.17	1920.99
204.39	1968.10
204.61	2074.59
204.83	1896.42
205.05	1968.10
205.27	2013.15
205.49	2090.98
205.71	1986.53
205.93	1834.98
206.15	1927.14
206.37	2007.01
206.59	1877.99
206.81	1877.99
207.03	1859.56
207.25	1892.32
207.47	1959.91
207.69	1888.23
207.91	1964.00
208.13	2000.87
208.34	1902.56
208.56	1904.61
208.78	1990.63
209.00	1867.75
209.22	1953.76
209.44	1826.79
209.66	1966.05
209.88	1980.39
210.10	1933.28
210.32	1890.28
210.54	2054.11
210.76	1939.43
210.98	2021.35
211.20	1810.40
211.42	1884.13
211.64	2084.83
211.86	2058.21
212.08	1927.14
212.30	1908.71
212.52	1916.90
212.74	1992.67
212.96	1978.34
213.17	1990.63
213.39	2052.06
213.61	1974.24
213.83	1845.22
214.05	1966.05
214.27	2066.40
214.49	1947.62
214.71	1830.88
214.93	2025.44
215.15	1974.24
215.37	1964.00
215.59	1896.42
215.81	1980.39
216.03	1972.19
216.24	1970.15
216.46	1920.99
216.68	1904.61
216.90	2019.30
217.12	2023.39
217.34	1900.52
217.56	1949.67
217.78	2043.87
218.00	2025.44
218.22	2011.11
218.44	1839.08
218.66	1959.91
218.87	2017.25
219.09	1896.42
219.31	1972.19
219.53	1959.91
219.75	1914.85
219.97	1904.61
220.19	1982.43
220.41	2064.35
220.63	2086.88
220.85	1978.34
221.06	1925.09
221.28	2066.40
221.50	1988.58
221.72	1980.39
221.94	1900.52
222.16	2007.01
222.38	2007.01
222.60	1898.47
222.82	1976.29
223.03	2031.58
223.25	1837.03
223.47	2076.64
223.69	2047.97
223.91	2007.01
224.13	1923.04
224.35	1857.51
224.57	1949.67
224.78	1914.85
225.00	1822.69
225.22	1941.47
225.44	1918.95
225.66	2007.01
225.88	1951.71
226.10	1998.82
226.32	1953.76
226.53	2125.79
226.75	1912.80
226.97	1982.43
227.19	1955.81
227.41	1910.75
227.63	1918.95
227.85	1802.21
228.06	1996.77
228.28	1947.62
228.50	2052.06
228.72	1863.65
228.94	1914.85
229.16	1785.83
229.37	1841.12
229.59	1824.74
229.81	1992.67
230.03	1961.95
230.25	1910.75
230.47	1841.12
230.69	1882.08
230.90	2021.35
231.12	1912.80
231.34	1943.52
231.56	1984.48
231.78	1814.50
232.00	1982.43
232.21	2015.20
232.43	1896.42
232.65	1816.55
232.87	1953.76
233.09	1937.38
233.30	1900.52
233.52	2070.50
233.74	1972.19
233.96	1910.75
234.18	1927.14
234.40	1986.53
234.61	2103.26
234.83	1877.99
235.05	1830.88
235.27	2095.07
235.49	2025.44
235.70	1859.56
235.92	2068.45
236.14	1974.24
236.36	2121.70
236.58	1806.31
236.79	2041.82
237.01	1968.10
237.23	1988.58
237.45	2031.58
237.67	1875.94
237.88	1943.52
238.10	2123.74
238.32	1894.37
238.54	1898.47
238.76	2013.15
238.97	1871.84
239.19	1859.56
239.41	1955.81
239.63	2068.45
239.85	1959.91
240.06	1966.05
240.28	1908.71
240.50	2058.21
240.72	2033.63
240.93	1937.38
241.15	1970.15
241.37	2045.92
241.59	2078.69
241.81	1894.37
242.02	1959.91
242.24	1998.82
242.46	2017.25
242.68	1841.12
242.89	1927.14
243.11	1927.14
243.33	1974.24
243.55	1998.82
243.76	1959.91
243.98	1906.66
244.20	2031.58
244.42	1951.71
244.64	2002.91
244.85	1867.75
245.07	1865.70
245.29	1970.15
245.51	2043.87
245.72	1904.61
245.94	2035.68
246.16	1959.91
246.38	2047.97
246.59	1968.10
246.81	1920.99
247.03	1947.62
247.24	1787.88
247.46	1908.71
247.68	1941.47
247.90	1898.47
248.11	1910.75
248.33	2052.06
248.55	1937.38
248.77	1935.33
248.98	2078.69
249.20	2027.49
249.42	1906.66
249.64	1834.98
249.85	1923.04
250.07	1937.38
250.29	2054.11
250.50	2000.87
250.72	1877.99
250.94	1931.23
251.16	2099.17
251.37	1939.43
251.59	1994.72
251.81	1972.19
252.02	2050.02
252.24	1912.80
252.46	2004.96
252.68	1892.32
252.89	1861.60
253.11	1808.36
253.33	2019.30
253.54	2088.93
253.76	1865.70
253.98	1918.95
254.20	1918.95
254.41	1853.41
254.63	1918.95
254.85	1818.60
255.06	1888.23
255.28	1990.63
255.50	1994.72
255.71	1894.37
255.93	1849.32
256.15	1972.19
256.36	1986.53
256.58	1834.98
256.80	1974.24
257.02	1857.51
257.23	1867.75
257.45	1970.15
257.67	2000.87
257.88	1865.70
258.10	1941.47
258.32	1978.34
258.53	1890.28
258.75	2021.35
258.97	1869.80
259.18	1976.29
259.40	1906.66
259.62	2021.35
259.83	2086.88
260.05	1959.91
260.27	2344.92
260.48	2064.35
260.70	1828.84
260.92	1937.38
261.13	1966.05
261.35	1925.09
261.57	1966.05
261.78	1806.31
262.00	1871.84
262.22	2007.01
262.43	1957.86
262.65	1974.24
262.86	2004.96
263.08	2136.03
263.30	1994.72
263.51	1820.64
263.73	1904.61
263.95	2129.89
264.16	1935.33
264.38	1888.23
264.60	1884.13
264.81	1933.28
265.03	1978.34
265.25	2004.96
265.46	1894.37
265.68	2070.50
265.89	2033.63
266.11	1820.64
266.33	1949.67
266.54	2037.73
266.76	2064.35
266.98	2031.58
267.19	2009.06
267.41	2033.63
267.62	1898.47
267.84	1822.69
268.06	2023.39
268.27	1966.05
268.49	2052.06
268.70	1978.34
268.92	1947.62
269.14	1789.92
269.35	1855.46
269.57	1877.99
269.79	2009.06
270.00	1925.09
270.22	2078.69
270.43	1873.89
270.65	1845.22
270.87	2015.20
271.08	2086.88
271.30	1968.10
271.51	1908.71
271.73	1877.99
271.95	2009.06
272.16	1929.19
272.38	1939.43
272.59	1998.82
272.81	1992.67
273.02	1933.28
273.24	2017.25
273.46	2101.22
273.67	1871.84
273.89	1923.04
274.10	1968.10
274.32	2117.60
274.54	1980.39
274.75	2007.01
274.97	1894.37
275.18	2050.02
275.40	1890.28
275.61	1912.80
275.83	1912.80
276.05	1839.08
276.26	1951.71
276.48	2041.82
276.69	1859.56
276.91	1912.80
277.12	2029.54
277.34	2050.02
277.55	1990.63
277.77	2021.35
277.99	1961.95
278.20	1957.86
278.42	1865.70
278.63	1871.84
278.85	1839.08
279.06	1880.04
279.28	1988.58
279.49	2060.26
279.71	1949.67
279.93	2007.01
280.14	1998.82
280.36	1918.95
280.57	2070.50
280.79	2062.30
281.00	1871.84
281.22	1888.23
281.43	2027.49
281.65	1769.44
281.86	1884.13
282.08	1990.63
282.29	2080.74
282.51	1916.90
282.73	1869.80
282.94	1859.56
283.16	1953.76
283.37	2074.59
283.59	1929.19
283.80	2019.30
284.02	1923.04
284.23	1980.39
284.45	1943.52
284.66	1892.32
284.88	1863.65
285.09	1951.71
285.31	1990.63
285.52	2000.87
285.74	1894.37
285.95	1978.34
286.17	1945.57
286.38	2029.54
286.60	1861.60
286.81	1855.46
287.03	1847.27
287.24	1947.62
287.46	1968.10
287.67	1912.80
287.89	2084.83
288.10	1970.15
288.32	1994.72
288.53	2000.87
288.75	1937.38
288.96	1966.05
289.18	1920.99
289.39	1974.24
289.61	2037.73
289.82	2181.09
290.04	2076.64
290.25	1865.70
290.47	1945.57
290.68	1980.39
290.90	2121.70
291.11	1834.98
291.33	1998.82
291.54	1918.95
291.76	1912.80
291.97	1949.67
292.18	1906.66
292.40	1929.19
292.61	1886.18
292.83	2174.94
293.04	1986.53
293.26	1988.58
293.47	1947.62
293.69	1923.04
293.90	1902.56
294.12	2031.58
294.33	1966.05
294.55	1931.23
294.76	2047.97
294.97	2062.30
295.19	2179.04
295.40	1949.67
295.62	1970.15
295.83	2086.88
296.05	1931.23
296.26	2013.15
296.48	1902.56
296.69	2009.06
296.90	1996.77
297.12	1996.77
297.33	2058.21
297.55	1982.43
297.76	2037.73
297.98	2090.98
298.19	1906.66
298.41	1947.62
298.62	1953.76
298.83	2054.11
299.05	2039.78
299.26	1900.52
299.48	1914.85
299.69	1964.00
299.90	1949.67
300.12	1888.23
300.33	1976.29
300.55	1972.19
300.76	1992.67
300.98	1892.32
301.19	2013.15
301.40	1945.57
301.62	1978.34
301.83	1990.63
302.05	1931.23
302.26	1990.63
302.47	1904.61
302.69	1941.47
302.90	1888.23
303.12	1847.27
303.33	2017.25
303.54	2058.21
303.76	1988.58
303.97	1984.48
304.19	2105.31
304.40	1904.61
304.61	1959.91
304.83	2080.74
305.04	2009.06
305.26	2019.30
305.47	1974.24
305.68	1957.86
305.90	1818.60
306.11	1976.29
306.33	1916.90
306.54	1927.14
306.75	1902.56
306.97	1802.21
307.18	1849.32
307.39	1880.04
307.61	1984.48
307.82	1931.23
308.04	1961.95
308.25	1867.75
308.46	2029.54
308.68	1974.24
308.89	2000.87
309.10	2056.16
309.32	2009.06
309.53	1916.90
309.74	1986.53
309.96	1861.60
310.17	2019.30
310.39	2004.96
310.60	1968.10
310.81	1966.05
311.03	1812.45
311.24	2011.11
311.45	1910.75
311.67	2138.08
311.88	1970.15
312.09	1933.28
312.31	1918.95
312.52	1933.28
312.73	1964.00
312.95	1898.47
313.16	1904.61
313.37	2076.64
313.59	1947.62
313.80	2078.69
314.01	2074.59
314.23	1935.33
314.44	1767.40
314.65	1880.04
314.87	1877.99
315.08	1898.47
315.29	2002.91
315.51	1894.37
315.72	1892.32
315.93	2025.44
316.15	2039.78
316.36	1920.99
316.57	1943.52
316.79	2002.91
317.00	1908.71
317.21	2007.01
317.43	1851.36
317.64	1990.63
317.85	1916.90
318.07	1910.75
318.28	2023.39
318.49	2138.08
318.70	2205.66
318.92	2115.55
319.13	2113.50
319.34	2138.08
319.56	2123.74
319.77	2105.31
319.98	2148.32
320.20	2127.84
320.41	2107.36
320.62	2017.25
320.83	1890.28
321.05	2164.70
321.26	1976.29
321.47	1996.77
321.69	2109.41
321.90	1914.85
322.11	1806.31
322.32	1966.05
322.54	2052.06
322.75	1914.85
322.96	2191.33
323.18	1914.85
323.39	1832.93
323.60	1923.04
323.81	1986.53
324.03	1961.95
324.24	1998.82
324.45	1947.62
324.66	1927.14
324.88	2002.91
325.09	2080.74
325.30	1908.71
325.52	1920.99
325.73	1945.57
325.94	1900.52
326.15	1816.55
326.37	1972.19
326.58	1982.43
326.79	2060.26
327.00	1892.32
327.22	1982.43
327.43	1853.41
327.64	1843.17
327.85	1990.63
328.07	1994.72
328.28	2152.42
328.49	1927.14
328.70	1902.56
328.92	2056.16
329.13	1968.10
329.34	1994.72
329.55	2056.16
329.76	2009.06
329.98	1953.76
330.19	1959.91
330.40	2015.20
330.61	1970.15
330.83	2031.58
331.04	1955.81
331.25	2035.68
331.46	1890.28
331.68	1869.80
331.89	2062.30
332.10	1976.29
332.31	1886.18
332.52	1992.67
332.74	2025.44
332.95	1826.79
333.16	1953.76
333.37	2037.73
333.58	1859.56
333.80	1912.80
334.01	1869.80
334.22	1964.00
334.43	1966.05
334.64	1900.52
334.86	1822.69
335.07	1886.18
335.28	2047.97
335.49	1894.37
335.70	2037.73
335.92	2078.69
336.13	2138.08
336.34	2015.20
336.55	2093.02
336.76	2088.93
336.98	1826.79
337.19	1959.91
337.40	2031.58
337.61	2131.94
337.82	1927.14
338.04	2004.96
338.25	1839.08
338.46	1941.47
338.67	1890.28
338.88	1853.41
339.09	1937.38
339.31	1941.47
339.52	1845.22
339.73	1900.52
339.94	1923.04
340.15	2056.16
340.36	1894.37
340.58	1908.71
340.79	1867.75
341.00	2037.73
341.21	1837.03
341.42	2074.59
341.63	1939.43
341.85	2076.64
342.06	1920.99
342.27	1884.13
342.48	2035.68
342.69	1945.57
342.90	1957.86
343.12	1988.58
343.33	1853.41
343.54	1945.57
343.75	2080.74
343.96	1910.75
344.17	1855.46
344.38	1865.70
344.60	1931.23
344.81	1904.61
345.02	1972.19
345.23	2035.68
345.44	2164.70
345.65	2052.06
345.86	2017.25
346.07	1939.43
346.29	1914.85
346.50	1984.48
346.71	2093.02
346.92	2023.39
347.13	2062.30
347.34	1941.47
347.55	1955.81
347.76	1972.19
347.98	1839.08
348.19	1951.71
348.40	2052.06
348.61	1933.28
348.82	2086.88
349.03	1970.15
349.24	1892.32
349.45	2097.12
349.66	1849.32
349.88	1947.62
350.09	1953.76
350.30	2021.35
350.51	1964.00
350.72	1982.43
350.93	1961.95
351.14	1959.91
351.35	1935.33
351.56	1970.15
351.77	1945.57
351.99	1976.29
352.20	2074.59
352.41	2039.78
352.62	1826.79
352.83	1898.47
353.04	1949.67
353.25	1961.95
353.46	1986.53
353.67	2004.96
353.88	1853.41
354.09	1955.81
354.30	1914.85
354.52	1966.05
354.73	1961.95
354.94	1943.52
355.15	1955.81
355.36	2146.27
355.57	1904.61
355.78	1990.63
355.99	1955.81
356.20	1912.80
356.41	1992.67
356.62	1984.48
356.83	1994.72
357.04	2090.98
357.25	1818.60
357.46	1959.91
357.68	1886.18
357.89	1929.19
358.10	1931.23
358.31	1900.52
358.52	1949.67
358.73	1826.79
358.94	1959.91
359.15	1906.66
359.36	2068.45
359.57	1961.95
359.78	1974.24
359.99	2021.35
360.20	1884.13
360.41	2037.73
360.62	1933.28
360.83	1972.19
361.04	1920.99
361.25	1941.47
361.46	2093.02
361.67	2052.06
361.88	1945.57
362.09	2068.45
362.30	2013.15
362.51	1865.70
362.72	1980.39
362.93	2009.06
363.14	2058.21
363.35	1968.10
363.56	1904.61
363.78	2007.01
363.99	1998.82
364.20	1970.15
364.41	1988.58
364.62	2107.36
364.83	1992.67
365.04	1955.81
365.25	1974.24
365.46	2140.13
365.67	1820.64
365.88	1857.51
366.09	1959.91
366.30	1896.42
366.51	1986.53
366.72	1832.93
366.93	1935.33
367.14	1947.62
367.35	1966.05
367.56	1941.47
367.77	2031.58
367.98	1882.08
368.18	2015.20
368.39	2025.44
368.60	1855.46
368.81	2033.63
369.02	1949.67
369.23	1898.47
369.44	1871.84
369.65	1972.19
369.86	1968.10
370.07	1978.34
370.28	1861.60
370.49	2050.02
370.70	2017.25
370.91	1888.23
371.12	1929.19
371.33	2045.92
371.54	1914.85
371.75	2074.59
371.96	1816.55
372.17	2033.63
372.38	1916.90
372.59	1908.71
372.80	1982.43
373.01	1968.10
373.22	2025.44
373.43	1941.47
373.64	1816.55
373.85	2052.06
374.06	2078.69
374.26	2068.45
374.47	1982.43
374.68	2045.92
374.89	2033.63
375.10	1845.22
375.31	2019.30
375.52	1996.77
375.73	1998.82
375.94	1869.80
376.15	2056.16
376.36	1945.57
376.57	1970.15
376.78	1843.17
376.99	1888.23
377.20	2144.22
377.40	1894.37
377.61	2056.16
377.82	1906.66
378.03	2050.02
378.24	2023.39
378.45	1939.43
378.66	1949.67
378.87	1810.40
379.08	1912.80
379.29	1923.04
379.50	2060.26
379.71	1959.91
379.91	2058.21
380.12	1949.67
380.33	1931.23
380.54	1974.24
380.75	2017.25
380.96	1986.53
381.17	2047.97
381.38	2000.87
381.59	2002.91
381.80	2000.87
382.00	2095.07
382.21	2080.74
382.42	2107.36
382.63	2136.03
382.84	2068.45
383.05	2097.12
383.26	2123.74
383.47	1959.91
383.68	1978.34
383.88	2090.98
384.09	1996.77
384.30	2090.98
384.51	1939.43
384.72	1877.99
384.93	1837.03
385.14	2037.73
385.35	2047.97
385.55	1882.08
385.76	2043.87
385.97	1980.39
386.18	1853.41
386.39	1978.34
386.60	1998.82
386.81	1968.10
387.02	1886.18
387.22	1888.23
387.43	2170.85
387.64	2084.83
387.85	2160.61
388.06	2162.66
388.27	4026.31
388.48	8656.76
388.68	12209.99
388.89	14659.36
389.10	15568.66
389.31	14309.16
389.52	11239.25
389.73	9635.69
389.93	8832.89
390.14	7987.08
390.35	7356.30
390.56	6469.53
390.77	5308.34
390.98	4157.38
391.18	3223.50
391.39	2508.76
391.60	2154.46
391.81	2127.84
392.02	1904.61
392.23	2211.81
392.43	1982.43
392.64	2107.36
392.85	1896.42
393.06	2142.18
393.27	1972.19
393.47	1886.18
393.68	1959.91
393.89	1898.47
394.10	2095.07
394.31	1896.42
394.52	1912.80
394.72	1902.56
394.93	2117.60
395.14	1873.89
395.35	1978.34
395.56	1941.47
395.76	1994.72
395.97	1970.15
396.18	2195.42
396.39	2103.26
396.60	2424.80
396.80	2260.96
397.01	2166.75
397.22	2164.70
397.43	2150.37
397.64	1947.62
397.84	2019.30
398.05	2146.27
398.26	2054.11
398.47	2099.17
398.67	2111.46
398.88	2009.06
399.09	2123.74
399.30	1955.81
399.51	2013.15
399.71	1925.09
399.92	1910.75
400.13	1937.38
400.34	1964.00
400.54	1937.38
400.75	2117.60
400.96	2007.01
401.17	2047.97
401.37	2029.54
401.58	1920.99
401.79	1949.67
402.00	2080.74
402.21	2236.38
402.41	2289.63
402.62	2441.18
402.83	2410.46
403.04	2482.14
403.24	2504.67
403.45	2101.22
403.66	2265.05
403.87	2189.28
404.07	2236.38
404.28	2215.90
404.49	2162.66
404.70	2050.02
404.90	2068.45
405.11	2004.96
405.32	2041.82
405.52	1886.18
405.73	1886.18
405.94	1929.19
406.15	1986.53
406.35	2060.26
406.56	2019.30
406.77	1988.58
406.98	1968.10
407.18	1996.77
407.39	2078.69
407.60	1888.23
407.80	1988.58
408.01	1910.75
408.22	1953.76
408.43	1906.66
408.63	2037.73
408.84	2052.06
409.05	2123.74
409.25	1873.89
409.46	1865.70
409.67	1898.47
409.88	1923.04
410.08	2031.58
410.29	1923.04
410.50	1953.76
410.70	2066.40
410.91	1851.36
411.12	1953.76
411.32	1953.76
411.53	1964.00
411.74	2136.03
411.95	2017.25
412.15	1986.53
412.36	2056.16
412.57	2060.26
412.77	2097.12
412.98	2025.44
413.19	1912.80
413.39	2054.11
413.60	1986.53
413.81	2109.41
414.01	1875.94
414.22	2023.39
414.43	2002.91
414.63	1974.24
414.84	2045.92
415.05	2013.15
415.25	1904.61
415.46	1929.19
415.67	2000.87
415.87	2035.68
416.08	1943.52
416.29	1877.99
416.49	2031.58
416.70	1964.00
416.91	1912.80
417.11	1966.05
417.32	2076.64
417.53	2013.15
417.73	1990.63
417.94	1945.57
418.15	2033.63
418.35	1931.23
418.56	1959.91
418.77	2068.45
418.97	1968.10
419.18	2043.87
419.38	1824.74
419.59	1935.33
419.80	2105.31
420.00	1845.22
420.21	1970.15
420.42	2117.60
420.62	1982.43
420.83	1871.84
421.04	1947.62
421.24	1894.37
421.45	1996.77
421.65	2011.11
421.86	1933.28
422.07	2086.88
422.27	1998.82
422.48	1964.00
422.69	1920.99
422.89	1982.43
423.10	1957.86
423.30	1871.84
423.51	2052.06
423.72	1974.24
423.92	1988.58
424.13	1900.52
424.33	2015.20
424.54	1970.15
424.75	1957.86
424.95	2074.59
425.16	1904.61
425.36	1937.38
425.57	2013.15
425.78	2047.97
425.98	1998.82
426.19	2021.35
426.39	1808.36
426.60	1992.67
426.81	2074.59
427.01	1994.72
427.22	1906.66
427.42	1890.28
427.63	1957.86
427.83	2029.54
428.04	2070.50
428.25	1974.24
428.45	2115.55
428.66	1984.48
428.86	1910.75
429.07	1994.72
429.28	1873.89
429.48	1943.52
429.69	1849.32
429.89	1966.05
430.10	1914.85
430.30	2004.96
430.51	2002.91
430.71	1931.23
430.92	2017.25
431.13	1908.71
431.33	2013.15
431.54	1959.91
431.74	2103.26
431.95	2156.51
432.15	1957.86
432.36	1966.05
432.56	2021.35
432.77	2064.35
432.98	2088.93
433.18	1976.29
433.39	1978.34
433.59	1953.76
433.80	2050.02
434.00	2140.13
434.21	1920.99
434.41	1937.38
434.62	2095.07
434.82	1855.46
435.03	1937.38
435.23	2043.87
435.44	1849.32
435.64	1937.38
435.85	1980.39
436.06	2041.82
436.26	2074.59
436.47	1974.24
436.67	1925.09
436.88	1935.33
437.08	2000.87
437.29	2082.78
437.49	2050.02
437.70	2068.45
437.90	1972.19
438.11	2172.89
438.31	1982.43
438.52	2136.03
438.72	2181.09
438.93	2273.25
439.13	2054.11
439.34	2150.37
439.54	2093.02
439.75	2148.32
439.95	2002.91
440.16	2019.30
440.36	1988.58
440.57	1984.48
440.77	2129.89
440.98	1966.05
441.18	1992.67
441.39	1968.10
441.59	1918.95
441.80	2160.61
442.00	1996.77
442.21	2066.40
442.41	1890.28
442.62	2015.20
442.82	1994.72
443.02	1918.95
443.23	2043.87
443.43	2054.11
443.64	2209.76
443.84	1882.08
444.05	2090.98
444.25	2070.50
444.46	1923.04
444.66	2002.91
444.87	2062.30
445.07	1904.61
445.28	1966.05
445.48	2029.54
445.69	1984.48
445.89	2168.80
446.09	1990.63
446.30	2293.72
446.50	2525.15
446.71	4192.19
446.91	5318.57
447.12	6297.50
447.32	6619.04
447.53	6070.18
447.73	4937.65
447.93	4341.69
448.14	3911.62
448.34	3850.18
448.55	3448.78
448.75	3456.97
448.96	3030.99
449.16	2897.88
449.36	2570.20
449.57	2351.07
449.77	2125.79
449.98	2056.16
450.18	2119.65
450.39	2056.16
450.59	2086.88
450.79	2056.16
451.00	1929.19
451.20	2125.79
451.41	1986.53
451.61	1904.61
451.81	2007.01
452.02	1947.62
452.22	1916.90
452.43	1980.39
452.63	1945.57
