SpectraSuite Data File
++++++++++++++++++++++++++++++++++++
Date: Wed May 04 22:46:02 CEST 2016
User: root
Dark Spectrum Present: No
Reference Spectrum Present: No
Number of Sampled Component Spectra: 1
Spectrometers: USB4C02835
Integration Time (usec): 100000 (USB4C02835)
Spectra Averaged: 1 (USB4C02835)
Boxcar Smoothing: 0 (USB4C02835)
Correct for Electrical Dark: No (USB4C02835)
Strobe/Lamp Enabled: No (USB4C02835)
Correct for Detector Non-linearity: No (USB4C02835)
Correct for Stray Light: No (USB4C02835)
Number of Pixels in Processed Spectrum: 3648
>>>>>Begin Processed Spectral Data<<<<<
177.47	1599.46
177.69	1599.46
177.91	1599.46
178.13	1613.80
178.36	1574.89
178.58	1851.36
178.80	1992.67
179.02	1896.42
179.24	1859.56
179.46	1890.28
179.68	2050.02
179.90	1916.90
180.13	1877.99
180.35	1941.47
180.57	1918.95
180.79	2002.91
181.01	1863.65
181.23	2041.82
181.45	2033.63
181.67	2009.06
181.90	2015.20
182.12	1902.56
182.34	1839.08
182.56	2058.21
182.78	1941.47
183.00	1957.86
183.22	2025.44
183.44	1791.97
183.66	2226.14
183.89	2029.54
184.11	1927.14
184.33	1914.85
184.55	2037.73
184.77	1998.82
184.99	1908.71
185.21	1914.85
185.43	2101.22
185.65	1961.95
185.87	1916.90
186.10	2109.41
186.32	2152.42
186.54	2019.30
186.76	1925.09
186.98	2113.50
187.20	1972.19
187.42	1906.66
187.64	1957.86
187.86	1990.63
188.08	2035.68
188.30	1920.99
188.52	1957.86
188.75	2062.30
188.97	2109.41
189.19	1882.08
189.41	1951.71
189.63	2023.39
189.85	1918.95
190.07	1894.37
190.29	1777.64
190.51	1980.39
190.73	1865.70
190.95	2000.87
191.17	1968.10
191.39	1882.08
191.61	1980.39
191.84	1853.41
192.06	2004.96
192.28	1777.64
192.50	2250.72
192.72	2031.58
192.94	1988.58
193.16	1898.47
193.38	1894.37
193.60	1867.75
193.82	1964.00
194.04	2025.44
194.26	1968.10
194.48	1906.66
194.70	1933.28
194.92	1972.19
195.14	1955.81
195.36	1875.94
195.58	1957.86
195.80	1892.32
196.02	1943.52
196.24	1933.28
196.46	2017.25
196.69	1857.51
196.91	2185.18
197.13	1849.32
197.35	1964.00
197.57	2031.58
197.79	1961.95
198.01	1949.67
198.23	2013.15
198.45	1980.39
198.67	1875.94
198.89	1945.57
199.11	1982.43
199.33	1896.42
199.55	1822.69
199.77	1904.61
199.99	2002.91
200.21	1939.43
200.43	1892.32
200.65	1877.99
200.87	1834.98
201.09	1935.33
201.31	1982.43
201.53	1908.71
201.75	1972.19
201.97	1990.63
202.19	1927.14
202.41	1976.29
202.63	2109.41
202.85	1990.63
203.07	1970.15
203.29	1892.32
203.51	1943.52
203.73	1834.98
203.95	2150.37
204.17	2009.06
204.39	1982.43
204.61	1947.62
204.83	1992.67
205.05	1976.29
205.27	2002.91
205.49	2127.84
205.71	1904.61
205.93	1859.56
206.15	1880.04
206.37	1972.19
206.59	1900.52
206.81	1867.75
207.03	1869.80
207.25	1933.28
207.47	1986.53
207.69	1906.66
207.91	1968.10
208.13	2037.73
208.34	1945.57
208.56	1847.27
208.78	1916.90
209.00	1912.80
209.22	1863.65
209.44	1890.28
209.66	1910.75
209.88	1863.65
210.10	1916.90
210.32	1972.19
210.54	2023.39
210.76	1912.80
210.98	2064.35
211.20	1724.39
211.42	1949.67
211.64	1990.63
211.86	1925.09
212.08	1937.38
212.30	1994.72
212.52	1955.81
212.74	2019.30
212.96	1910.75
213.17	1902.56
213.39	1988.58
213.61	2123.74
213.83	1947.62
214.05	1920.99
214.27	2031.58
214.49	1839.08
214.71	1902.56
214.93	2045.92
215.15	1974.24
215.37	2009.06
215.59	1837.03
215.81	1984.48
216.03	1976.29
216.24	2002.91
216.46	1916.90
216.68	1947.62
216.90	2041.82
217.12	2045.92
217.34	1951.71
217.56	2021.35
217.78	2084.83
218.00	2000.87
218.22	1916.90
218.44	1949.67
218.66	2000.87
218.87	2064.35
219.09	1916.90
219.31	2025.44
219.53	1982.43
219.75	1908.71
219.97	1964.00
220.19	1988.58
220.41	2013.15
220.63	2086.88
220.85	1908.71
221.06	1871.84
221.28	2019.30
221.50	2031.58
221.72	1925.09
221.94	1898.47
222.16	2039.78
222.38	2015.20
222.60	2011.11
222.82	1920.99
223.03	1990.63
223.25	1877.99
223.47	2004.96
223.69	2033.63
223.91	1986.53
224.13	1978.34
224.35	1947.62
224.57	2072.54
224.78	1998.82
225.00	1834.98
225.22	1978.34
225.44	2021.35
225.66	1972.19
225.88	1945.57
226.10	1964.00
226.32	1935.33
226.53	2125.79
226.75	1902.56
226.97	1955.81
227.19	2023.39
227.41	1939.43
227.63	1865.70
227.85	1865.70
228.06	2000.87
228.28	1974.24
228.50	2103.26
228.72	1851.36
228.94	1904.61
229.16	1841.12
229.37	1884.13
229.59	1867.75
229.81	2000.87
230.03	1953.76
230.25	1925.09
230.47	1949.67
230.69	1804.26
230.90	2019.30
231.12	1968.10
231.34	1935.33
231.56	1982.43
231.78	1841.12
232.00	1943.52
232.21	1933.28
232.43	1912.80
232.65	1808.36
232.87	2033.63
233.09	1832.93
233.30	1898.47
233.52	2021.35
233.74	1953.76
233.96	1949.67
234.18	1947.62
234.40	1972.19
234.61	2158.56
234.83	1800.16
235.05	1888.23
235.27	2133.98
235.49	2017.25
235.70	1882.08
235.92	2080.74
236.14	2033.63
236.36	2052.06
236.58	1865.70
236.79	2007.01
237.01	1937.38
237.23	1886.18
237.45	2090.98
237.67	1861.60
237.88	1986.53
238.10	2060.26
238.32	1841.12
238.54	1931.23
238.76	1900.52
238.97	1843.17
239.19	1859.56
239.41	1984.48
239.63	2047.97
239.85	1959.91
240.06	1927.14
240.28	1894.37
240.50	2064.35
240.72	1947.62
240.93	1912.80
241.15	1949.67
241.37	1951.71
241.59	2004.96
241.81	1894.37
242.02	1947.62
242.24	2009.06
242.46	1978.34
242.68	1824.74
242.89	2072.54
243.11	1951.71
243.33	1923.04
243.55	1937.38
243.76	2023.39
243.98	1939.43
244.20	2017.25
244.42	1877.99
244.64	1902.56
244.85	1869.80
245.07	1871.84
245.29	2017.25
245.51	1920.99
245.72	1988.58
245.94	2031.58
246.16	1961.95
246.38	2037.73
246.59	1834.98
246.81	1845.22
247.03	1984.48
247.24	1826.79
247.46	1880.04
247.68	1996.77
247.90	1877.99
248.11	1966.05
248.33	1964.00
248.55	1982.43
248.77	1978.34
248.98	2074.59
249.20	2074.59
249.42	1943.52
249.64	2033.63
249.85	1910.75
250.07	1920.99
250.29	2072.54
250.50	1978.34
250.72	1855.46
250.94	2060.26
251.16	2072.54
251.37	1933.28
251.59	1927.14
251.81	1980.39
252.02	2029.54
252.24	1929.19
252.46	2076.64
252.68	1902.56
252.89	1955.81
253.11	1906.66
253.33	2035.68
253.54	2045.92
253.76	1830.88
253.98	1996.77
254.20	1949.67
254.41	1787.88
254.63	1918.95
254.85	1865.70
255.06	1902.56
255.28	2015.20
255.50	1914.85
255.71	1910.75
255.93	1861.60
256.15	1914.85
256.36	1966.05
256.58	1884.13
256.80	1980.39
257.02	1992.67
257.23	1845.22
257.45	1925.09
257.67	1951.71
257.88	1906.66
258.10	1939.43
258.32	1990.63
258.53	1931.23
258.75	2086.88
258.97	1853.41
259.18	1908.71
259.40	1923.04
259.62	2125.79
259.83	2021.35
260.05	2015.20
260.27	2246.62
260.48	2019.30
260.70	1847.27
260.92	1910.75
261.13	1951.71
261.35	1955.81
261.57	1953.76
261.78	1802.21
262.00	1888.23
262.22	2021.35
262.43	1910.75
262.65	1894.37
262.86	1896.42
263.08	2189.28
263.30	1978.34
263.51	1822.69
263.73	1939.43
263.95	2095.07
264.16	1853.41
264.38	1841.12
264.60	1916.90
264.81	1935.33
265.03	1988.58
265.25	2033.63
265.46	1857.51
265.68	1992.67
265.89	1943.52
266.11	1837.03
266.33	1984.48
266.54	2037.73
266.76	2033.63
266.98	1998.82
267.19	2062.30
267.41	2033.63
267.62	1959.91
267.84	1906.66
268.06	1992.67
268.27	1982.43
268.49	2066.40
268.70	2017.25
268.92	1941.47
269.14	1904.61
269.35	1845.22
269.57	1945.57
269.79	1998.82
270.00	1949.67
270.22	2060.26
270.43	1863.65
270.65	1783.78
270.87	1976.29
271.08	2007.01
271.30	2023.39
271.51	1912.80
271.73	1953.76
271.95	2117.60
272.16	1916.90
272.38	1986.53
272.59	1955.81
272.81	1964.00
273.02	1939.43
273.24	1968.10
273.46	2076.64
273.67	1888.23
273.89	1877.99
274.10	1964.00
274.32	2148.32
274.54	1894.37
274.75	2015.20
274.97	1970.15
275.18	1951.71
275.40	1892.32
275.61	1978.34
275.83	2031.58
276.05	1890.28
276.26	1931.23
276.48	1957.86
276.69	1888.23
276.91	1877.99
277.12	2041.82
277.34	1972.19
277.55	2011.11
277.77	1982.43
277.99	1916.90
278.20	1900.52
278.42	1894.37
278.63	1822.69
278.85	1837.03
279.06	1810.40
279.28	1976.29
279.49	1996.77
279.71	1902.56
279.93	1986.53
280.14	1920.99
280.36	1851.36
280.57	2021.35
280.79	2023.39
281.00	1851.36
281.22	1986.53
281.43	2031.58
281.65	1857.51
281.86	1839.08
282.08	2015.20
282.29	2172.89
282.51	1843.17
282.73	1943.52
282.94	1810.40
283.16	2015.20
283.37	2060.26
283.59	2000.87
283.80	2009.06
284.02	1865.70
284.23	2017.25
284.45	1882.08
284.66	1957.86
284.88	1943.52
285.09	1966.05
285.31	1998.82
285.52	1961.95
285.74	1851.36
285.95	2017.25
286.17	1945.57
286.38	2015.20
286.60	1867.75
286.81	1974.24
287.03	1961.95
287.24	1976.29
287.46	1994.72
287.67	2004.96
287.89	2125.79
288.10	1886.18
288.32	2050.02
288.53	2062.30
288.75	1959.91
288.96	1978.34
289.18	1931.23
289.39	1918.95
289.61	2009.06
289.82	2162.66
290.04	2086.88
290.25	1865.70
290.47	1996.77
290.68	2021.35
290.90	2041.82
291.11	1824.74
291.33	1976.29
291.54	1837.03
291.76	1877.99
291.97	1978.34
292.18	1933.28
292.40	1906.66
292.61	1920.99
292.83	2140.13
293.04	2052.06
293.26	1984.48
293.47	1990.63
293.69	1957.86
293.90	1935.33
294.12	2111.46
294.33	2017.25
294.55	1949.67
294.76	1966.05
294.97	2064.35
295.19	2095.07
295.40	1964.00
295.62	1998.82
295.83	2019.30
296.05	1871.84
296.26	2019.30
296.48	1992.67
296.69	1890.28
296.90	1884.13
297.12	2021.35
297.33	2080.74
297.55	2021.35
297.76	1951.71
297.98	2088.93
298.19	1990.63
298.41	1984.48
298.62	1890.28
298.83	2029.54
299.05	1961.95
299.26	1900.52
299.48	1882.08
299.69	2017.25
299.90	1996.77
300.12	1914.85
300.33	2015.20
300.55	1959.91
300.76	1982.43
300.98	1896.42
301.19	2019.30
301.40	2015.20
301.62	1961.95
301.83	2060.26
302.05	1877.99
302.26	2007.01
302.47	1980.39
302.69	1871.84
302.90	1949.67
303.12	1769.44
303.33	1984.48
303.54	2113.50
303.76	1929.19
303.97	2015.20
304.19	2031.58
304.40	1906.66
304.61	1992.67
304.83	2158.56
305.04	1992.67
305.26	2090.98
305.47	1982.43
305.68	1974.24
305.90	1871.84
306.11	2058.21
306.33	1994.72
306.54	1880.04
306.75	1873.89
306.97	1849.32
307.18	1972.19
307.39	1869.80
307.61	2019.30
307.82	1869.80
308.04	1980.39
308.25	1914.85
308.46	2002.91
308.68	1970.15
308.89	1978.34
309.10	2007.01
309.32	1931.23
309.53	1914.85
309.74	1955.81
309.96	1898.47
310.17	1994.72
310.39	1912.80
310.60	2007.01
310.81	1927.14
311.03	1968.10
311.24	1998.82
311.45	1984.48
311.67	2041.82
311.88	1968.10
312.09	1859.56
312.31	1968.10
312.52	1910.75
312.73	1951.71
312.95	1875.94
313.16	1912.80
313.37	1978.34
313.59	2027.49
313.80	1986.53
314.01	1976.29
314.23	1957.86
314.44	1863.65
314.65	1943.52
314.87	1851.36
315.08	1877.99
315.29	1894.37
315.51	1947.62
315.72	1867.75
315.93	2099.17
316.15	1998.82
316.36	1910.75
316.57	1904.61
316.79	1978.34
317.00	1912.80
317.21	2050.02
317.43	1947.62
317.64	1957.86
317.85	1820.64
318.07	1937.38
318.28	1931.23
318.49	2131.94
318.70	2303.96
318.92	2185.18
319.13	2230.24
319.34	2148.32
319.56	2070.50
319.77	2070.50
319.98	2166.75
320.20	2082.78
320.41	2025.44
320.62	2021.35
320.83	1894.37
321.05	2109.41
321.26	1961.95
321.47	1900.52
321.69	2033.63
321.90	1908.71
322.11	1916.90
322.32	2029.54
322.54	2039.78
322.75	1920.99
322.96	2097.12
323.18	1769.44
323.39	1820.64
323.60	1880.04
323.81	1994.72
324.03	1865.70
324.24	1990.63
324.45	1945.57
324.66	1861.60
324.88	1961.95
325.09	2066.40
325.30	1933.28
325.52	1957.86
325.73	1996.77
325.94	1882.08
326.15	1892.32
326.37	1828.84
326.58	2015.20
326.79	2078.69
327.00	1906.66
327.22	1984.48
327.43	1955.81
327.64	1886.18
327.85	1964.00
328.07	1939.43
328.28	2068.45
328.49	1896.42
328.70	1939.43
328.92	1812.45
329.13	1933.28
329.34	2060.26
329.55	2064.35
329.76	1978.34
329.98	1853.41
330.19	2084.83
330.40	1931.23
330.61	1861.60
330.83	1992.67
331.04	1976.29
331.25	1992.67
331.46	1925.09
331.68	1964.00
331.89	2039.78
332.10	1996.77
332.31	1875.94
332.52	1943.52
332.74	2095.07
332.95	1923.04
333.16	1906.66
333.37	2068.45
333.58	1980.39
333.80	1959.91
334.01	1902.56
334.22	1890.28
334.43	1931.23
334.64	1857.51
334.86	1834.98
335.07	1898.47
335.28	2070.50
335.49	1871.84
335.70	2050.02
335.92	2058.21
336.13	2078.69
336.34	2054.11
336.55	1970.15
336.76	1945.57
336.98	1753.06
337.19	1957.86
337.40	2066.40
337.61	2117.60
337.82	1951.71
338.04	1970.15
338.25	1888.23
338.46	1970.15
338.67	1947.62
338.88	1929.19
339.09	1859.56
339.31	1933.28
339.52	1955.81
339.73	1900.52
339.94	1943.52
340.15	2082.78
340.36	1923.04
340.58	1933.28
340.79	1888.23
341.00	1953.76
341.21	1953.76
341.42	2052.06
341.63	1898.47
341.85	2062.30
342.06	1982.43
342.27	1923.04
342.48	2054.11
342.69	1861.60
342.90	1978.34
343.12	2015.20
343.33	1929.19
343.54	1970.15
343.75	2086.88
343.96	1912.80
344.17	1951.71
344.38	1906.66
344.60	1931.23
344.81	1931.23
345.02	1951.71
345.23	1966.05
345.44	2111.46
345.65	1941.47
345.86	1916.90
346.07	2029.54
346.29	1982.43
346.50	1992.67
346.71	2004.96
346.92	2045.92
347.13	2146.27
347.34	1949.67
347.55	1894.37
347.76	2056.16
347.98	1871.84
348.19	1947.62
348.40	2070.50
348.61	1937.38
348.82	2084.83
349.03	1990.63
349.24	1837.03
349.45	2131.94
349.66	1806.31
349.88	1886.18
350.09	1910.75
350.30	2025.44
350.51	2095.07
350.72	1918.95
350.93	1972.19
351.14	1974.24
351.35	1947.62
351.56	1957.86
351.77	1902.56
351.99	2052.06
352.20	2082.78
352.41	2007.01
352.62	1777.64
352.83	1892.32
353.04	2015.20
353.25	1941.47
353.46	1953.76
353.67	2039.78
353.88	1759.21
354.09	1925.09
354.30	1994.72
354.52	1957.86
354.73	1951.71
354.94	1949.67
355.15	2031.58
355.36	2097.12
355.57	1935.33
355.78	1931.23
355.99	1931.23
356.20	1974.24
356.41	2041.82
356.62	1925.09
356.83	2013.15
357.04	2052.06
357.25	1886.18
357.46	1925.09
357.68	1851.36
357.89	1861.60
358.10	1916.90
358.31	1984.48
358.52	1920.99
358.73	1951.71
358.94	1826.79
359.15	1882.08
359.36	1943.52
359.57	1949.67
359.78	1970.15
359.99	1945.57
360.20	1933.28
360.41	1857.51
360.62	1968.10
360.83	1988.58
361.04	1980.39
361.25	1996.77
361.46	2138.08
361.67	1935.33
361.88	2000.87
362.09	1992.67
362.30	2013.15
362.51	1927.14
362.72	1904.61
362.93	2050.02
363.14	2004.96
363.35	1972.19
363.56	1939.43
363.78	2074.59
363.99	1949.67
364.20	1871.84
364.41	2019.30
364.62	2064.35
364.83	1941.47
365.04	1933.28
365.25	1959.91
365.46	2103.26
365.67	1847.27
365.88	1918.95
366.09	1937.38
366.30	1945.57
366.51	2041.82
366.72	1824.74
366.93	1947.62
367.14	1951.71
367.35	2127.84
367.56	1898.47
367.77	2035.68
367.98	1988.58
368.18	2007.01
368.39	1964.00
368.60	1888.23
368.81	1955.81
369.02	1961.95
369.23	1939.43
369.44	1828.84
369.65	1933.28
369.86	2037.73
370.07	1976.29
370.28	1904.61
370.49	1957.86
370.70	1998.82
370.91	1863.65
371.12	1875.94
371.33	2107.36
371.54	1892.32
371.75	2066.40
371.96	1779.68
372.17	1949.67
372.38	1894.37
372.59	1982.43
372.80	1886.18
373.01	1925.09
373.22	1941.47
373.43	1976.29
373.64	1832.93
373.85	2031.58
374.06	2035.68
374.26	2045.92
374.47	2017.25
374.68	2013.15
374.89	1966.05
375.10	1908.71
375.31	1986.53
375.52	1925.09
375.73	1904.61
375.94	1886.18
376.15	2076.64
376.36	1898.47
376.57	1951.71
376.78	1912.80
376.99	1937.38
377.20	2068.45
377.40	1900.52
377.61	2066.40
377.82	1871.84
378.03	2062.30
378.24	2019.30
378.45	1941.47
378.66	1970.15
378.87	1849.32
379.08	1834.98
379.29	1986.53
379.50	1982.43
379.71	1931.23
379.91	2023.39
380.12	1974.24
380.33	2011.11
380.54	1869.80
380.75	1955.81
380.96	1898.47
381.17	2066.40
381.38	1976.29
381.59	2002.91
381.80	2000.87
382.00	2072.54
382.21	2039.78
382.42	2117.60
382.63	2220.00
382.84	2039.78
383.05	2105.31
383.26	2072.54
383.47	1939.43
383.68	2050.02
383.88	2095.07
384.09	1916.90
384.30	2111.46
384.51	1939.43
384.72	1857.51
384.93	1906.66
385.14	1935.33
385.35	2007.01
385.55	1880.04
385.76	2076.64
385.97	1949.67
386.18	1828.84
386.39	1880.04
386.60	1920.99
386.81	2023.39
387.02	1845.22
387.22	1902.56
387.43	1996.77
387.64	2047.97
387.85	2058.21
388.06	2293.72
388.27	3909.57
388.48	8396.67
388.68	11829.07
388.89	14114.60
389.10	15339.29
389.31	13756.21
389.52	11011.93
389.73	9482.10
389.93	8671.10
390.14	7999.37
390.35	7110.55
390.56	6432.67
390.77	5318.57
390.98	4112.32
391.18	3082.19
391.39	2545.63
391.60	2140.13
391.81	2127.84
392.02	1945.57
392.23	2136.03
392.43	1980.39
392.64	2127.84
392.85	1976.29
393.06	2158.56
393.27	1908.71
393.47	1949.67
393.68	1980.39
393.89	1916.90
394.10	2033.63
394.31	1880.04
394.52	1918.95
394.72	1769.44
394.93	2131.94
395.14	1859.56
395.35	2033.63
395.56	1957.86
395.76	1927.14
395.97	2015.20
396.18	2045.92
396.39	2103.26
396.60	2398.17
396.80	2236.38
397.01	2187.23
397.22	2144.22
397.43	2136.03
397.64	1976.29
397.84	2084.83
398.05	2138.08
398.26	1998.82
398.47	2074.59
398.67	2041.82
398.88	2029.54
399.09	2007.01
399.30	1961.95
399.51	2072.54
399.71	1880.04
399.92	1931.23
400.13	1990.63
400.34	1882.08
400.54	1914.85
400.75	2062.30
400.96	2027.49
401.17	2082.78
401.37	2031.58
401.58	2027.49
401.79	1916.90
402.00	2052.06
402.21	2381.79
402.41	2187.23
402.62	2254.81
402.83	2447.32
403.04	2451.42
403.24	2508.76
403.45	2086.88
403.66	2191.33
403.87	2099.17
404.07	2150.37
404.28	2226.14
404.49	2238.43
404.70	2103.26
404.90	1920.99
405.11	1998.82
405.32	2007.01
405.52	1892.32
405.73	1898.47
405.94	1886.18
406.15	1974.24
406.35	2007.01
406.56	2031.58
406.77	2019.30
406.98	1976.29
407.18	1888.23
407.39	1982.43
407.60	1933.28
407.80	1968.10
408.01	1904.61
408.22	1992.67
408.43	1986.53
408.63	1951.71
408.84	2021.35
409.05	2052.06
409.25	1955.81
409.46	1892.32
409.67	1974.24
409.88	1853.41
410.08	1994.72
410.29	1890.28
410.50	2062.30
410.70	1976.29
410.91	1888.23
411.12	2002.91
411.32	1992.67
411.53	1957.86
411.74	2119.65
411.95	2033.63
412.15	2072.54
412.36	2107.36
412.57	2127.84
412.77	2060.26
412.98	1970.15
413.19	1961.95
413.39	1972.19
413.60	1931.23
413.81	2009.06
414.01	1947.62
414.22	2090.98
414.43	2090.98
414.63	1943.52
414.84	2007.01
415.05	1970.15
415.25	1877.99
415.46	1998.82
415.67	1943.52
415.87	2002.91
416.08	1970.15
416.29	1914.85
416.49	2052.06
416.70	1933.28
416.91	1945.57
417.11	1966.05
417.32	2013.15
417.53	1988.58
417.73	2025.44
417.94	1947.62
418.15	1978.34
418.35	2054.11
418.56	2009.06
418.77	2172.89
418.97	1916.90
419.18	2025.44
419.38	1796.07
419.59	1982.43
419.80	2095.07
420.00	1941.47
420.21	1984.48
420.42	2025.44
420.62	1966.05
420.83	1943.52
421.04	1923.04
421.24	1947.62
421.45	2043.87
421.65	1980.39
421.86	1943.52
422.07	2052.06
422.27	2007.01
422.48	1918.95
422.69	1875.94
422.89	2023.39
423.10	1947.62
423.30	1916.90
423.51	1959.91
423.72	1947.62
423.92	1980.39
424.13	1884.13
424.33	2064.35
424.54	2039.78
424.75	2002.91
424.95	2125.79
425.16	1961.95
425.36	1892.32
425.57	2054.11
425.78	2004.96
425.98	1972.19
426.19	2002.91
426.39	1906.66
426.60	1961.95
426.81	2140.13
427.01	1961.95
427.22	1877.99
427.42	1806.31
427.63	1904.61
427.83	2023.39
428.04	2064.35
428.25	2140.13
428.45	2054.11
428.66	1949.67
428.86	1937.38
429.07	1957.86
429.28	1970.15
429.48	1908.71
429.69	1841.12
429.89	2002.91
430.10	1892.32
430.30	1988.58
430.51	2109.41
430.71	1949.67
430.92	1939.43
431.13	1968.10
431.33	2039.78
431.54	1964.00
431.74	2078.69
431.95	2136.03
432.15	1882.08
432.36	1974.24
432.56	2074.59
432.77	2152.42
432.98	2111.46
433.18	1949.67
433.39	1994.72
433.59	1976.29
433.80	2144.22
434.00	2117.60
434.21	1937.38
434.41	1841.12
434.62	2064.35
434.82	1900.52
435.03	1861.60
435.23	1982.43
435.44	1824.74
435.64	1988.58
435.85	1955.81
436.06	2037.73
436.26	2047.97
436.47	1916.90
436.67	1918.95
436.88	1882.08
437.08	2033.63
437.29	2039.78
437.49	1986.53
437.70	2023.39
437.90	1912.80
438.11	2105.31
438.31	2154.46
438.52	2148.32
438.72	2148.32
438.93	2254.81
439.13	2070.50
439.34	2140.13
439.54	1996.77
439.75	2072.54
439.95	2027.49
440.16	1980.39
440.36	2007.01
440.57	2060.26
440.77	1988.58
440.98	2007.01
441.18	2025.44
441.39	1871.84
441.59	1904.61
441.80	2144.22
442.00	1974.24
442.21	2052.06
442.41	1865.70
442.62	2009.06
442.82	1935.33
443.02	1996.77
443.23	1947.62
443.43	1943.52
443.64	2068.45
443.84	1927.14
444.05	2076.64
444.25	2029.54
444.46	1976.29
444.66	2033.63
444.87	2072.54
445.07	1861.60
445.28	2013.15
445.48	2062.30
445.69	2062.30
445.89	2166.75
446.09	1996.77
446.30	2248.67
446.50	2678.74
446.71	4106.18
446.91	5214.13
447.12	6191.01
447.32	6506.40
447.53	5965.73
447.73	4888.50
447.93	4243.39
448.14	3973.06
448.34	3807.17
448.55	3442.64
448.75	3424.20
448.96	3207.12
449.16	2807.77
449.36	2658.26
449.57	2361.31
449.77	2115.55
449.98	1970.15
450.18	2000.87
450.39	2037.73
450.59	2074.59
450.79	1877.99
451.00	1904.61
451.20	1996.77
451.41	1941.47
451.61	2052.06
451.81	1929.19
452.02	2019.30
452.22	1933.28
452.43	1978.34
452.63	1920.99
