SpectraSuite Data File
++++++++++++++++++++++++++++++++++++
Date: Wed May 04 22:45:38 CEST 2016
User: root
Dark Spectrum Present: No
Reference Spectrum Present: No
Number of Sampled Component Spectra: 1
Spectrometers: USB4C02835
Integration Time (usec): 100000 (USB4C02835)
Spectra Averaged: 1 (USB4C02835)
Boxcar Smoothing: 0 (USB4C02835)
Correct for Electrical Dark: No (USB4C02835)
Strobe/Lamp Enabled: No (USB4C02835)
Correct for Detector Non-linearity: No (USB4C02835)
Correct for Stray Light: No (USB4C02835)
Number of Pixels in Processed Spectrum: 3648
>>>>>Begin Processed Spectral Data<<<<<
177.47	1615.85
177.69	1615.85
177.91	1615.85
178.13	1677.29
178.36	1652.71
178.58	1867.75
178.80	1966.05
179.02	1884.13
179.24	1890.28
179.46	1927.14
179.68	1988.58
179.90	1933.28
180.13	2035.68
180.35	1834.98
180.57	1863.65
180.79	1943.52
181.01	1908.71
181.23	2039.78
181.45	2007.01
181.67	1994.72
181.90	2058.21
182.12	1900.52
182.34	1839.08
182.56	1957.86
182.78	1906.66
183.00	1988.58
183.22	1918.95
183.44	1832.93
183.66	2164.70
183.89	1986.53
184.11	1994.72
184.33	1984.48
184.55	2033.63
184.77	1994.72
184.99	1914.85
185.21	2004.96
185.43	2064.35
185.65	1886.18
185.87	1964.00
186.10	2101.22
186.32	2148.32
186.54	2037.73
186.76	1929.19
186.98	1988.58
187.20	1904.61
187.42	1916.90
187.64	1986.53
187.86	1978.34
188.08	2002.91
188.30	1947.62
188.52	1916.90
188.75	2084.83
188.97	2052.06
189.19	1947.62
189.41	1920.99
189.63	2043.87
189.85	1931.23
190.07	1816.55
190.29	1873.89
190.51	1980.39
190.73	1923.04
190.95	2064.35
191.17	1906.66
191.39	1824.74
191.61	1929.19
191.84	1845.22
192.06	1998.82
192.28	1873.89
192.50	2226.14
192.72	1961.95
192.94	1955.81
193.16	2047.97
193.38	1949.67
193.60	1890.28
193.82	1929.19
194.04	2021.35
194.26	1961.95
194.48	1941.47
194.70	1920.99
194.92	1968.10
195.14	2017.25
195.36	1908.71
195.58	1927.14
195.80	2000.87
196.02	1918.95
196.24	1914.85
196.46	2027.49
196.69	1873.89
196.91	2125.79
197.13	1939.43
197.35	1925.09
197.57	2107.36
197.79	1923.04
198.01	1966.05
198.23	2047.97
198.45	2070.50
198.67	1943.52
198.89	1980.39
199.11	2015.20
199.33	1920.99
199.55	1818.60
199.77	1945.57
199.99	2095.07
200.21	2009.06
200.43	1951.71
200.65	1869.80
200.87	1812.45
201.09	1933.28
201.31	1994.72
201.53	1970.15
201.75	1935.33
201.97	1988.58
202.19	1978.34
202.41	2029.54
202.63	2045.92
202.85	1980.39
203.07	1992.67
203.29	1941.47
203.51	1816.55
203.73	1961.95
203.95	2166.75
204.17	1896.42
204.39	1920.99
204.61	1998.82
204.83	1951.71
205.05	2000.87
205.27	1990.63
205.49	2176.99
205.71	1920.99
205.93	1830.88
206.15	1890.28
206.37	1943.52
206.59	1894.37
206.81	1875.94
207.03	1834.98
207.25	1810.40
207.47	1994.72
207.69	2037.73
207.91	1968.10
208.13	2056.16
208.34	1953.76
208.56	1837.03
208.78	1961.95
209.00	1955.81
209.22	1865.70
209.44	1906.66
209.66	1898.47
209.88	1957.86
210.10	1937.38
210.32	1998.82
210.54	2031.58
210.76	1959.91
210.98	1972.19
211.20	1777.64
211.42	1939.43
211.64	2039.78
211.86	2011.11
212.08	1920.99
212.30	1943.52
212.52	1961.95
212.74	1992.67
212.96	1949.67
213.17	1937.38
213.39	1988.58
213.61	2105.31
213.83	1880.04
214.05	1945.57
214.27	2052.06
214.49	1884.13
214.71	1886.18
214.93	2043.87
215.15	1937.38
215.37	2027.49
215.59	1884.13
215.81	2021.35
216.03	2111.46
216.24	1927.14
216.46	1941.47
216.68	1951.71
216.90	1976.29
217.12	2002.91
217.34	1869.80
217.56	1978.34
217.78	2015.20
218.00	2011.11
218.22	1955.81
218.44	1939.43
218.66	1955.81
218.87	2144.22
219.09	1884.13
219.31	1964.00
219.53	1964.00
219.75	1902.56
219.97	1964.00
220.19	2002.91
220.41	1914.85
220.63	2068.45
220.85	1986.53
221.06	1939.43
221.28	2045.92
221.50	1955.81
221.72	1939.43
221.94	1955.81
222.16	1904.61
222.38	2066.40
222.60	1978.34
222.82	1929.19
223.03	2029.54
223.25	1892.32
223.47	1959.91
223.69	2066.40
223.91	1968.10
224.13	1910.75
224.35	1865.70
224.57	2011.11
224.78	1984.48
225.00	1791.97
225.22	1949.67
225.44	1927.14
225.66	2023.39
225.88	1828.84
226.10	2015.20
226.32	1951.71
226.53	2117.60
226.75	1910.75
226.97	1943.52
227.19	1941.47
227.41	1882.08
227.63	2027.49
227.85	1908.71
228.06	1986.53
228.28	2009.06
228.50	2009.06
228.72	1806.31
228.94	1904.61
229.16	1875.94
229.37	1890.28
229.59	1918.95
229.81	2142.18
230.03	1933.28
230.25	1855.46
230.47	1855.46
230.69	1927.14
230.90	2017.25
231.12	1953.76
231.34	1972.19
231.56	2041.82
231.78	1884.13
232.00	2019.30
232.21	1974.24
232.43	1886.18
232.65	1785.83
232.87	1947.62
233.09	1851.36
233.30	1945.57
233.52	2013.15
233.74	2004.96
233.96	1910.75
234.18	1951.71
234.40	1894.37
234.61	2146.27
234.83	1892.32
235.05	1814.50
235.27	2199.52
235.49	2111.46
235.70	1923.04
235.92	2029.54
236.14	1984.48
236.36	2142.18
236.58	1937.38
236.79	1898.47
237.01	1949.67
237.23	1970.15
237.45	2070.50
237.67	1849.32
237.88	1949.67
238.10	2052.06
238.32	1890.28
238.54	1937.38
238.76	1964.00
238.97	1818.60
239.19	1906.66
239.41	2095.07
239.63	2076.64
239.85	1945.57
240.06	1970.15
240.28	1935.33
240.50	2086.88
240.72	1947.62
240.93	2011.11
241.15	1994.72
241.37	1902.56
241.59	2095.07
241.81	1800.16
242.02	1927.14
242.24	2002.91
242.46	2000.87
242.68	1886.18
242.89	1943.52
243.11	2009.06
243.33	1961.95
243.55	2025.44
243.76	1978.34
243.98	1910.75
244.20	1959.91
244.42	1896.42
244.64	1974.24
244.85	1841.12
245.07	1843.17
245.29	2027.49
245.51	1970.15
245.72	1939.43
245.94	1982.43
246.16	1920.99
246.38	1966.05
246.59	1966.05
246.81	1871.84
247.03	1896.42
247.24	1843.17
247.46	2021.35
247.68	1959.91
247.90	1988.58
248.11	1955.81
248.33	1978.34
248.55	1925.09
248.77	1974.24
248.98	2076.64
249.20	2025.44
249.42	1992.67
249.64	1994.72
249.85	1882.08
250.07	1912.80
250.29	1959.91
250.50	2011.11
250.72	1839.08
250.94	1986.53
251.16	2129.89
251.37	2054.11
251.59	1947.62
251.81	1970.15
252.02	2113.50
252.24	1916.90
252.46	2090.98
252.68	1927.14
252.89	1925.09
253.11	1839.08
253.33	2031.58
253.54	2056.16
253.76	2002.91
253.98	1918.95
254.20	1927.14
254.41	1806.31
254.63	1976.29
254.85	1830.88
255.06	2002.91
255.28	1949.67
255.50	1908.71
255.71	1896.42
255.93	1839.08
256.15	1959.91
256.36	2017.25
256.58	1900.52
256.80	2023.39
257.02	1953.76
257.23	1990.63
257.45	1994.72
257.67	2002.91
257.88	1900.52
258.10	1996.77
258.32	1906.66
258.53	1933.28
258.75	2029.54
258.97	1867.75
259.18	1904.61
259.40	1947.62
259.62	2133.98
259.83	2086.88
260.05	1961.95
260.27	2320.35
260.48	1908.71
260.70	1849.32
260.92	1947.62
261.13	1970.15
261.35	1968.10
261.57	2015.20
261.78	1832.93
262.00	1888.23
262.22	1974.24
262.43	1867.75
262.65	1853.41
262.86	1980.39
263.08	2201.57
263.30	1947.62
263.51	1818.60
263.73	1859.56
263.95	2033.63
264.16	1849.32
264.38	1843.17
264.60	1996.77
264.81	1976.29
265.03	1986.53
265.25	1976.29
265.46	1900.52
265.68	2017.25
265.89	2011.11
266.11	1847.27
266.33	2007.01
266.54	2031.58
266.76	1988.58
266.98	2029.54
267.19	2011.11
267.41	1959.91
267.62	1941.47
267.84	1837.03
268.06	1964.00
268.27	2023.39
268.49	2107.36
268.70	2021.35
268.92	1972.19
269.14	1906.66
269.35	1826.79
269.57	2004.96
269.79	2009.06
270.00	1906.66
270.22	2127.84
270.43	1822.69
270.65	1847.27
270.87	2004.96
271.08	2056.16
271.30	1959.91
271.51	1966.05
271.73	2023.39
271.95	2068.45
272.16	1972.19
272.38	2015.20
272.59	1914.85
272.81	1959.91
273.02	1935.33
273.24	1961.95
273.46	2064.35
273.67	1894.37
273.89	1845.22
274.10	1920.99
274.32	2047.97
274.54	1947.62
274.75	1978.34
274.97	1970.15
275.18	2062.30
275.40	2021.35
275.61	1925.09
275.83	1884.13
276.05	1880.04
276.26	2007.01
276.48	2047.97
276.69	1951.71
276.91	1910.75
277.12	2109.41
277.34	2074.59
277.55	1925.09
277.77	1957.86
277.99	1937.38
278.20	1851.36
278.42	1882.08
278.63	1939.43
278.85	1974.24
279.06	1871.84
279.28	1939.43
279.49	1925.09
279.71	1986.53
279.93	1955.81
280.14	1978.34
280.36	1978.34
280.57	2068.45
280.79	2025.44
281.00	1894.37
281.22	1937.38
281.43	2072.54
281.65	1798.12
281.86	1882.08
282.08	2017.25
282.29	2174.94
282.51	1875.94
282.73	1918.95
282.94	1812.45
283.16	1968.10
283.37	2031.58
283.59	1959.91
283.80	2041.82
284.02	1925.09
284.23	1994.72
284.45	1972.19
284.66	1853.41
284.88	1871.84
285.09	2000.87
285.31	1970.15
285.52	1978.34
285.74	1898.47
285.95	1964.00
286.17	1959.91
286.38	2050.02
286.60	1890.28
286.81	1898.47
287.03	1892.32
287.24	1900.52
287.46	2062.30
287.67	1978.34
287.89	2084.83
288.10	1955.81
288.32	1976.29
288.53	1957.86
288.75	1832.93
288.96	2021.35
289.18	1877.99
289.39	1814.50
289.61	2056.16
289.82	2148.32
290.04	2080.74
290.25	1853.41
290.47	1966.05
290.68	1884.13
290.90	2054.11
291.11	1804.26
291.33	1994.72
291.54	1914.85
291.76	1847.27
291.97	1959.91
292.18	1976.29
292.40	1888.23
292.61	1933.28
292.83	2121.70
293.04	1947.62
293.26	1996.77
293.47	1920.99
293.69	1900.52
293.90	1927.14
294.12	2058.21
294.33	1949.67
294.55	1912.80
294.76	1976.29
294.97	2058.21
295.19	2109.41
295.40	2009.06
295.62	1949.67
295.83	2007.01
296.05	1955.81
296.26	2103.26
296.48	1892.32
296.69	1937.38
296.90	1929.19
297.12	1994.72
297.33	2082.78
297.55	1980.39
297.76	2000.87
297.98	2043.87
298.19	2009.06
298.41	1869.80
298.62	1890.28
298.83	1953.76
299.05	1955.81
299.26	1931.23
299.48	1877.99
299.69	1947.62
299.90	1968.10
300.12	1957.86
300.33	1945.57
300.55	1982.43
300.76	2004.96
300.98	1808.36
301.19	1949.67
301.40	1984.48
301.62	1865.70
301.83	2023.39
302.05	2013.15
302.26	1933.28
302.47	2043.87
302.69	1894.37
302.90	2004.96
303.12	1767.40
303.33	1992.67
303.54	2062.30
303.76	1912.80
303.97	2011.11
304.19	2041.82
304.40	1916.90
304.61	1996.77
304.83	2105.31
305.04	2045.92
305.26	2007.01
305.47	1984.48
305.68	1937.38
305.90	1853.41
306.11	2033.63
306.33	1947.62
306.54	1933.28
306.75	1916.90
306.97	1834.98
307.18	1980.39
307.39	1920.99
307.61	1964.00
307.82	1880.04
308.04	1943.52
308.25	1935.33
308.46	1959.91
308.68	1939.43
308.89	1966.05
309.10	2017.25
309.32	1929.19
309.53	1945.57
309.74	1996.77
309.96	1982.43
310.17	2029.54
310.39	1865.70
310.60	2070.50
310.81	1931.23
311.03	1894.37
311.24	2017.25
311.45	2037.73
311.67	2086.88
311.88	1998.82
312.09	1912.80
312.31	1953.76
312.52	1931.23
312.73	1904.61
312.95	1871.84
313.16	1931.23
313.37	2027.49
313.59	1929.19
313.80	2035.68
314.01	2023.39
314.23	1966.05
314.44	1935.33
314.65	1906.66
314.87	1880.04
315.08	1867.75
315.29	1927.14
315.51	1894.37
315.72	1822.69
315.93	2019.30
316.15	2052.06
316.36	1894.37
316.57	1994.72
316.79	2043.87
317.00	1970.15
317.21	2076.64
317.43	1912.80
317.64	1964.00
317.85	1863.65
318.07	1933.28
318.28	1912.80
318.49	2064.35
318.70	2207.71
318.92	2160.61
319.13	2209.76
319.34	2179.04
319.56	2035.68
319.77	2031.58
319.98	2109.41
320.20	2050.02
320.41	2086.88
320.62	1984.48
320.83	1882.08
321.05	2084.83
321.26	2013.15
321.47	2011.11
321.69	2056.16
321.90	1931.23
322.11	1918.95
322.32	1906.66
322.54	2043.87
322.75	1918.95
322.96	2113.50
323.18	1970.15
323.39	1886.18
323.60	1941.47
323.81	2031.58
324.03	1892.32
324.24	1886.18
324.45	1984.48
324.66	1957.86
324.88	2054.11
325.09	2150.37
325.30	1910.75
325.52	2002.91
325.73	2064.35
325.94	1896.42
326.15	1890.28
326.37	1908.71
326.58	1945.57
326.79	2045.92
327.00	1863.65
327.22	1914.85
327.43	1986.53
327.64	1837.03
327.85	2033.63
328.07	1980.39
328.28	2004.96
328.49	1908.71
328.70	1904.61
328.92	1896.42
329.13	1914.85
329.34	1964.00
329.55	2099.17
329.76	2007.01
329.98	1943.52
330.19	2002.91
330.40	2000.87
330.61	1959.91
330.83	2064.35
331.04	1935.33
331.25	1982.43
331.46	1976.29
331.68	1847.27
331.89	2013.15
332.10	1920.99
332.31	1877.99
332.52	1986.53
332.74	2066.40
332.95	1789.92
333.16	1890.28
333.37	1894.37
333.58	1937.38
333.80	1994.72
334.01	1894.37
334.22	1900.52
334.43	1906.66
334.64	1896.42
334.86	1869.80
335.07	1855.46
335.28	2095.07
335.49	1785.83
335.70	2064.35
335.92	2039.78
336.13	2148.32
336.34	1982.43
336.55	1916.90
336.76	1959.91
336.98	1867.75
337.19	1949.67
337.40	1996.77
337.61	2181.09
337.82	1955.81
338.04	1986.53
338.25	1845.22
338.46	1998.82
338.67	1982.43
338.88	1834.98
339.09	1892.32
339.31	1900.52
339.52	1855.46
339.73	1832.93
339.94	1974.24
340.15	2017.25
340.36	1935.33
340.58	1943.52
340.79	1947.62
341.00	1920.99
341.21	1982.43
341.42	2078.69
341.63	1892.32
341.85	2025.44
342.06	2023.39
342.27	1900.52
342.48	1961.95
342.69	1916.90
342.90	2015.20
343.12	2031.58
343.33	1865.70
343.54	2015.20
343.75	2039.78
343.96	1884.13
344.17	1925.09
344.38	1951.71
344.60	1853.41
344.81	1892.32
345.02	1972.19
345.23	2072.54
345.44	2125.79
345.65	2027.49
345.86	1931.23
346.07	1996.77
346.29	1953.76
346.50	1972.19
346.71	2029.54
346.92	2021.35
347.13	2152.42
347.34	1968.10
347.55	1968.10
347.76	1943.52
347.98	1834.98
348.19	2045.92
348.40	2084.83
348.61	1951.71
348.82	2144.22
349.03	2000.87
349.24	1896.42
349.45	2125.79
349.66	1783.78
349.88	1951.71
350.09	1927.14
350.30	2088.93
350.51	2007.01
350.72	1906.66
350.93	1970.15
351.14	1908.71
351.35	1888.23
351.56	1896.42
351.77	1964.00
351.99	1988.58
352.20	2007.01
352.41	2035.68
352.62	1828.84
352.83	1920.99
353.04	2052.06
353.25	1927.14
353.46	1986.53
353.67	2009.06
353.88	1859.56
354.09	1935.33
354.30	1892.32
354.52	2056.16
354.73	1978.34
354.94	1996.77
355.15	1959.91
355.36	2127.84
355.57	1894.37
355.78	1941.47
355.99	1853.41
356.20	1970.15
356.41	2033.63
356.62	2054.11
356.83	1970.15
357.04	2105.31
357.25	1841.12
357.46	1855.46
357.68	1843.17
357.89	1851.36
358.10	1951.71
358.31	1947.62
358.52	1914.85
358.73	1912.80
358.94	1898.47
359.15	1908.71
359.36	1986.53
359.57	2045.92
359.78	1923.04
359.99	2070.50
360.20	1875.94
360.41	1947.62
360.62	2033.63
360.83	1990.63
361.04	1937.38
361.25	1935.33
361.46	2119.65
361.67	2019.30
361.88	2039.78
362.09	1947.62
362.30	1980.39
362.51	1914.85
362.72	2047.97
362.93	1923.04
363.14	1943.52
363.35	1964.00
363.56	1941.47
363.78	2099.17
363.99	2002.91
364.20	1927.14
364.41	2064.35
364.62	2152.42
364.83	1955.81
365.04	1941.47
365.25	1945.57
365.46	2129.89
365.67	1894.37
365.88	2023.39
366.09	1859.56
366.30	1927.14
366.51	1931.23
366.72	1816.55
366.93	1964.00
367.14	1912.80
367.35	2041.82
367.56	1935.33
367.77	2101.22
367.98	1986.53
368.18	2019.30
368.39	1996.77
368.60	1804.26
368.81	2023.39
369.02	1976.29
369.23	1939.43
369.44	1886.18
369.65	1949.67
369.86	1927.14
370.07	2029.54
370.28	1986.53
370.49	1978.34
370.70	2019.30
370.91	1863.65
371.12	1920.99
371.33	2029.54
371.54	1980.39
371.75	2099.17
371.96	1800.16
372.17	1951.71
372.38	1943.52
372.59	1966.05
372.80	1951.71
373.01	1933.28
373.22	1964.00
373.43	1875.94
373.64	1896.42
373.85	2041.82
374.06	2021.35
374.26	1994.72
374.47	2068.45
374.68	2086.88
374.89	1976.29
375.10	1910.75
375.31	2045.92
375.52	1982.43
375.73	1941.47
375.94	1923.04
376.15	2119.65
376.36	1882.08
376.57	1904.61
376.78	1904.61
376.99	1902.56
377.20	2050.02
377.40	1937.38
377.61	2088.93
377.82	1884.13
378.03	2078.69
378.24	2021.35
378.45	1982.43
378.66	2000.87
378.87	1757.16
379.08	1900.52
379.29	1947.62
379.50	1982.43
379.71	1925.09
379.91	2013.15
380.12	1937.38
380.33	1929.19
380.54	1990.63
380.75	1980.39
380.96	1904.61
381.17	1992.67
381.38	2015.20
381.59	2009.06
381.80	1964.00
382.00	2166.75
382.21	2009.06
382.42	2133.98
382.63	2176.99
382.84	1986.53
383.05	2027.49
383.26	2117.60
383.47	2090.98
383.68	2078.69
383.88	2033.63
384.09	2000.87
384.30	2105.31
384.51	2035.68
384.72	1898.47
384.93	1869.80
385.14	1908.71
385.35	2035.68
385.55	1839.08
385.76	2056.16
385.97	1988.58
386.18	1832.93
386.39	2029.54
386.60	1853.41
386.81	1964.00
387.02	1902.56
387.22	1880.04
387.43	2099.17
387.64	2058.21
387.85	2056.16
388.06	2240.48
388.27	3960.77
388.48	8519.55
388.68	11997.00
388.89	14618.40
389.10	15271.70
389.31	13907.76
389.52	10977.11
389.73	9486.19
389.93	8595.32
390.14	8040.33
390.35	7313.30
390.56	6307.74
390.77	5324.72
390.98	4036.55
391.18	3182.54
391.39	2537.43
391.60	2140.13
391.81	2052.06
392.02	1974.24
392.23	2115.55
392.43	2054.11
392.64	2017.25
392.85	1951.71
393.06	2097.12
393.27	1992.67
393.47	1898.47
393.68	1972.19
393.89	1933.28
394.10	2047.97
394.31	1849.32
394.52	1884.13
394.72	1851.36
394.93	2072.54
395.14	1845.22
395.35	2090.98
395.56	1935.33
395.76	1992.67
395.97	2043.87
396.18	2166.75
396.39	2146.27
396.60	2361.31
396.80	2224.09
397.01	2133.98
397.22	2101.22
397.43	2136.03
397.64	2025.44
397.84	2121.70
398.05	2244.57
398.26	2019.30
398.47	2011.11
398.67	2072.54
398.88	1959.91
399.09	2039.78
399.30	1972.19
399.51	1998.82
399.71	1918.95
399.92	1931.23
400.13	1968.10
400.34	1974.24
400.54	1937.38
400.75	2082.78
400.96	1941.47
401.17	2070.50
401.37	2023.39
401.58	1914.85
401.79	1941.47
402.00	2050.02
402.21	2281.44
402.41	2379.74
402.62	2328.54
402.83	2447.32
403.04	2453.47
403.24	2488.28
403.45	2148.32
403.66	2246.62
403.87	2164.70
404.07	2160.61
404.28	2283.49
404.49	2230.24
404.70	2054.11
404.90	2031.58
405.11	2017.25
405.32	2002.91
405.52	1945.57
405.73	1908.71
405.94	1908.71
406.15	1945.57
406.35	2111.46
406.56	1992.67
406.77	1988.58
406.98	1998.82
407.18	1966.05
407.39	2105.31
407.60	1996.77
407.80	2082.78
408.01	1935.33
408.22	1923.04
408.43	1871.84
408.63	1933.28
408.84	2054.11
409.05	2035.68
409.25	1908.71
409.46	1914.85
409.67	1933.28
409.88	1863.65
410.08	1886.18
410.29	1974.24
410.50	2017.25
410.70	1910.75
410.91	1910.75
411.12	1961.95
411.32	1898.47
411.53	1888.23
411.74	2056.16
411.95	2031.58
412.15	2047.97
412.36	2068.45
412.57	2066.40
412.77	2033.63
412.98	1988.58
413.19	1937.38
413.39	2068.45
413.60	1984.48
413.81	2121.70
414.01	1880.04
414.22	2009.06
414.43	2013.15
414.63	1914.85
414.84	2125.79
415.05	2015.20
415.25	1925.09
415.46	1986.53
415.67	1890.28
415.87	1966.05
416.08	1935.33
416.29	1949.67
416.49	1986.53
416.70	1923.04
416.91	1898.47
417.11	1920.99
417.32	1941.47
417.53	2064.35
417.73	2002.91
417.94	1972.19
418.15	2037.73
418.35	2004.96
418.56	1961.95
418.77	2058.21
418.97	1894.37
419.18	1912.80
419.38	1783.78
419.59	1949.67
419.80	2058.21
420.00	1882.08
420.21	2004.96
420.42	2015.20
420.62	1949.67
420.83	1871.84
421.04	1925.09
421.24	1929.19
421.45	1996.77
421.65	2045.92
421.86	1947.62
422.07	2017.25
422.27	1968.10
422.48	1927.14
422.69	1816.55
422.89	2068.45
423.10	1970.15
423.30	1937.38
423.51	2097.12
423.72	1949.67
423.92	1961.95
424.13	1914.85
424.33	1957.86
424.54	2084.83
424.75	1849.32
424.95	2127.84
425.16	2000.87
425.36	1925.09
425.57	2093.02
425.78	1978.34
425.98	2039.78
426.19	1914.85
426.39	1873.89
426.60	2084.83
426.81	2027.49
427.01	1923.04
427.22	1890.28
427.42	1910.75
427.63	1966.05
427.83	2031.58
428.04	2009.06
428.25	2074.59
428.45	1974.24
428.66	2039.78
428.86	1957.86
429.07	1892.32
429.28	1992.67
429.48	2002.91
429.69	1900.52
429.89	2004.96
430.10	1894.37
430.30	2047.97
430.51	2074.59
430.71	1880.04
430.92	1966.05
431.13	2011.11
431.33	2031.58
431.54	2021.35
431.74	2129.89
431.95	2043.87
432.15	1927.14
432.36	1982.43
432.56	2056.16
432.77	2105.31
432.98	2054.11
433.18	1949.67
433.39	2023.39
433.59	1939.43
433.80	2144.22
434.00	2127.84
434.21	1929.19
434.41	1906.66
434.62	2142.18
434.82	1961.95
435.03	1894.37
435.23	1970.15
435.44	1839.08
435.64	1931.23
435.85	2025.44
436.06	1992.67
436.26	2047.97
436.47	1935.33
436.67	1959.91
436.88	1984.48
437.08	2050.02
437.29	2146.27
437.49	1964.00
437.70	2056.16
437.90	1992.67
438.11	2009.06
438.31	2025.44
438.52	2183.13
438.72	2168.80
438.93	2148.32
439.13	2133.98
439.34	2133.98
439.54	2093.02
439.75	2052.06
439.95	2095.07
440.16	1945.57
440.36	2039.78
440.57	1996.77
440.77	2033.63
440.98	1992.67
441.18	1949.67
441.39	1933.28
441.59	1857.51
441.80	2095.07
442.00	2007.01
442.21	2023.39
442.41	1894.37
442.62	2027.49
442.82	1873.89
443.02	1984.48
443.23	1992.67
443.43	1935.33
443.64	2133.98
443.84	1914.85
444.05	2050.02
444.25	2015.20
444.46	1931.23
444.66	2031.58
444.87	2068.45
445.07	1863.65
445.28	1998.82
445.48	2109.41
445.69	2117.60
445.89	2226.14
446.09	2025.44
446.30	2260.96
446.50	2703.32
446.71	4210.62
446.91	5386.16
447.12	6186.91
447.32	6520.73
447.53	6072.23
447.73	4997.04
447.93	4401.08
448.14	3952.58
448.34	3794.89
448.55	3428.30
448.75	3459.02
448.96	3196.88
449.16	2910.16
449.36	2627.54
449.57	2285.53
449.77	2144.22
449.98	1974.24
450.18	2050.02
450.39	2078.69
450.59	2011.11
450.79	2054.11
451.00	1976.29
451.20	1966.05
451.41	1972.19
451.61	2027.49
451.81	1959.91
452.02	1990.63
452.22	2009.06
452.43	1933.28
452.63	1959.91
