SpectraSuite Data File
++++++++++++++++++++++++++++++++++++
Date: Wed May 04 22:46:05 CEST 2016
User: root
Dark Spectrum Present: No
Reference Spectrum Present: No
Number of Sampled Component Spectra: 1
Spectrometers: USB4C02835
Integration Time (usec): 100000 (USB4C02835)
Spectra Averaged: 1 (USB4C02835)
Boxcar Smoothing: 0 (USB4C02835)
Correct for Electrical Dark: No (USB4C02835)
Strobe/Lamp Enabled: No (USB4C02835)
Correct for Detector Non-linearity: No (USB4C02835)
Correct for Stray Light: No (USB4C02835)
Number of Pixels in Processed Spectrum: 3648
>>>>>Begin Processed Spectral Data<<<<<
177.47	1591.27
177.69	1591.27
177.91	1591.27
178.13	1646.57
178.36	1687.53
178.58	1855.46
178.80	1988.58
179.02	1880.04
179.24	1900.52
179.46	1916.90
179.68	1976.29
179.90	1920.99
180.13	1951.71
180.35	1910.75
180.57	1964.00
180.79	2009.06
181.01	1974.24
181.23	1980.39
181.45	1951.71
181.67	1966.05
181.90	2041.82
182.12	1886.18
182.34	1820.64
182.56	2021.35
182.78	1992.67
183.00	1869.80
183.22	1910.75
183.44	1757.16
183.66	2119.65
183.89	2007.01
184.11	1974.24
184.33	1931.23
184.55	2054.11
184.77	1986.53
184.99	2027.49
185.21	2021.35
185.43	2119.65
185.65	1904.61
185.87	1972.19
186.10	2164.70
186.32	2099.17
186.54	1980.39
186.76	2011.11
186.98	2084.83
187.20	1863.65
187.42	1949.67
187.64	1882.08
187.86	1961.95
188.08	2009.06
188.30	1961.95
188.52	1923.04
188.75	2019.30
188.97	2004.96
189.19	1880.04
189.41	1904.61
189.63	2029.54
189.85	1927.14
190.07	1857.51
190.29	1869.80
190.51	2031.58
190.73	1798.12
190.95	2056.16
191.17	1877.99
191.39	1834.98
191.61	1871.84
191.84	1976.29
192.06	1920.99
192.28	1882.08
192.50	2222.05
192.72	2029.54
192.94	1959.91
193.16	1937.38
193.38	1964.00
193.60	1767.40
193.82	1978.34
194.04	2009.06
194.26	1980.39
194.48	1931.23
194.70	1896.42
194.92	1947.62
195.14	2105.31
195.36	1877.99
195.58	1923.04
195.80	1990.63
196.02	1935.33
196.24	1980.39
196.46	2019.30
196.69	1859.56
196.91	2101.22
197.13	1904.61
197.35	1871.84
197.57	2029.54
197.79	2023.39
198.01	1892.32
198.23	1966.05
198.45	1978.34
198.67	1871.84
198.89	1943.52
199.11	1976.29
199.33	1970.15
199.55	1853.41
199.77	1998.82
199.99	2037.73
200.21	1904.61
200.43	1925.09
200.65	1880.04
200.87	1730.53
201.09	1996.77
201.31	1935.33
201.53	1953.76
201.75	1992.67
201.97	1941.47
202.19	1964.00
202.41	1982.43
202.63	2093.02
202.85	2017.25
203.07	1925.09
203.29	1896.42
203.51	1857.51
203.73	1849.32
203.95	2209.76
204.17	1990.63
204.39	2019.30
204.61	1992.67
204.83	1931.23
205.05	1986.53
205.27	2000.87
205.49	2056.16
205.71	1943.52
205.93	1818.60
206.15	1910.75
206.37	1978.34
206.59	1894.37
206.81	1839.08
207.03	1877.99
207.25	1927.14
207.47	2041.82
207.69	1929.19
207.91	2084.83
208.13	2101.22
208.34	1927.14
208.56	1916.90
208.78	1925.09
209.00	1972.19
209.22	1935.33
209.44	1918.95
209.66	1861.60
209.88	1978.34
210.10	1882.08
210.32	1925.09
210.54	2140.13
210.76	2000.87
210.98	2037.73
211.20	1779.68
211.42	1947.62
211.64	2084.83
211.86	2000.87
212.08	1910.75
212.30	1968.10
212.52	1886.18
212.74	1904.61
212.96	2017.25
213.17	2066.40
213.39	1986.53
213.61	2068.45
213.83	1957.86
214.05	1886.18
214.27	1994.72
214.49	1857.51
214.71	1816.55
214.93	1957.86
215.15	1964.00
215.37	2058.21
215.59	1888.23
215.81	1998.82
216.03	2043.87
216.24	2015.20
216.46	1945.57
216.68	1957.86
216.90	2017.25
217.12	2033.63
217.34	1906.66
217.56	1935.33
217.78	2045.92
218.00	1998.82
218.22	1914.85
218.44	1933.28
218.66	2007.01
218.87	2109.41
219.09	1941.47
219.31	1920.99
219.53	1992.67
219.75	1871.84
219.97	1910.75
220.19	2000.87
220.41	1966.05
220.63	2017.25
220.85	1986.53
221.06	1941.47
221.28	2066.40
221.50	1982.43
221.72	1906.66
221.94	1961.95
222.16	1949.67
222.38	1947.62
222.60	1951.71
222.82	1920.99
223.03	2002.91
223.25	1902.56
223.47	2011.11
223.69	2060.26
223.91	1980.39
224.13	2000.87
224.35	1816.55
224.57	2015.20
224.78	2035.68
225.00	1863.65
225.22	1890.28
225.44	1884.13
225.66	1986.53
225.88	1908.71
226.10	2017.25
226.32	1900.52
226.53	2095.07
226.75	1892.32
226.97	1880.04
227.19	1908.71
227.41	1914.85
227.63	1871.84
227.85	1771.49
228.06	1949.67
228.28	1933.28
228.50	2029.54
228.72	1929.19
228.94	1902.56
229.16	1808.36
229.37	1927.14
229.59	1857.51
229.81	2133.98
230.03	2009.06
230.25	1834.98
230.47	1871.84
230.69	1869.80
230.90	1994.72
231.12	1914.85
231.34	2007.01
231.56	2007.01
231.78	1832.93
232.00	2031.58
232.21	1902.56
232.43	1845.22
232.65	1812.45
232.87	1976.29
233.09	1896.42
233.30	1892.32
233.52	2023.39
233.74	1937.38
233.96	1830.88
234.18	1925.09
234.40	2021.35
234.61	2181.09
234.83	1890.28
235.05	1869.80
235.27	2160.61
235.49	2082.78
235.70	1976.29
235.92	1998.82
236.14	2021.35
236.36	2209.76
236.58	1837.03
236.79	1961.95
237.01	1970.15
237.23	2043.87
237.45	2072.54
237.67	1939.43
237.88	1982.43
238.10	2136.03
238.32	1890.28
238.54	1892.32
238.76	1992.67
238.97	1875.94
239.19	1908.71
239.41	1931.23
239.63	2031.58
239.85	1925.09
240.06	1974.24
240.28	1943.52
240.50	2086.88
240.72	2041.82
240.93	1906.66
241.15	1984.48
241.37	2011.11
241.59	2039.78
241.81	1888.23
242.02	1939.43
242.24	1937.38
242.46	2002.91
242.68	1867.75
242.89	1935.33
243.11	2119.65
243.33	1961.95
243.55	1978.34
243.76	2047.97
243.98	1941.47
244.20	1992.67
244.42	1955.81
244.64	1976.29
244.85	1873.89
245.07	1869.80
245.29	2011.11
245.51	1931.23
245.72	1957.86
245.94	2000.87
246.16	1918.95
246.38	1951.71
246.59	1877.99
246.81	1914.85
247.03	1898.47
247.24	1757.16
247.46	1906.66
247.68	1998.82
247.90	1953.76
248.11	1873.89
248.33	2013.15
248.55	1955.81
248.77	1914.85
248.98	1972.19
249.20	2078.69
249.42	1923.04
249.64	1959.91
249.85	1908.71
250.07	1904.61
250.29	1968.10
250.50	1982.43
250.72	1902.56
250.94	1982.43
251.16	2066.40
251.37	1951.71
251.59	2015.20
251.81	2029.54
252.02	1986.53
252.24	1982.43
252.46	2004.96
252.68	1863.65
252.89	1941.47
253.11	1806.31
253.33	2084.83
253.54	2029.54
253.76	1824.74
253.98	1943.52
254.20	1982.43
254.41	1826.79
254.63	1955.81
254.85	1918.95
255.06	1939.43
255.28	1961.95
255.50	1984.48
255.71	1865.70
255.93	1927.14
256.15	1951.71
256.36	2047.97
256.58	1853.41
256.80	1957.86
257.02	1970.15
257.23	1904.61
257.45	1953.76
257.67	2082.78
257.88	1912.80
258.10	2027.49
258.32	1980.39
258.53	2000.87
258.75	2097.12
258.97	1890.28
259.18	1974.24
259.40	1916.90
259.62	2090.98
259.83	2011.11
260.05	2017.25
260.27	2291.68
260.48	2000.87
260.70	1865.70
260.92	1843.17
261.13	1933.28
261.35	1935.33
261.57	2039.78
261.78	1849.32
262.00	1959.91
262.22	2037.73
262.43	1871.84
262.65	1957.86
262.86	1908.71
263.08	2197.47
263.30	2004.96
263.51	1742.82
263.73	1929.19
263.95	2107.36
264.16	1843.17
264.38	1918.95
264.60	1902.56
264.81	1996.77
265.03	2009.06
265.25	1976.29
265.46	1961.95
265.68	2064.35
265.89	1959.91
266.11	1802.21
266.33	1916.90
266.54	2023.39
266.76	1931.23
266.98	1955.81
267.19	2095.07
267.41	1996.77
267.62	1910.75
267.84	1794.02
268.06	1968.10
268.27	1955.81
268.49	2047.97
268.70	1996.77
268.92	1968.10
269.14	1855.46
269.35	1814.50
269.57	1935.33
269.79	1966.05
270.00	1898.47
270.22	2074.59
270.43	1898.47
270.65	1824.74
270.87	1972.19
271.08	2031.58
271.30	1980.39
271.51	1925.09
271.73	2017.25
271.95	2078.69
272.16	1994.72
272.38	1996.77
272.59	1894.37
272.81	2013.15
273.02	1945.57
273.24	1998.82
273.46	2015.20
273.67	1859.56
273.89	1894.37
274.10	1841.12
274.32	2021.35
274.54	2043.87
274.75	1976.29
274.97	1857.51
275.18	1959.91
275.40	1949.67
275.61	1904.61
275.83	1972.19
276.05	1927.14
276.26	1945.57
276.48	2000.87
276.69	1925.09
276.91	1923.04
277.12	2060.26
277.34	1992.67
277.55	2033.63
277.77	1964.00
277.99	1888.23
278.20	1859.56
278.42	1830.88
278.63	1867.75
278.85	1910.75
279.06	1843.17
279.28	1953.76
279.49	2015.20
279.71	1927.14
279.93	1908.71
280.14	1980.39
280.36	1884.13
280.57	2066.40
280.79	2043.87
281.00	1896.42
281.22	1892.32
281.43	2004.96
281.65	1767.40
281.86	1853.41
282.08	1949.67
282.29	2162.66
282.51	1847.27
282.73	1927.14
282.94	1931.23
283.16	1998.82
283.37	1941.47
283.59	2013.15
283.80	2035.68
284.02	1988.58
284.23	2007.01
284.45	1923.04
284.66	1886.18
284.88	1896.42
285.09	1959.91
285.31	2060.26
285.52	1929.19
285.74	1839.08
285.95	1927.14
286.17	1916.90
286.38	2037.73
286.60	1943.52
286.81	1869.80
287.03	1996.77
287.24	1966.05
287.46	1894.37
287.67	2021.35
287.89	2062.30
288.10	1988.58
288.32	1859.56
288.53	2045.92
288.75	1910.75
288.96	2002.91
289.18	1882.08
289.39	1910.75
289.61	1955.81
289.82	2121.70
290.04	2064.35
290.25	1892.32
290.47	1970.15
290.68	1882.08
290.90	2033.63
291.11	1777.64
291.33	2002.91
291.54	1933.28
291.76	1955.81
291.97	1961.95
292.18	2009.06
292.40	1884.13
292.61	1933.28
292.83	2138.08
293.04	1955.81
293.26	1947.62
293.47	1923.04
293.69	1912.80
293.90	1945.57
294.12	2021.35
294.33	1937.38
294.55	1925.09
294.76	2002.91
294.97	2086.88
295.19	2090.98
295.40	1877.99
295.62	2031.58
295.83	1966.05
296.05	1890.28
296.26	2017.25
296.48	1896.42
296.69	1896.42
296.90	1953.76
297.12	1941.47
297.33	2011.11
297.55	1923.04
297.76	1925.09
297.98	2068.45
298.19	1937.38
298.41	1908.71
298.62	1925.09
298.83	2123.74
299.05	1900.52
299.26	2009.06
299.48	1920.99
299.69	2101.22
299.90	1961.95
300.12	1908.71
300.33	1988.58
300.55	1871.84
300.76	2015.20
300.98	1925.09
301.19	2035.68
301.40	1865.70
301.62	1964.00
301.83	1951.71
302.05	1953.76
302.26	1941.47
302.47	1998.82
302.69	1937.38
302.90	1994.72
303.12	1755.11
303.33	2000.87
303.54	2105.31
303.76	1910.75
303.97	2013.15
304.19	2109.41
304.40	1875.94
304.61	2062.30
304.83	2084.83
305.04	2021.35
305.26	2074.59
305.47	1984.48
305.68	1994.72
305.90	1861.60
306.11	2054.11
306.33	1931.23
306.54	1818.60
306.75	1902.56
306.97	1822.69
307.18	1847.27
307.39	1888.23
307.61	2007.01
307.82	1900.52
308.04	1996.77
308.25	1875.94
308.46	1937.38
308.68	1918.95
308.89	2031.58
309.10	2086.88
309.32	2015.20
309.53	1978.34
309.74	1976.29
309.96	1976.29
310.17	1935.33
310.39	1986.53
310.60	2007.01
310.81	1964.00
311.03	1867.75
311.24	1974.24
311.45	1961.95
311.67	2127.84
311.88	1992.67
312.09	1845.22
312.31	1953.76
312.52	1900.52
312.73	1898.47
312.95	1798.12
313.16	1918.95
313.37	2074.59
313.59	1986.53
313.80	2021.35
314.01	2080.74
314.23	1935.33
314.44	1935.33
314.65	1861.60
314.87	1939.43
315.08	2015.20
315.29	1888.23
315.51	1847.27
315.72	1873.89
315.93	2043.87
316.15	1931.23
316.36	1994.72
316.57	2000.87
316.79	1970.15
317.00	1943.52
317.21	2023.39
317.43	1861.60
317.64	2011.11
317.85	1871.84
318.07	1937.38
318.28	2009.06
318.49	2123.74
318.70	2322.40
318.92	2193.37
319.13	2176.99
319.34	2162.66
319.56	2037.73
319.77	2121.70
319.98	2183.13
320.20	2029.54
320.41	2066.40
320.62	2002.91
320.83	1935.33
321.05	2125.79
321.26	1984.48
321.47	2002.91
321.69	1923.04
321.90	1816.55
322.11	1894.37
322.32	2047.97
322.54	2115.55
322.75	1957.86
322.96	2176.99
323.18	1839.08
323.39	1834.98
323.60	1859.56
323.81	2004.96
324.03	1964.00
324.24	1945.57
324.45	2021.35
324.66	1910.75
324.88	2043.87
325.09	2047.97
325.30	2015.20
325.52	2000.87
325.73	1933.28
325.94	1906.66
326.15	1837.03
326.37	1871.84
326.58	1996.77
326.79	2082.78
327.00	1898.47
327.22	2047.97
327.43	2000.87
327.64	1884.13
327.85	1978.34
328.07	1949.67
328.28	2129.89
328.49	1925.09
328.70	1935.33
328.92	1949.67
329.13	1951.71
329.34	1957.86
329.55	2113.50
329.76	2072.54
329.98	1972.19
330.19	2140.13
330.40	1933.28
330.61	1939.43
330.83	2041.82
331.04	1871.84
331.25	1982.43
331.46	1949.67
331.68	1904.61
331.89	2023.39
332.10	1945.57
332.31	1888.23
332.52	1939.43
332.74	2041.82
332.95	1904.61
333.16	1925.09
333.37	2031.58
333.58	1880.04
333.80	2052.06
334.01	1834.98
334.22	1994.72
334.43	1961.95
334.64	1953.76
334.86	1812.45
335.07	1929.19
335.28	2047.97
335.49	1892.32
335.70	2029.54
335.92	2064.35
336.13	2127.84
336.34	2035.68
336.55	1955.81
336.76	1955.81
336.98	1896.42
337.19	1943.52
337.40	2027.49
337.61	2215.90
337.82	1966.05
338.04	1961.95
338.25	1789.92
338.46	1886.18
338.67	1980.39
338.88	1857.51
339.09	1894.37
339.31	1896.42
339.52	1882.08
339.73	1865.70
339.94	1970.15
340.15	2050.02
340.36	1896.42
340.58	1972.19
340.79	1837.03
341.00	2007.01
341.21	1900.52
341.42	2054.11
341.63	1914.85
341.85	2019.30
342.06	1947.62
342.27	1865.70
342.48	2002.91
342.69	1832.93
342.90	1933.28
343.12	2074.59
343.33	1957.86
343.54	2074.59
343.75	2058.21
343.96	1943.52
344.17	1898.47
344.38	1927.14
344.60	1902.56
344.81	1910.75
345.02	1961.95
345.23	2029.54
345.44	2154.46
345.65	2025.44
345.86	2000.87
346.07	1949.67
346.29	1847.27
346.50	2015.20
346.71	1955.81
346.92	2090.98
347.13	2117.60
347.34	1875.94
347.55	1957.86
347.76	1949.67
347.98	1910.75
348.19	1974.24
348.40	2090.98
348.61	1945.57
348.82	2064.35
349.03	2004.96
349.24	1863.65
349.45	2031.58
349.66	1767.40
349.88	1959.91
350.09	1884.13
350.30	2099.17
350.51	2058.21
350.72	1986.53
350.93	1906.66
351.14	1923.04
351.35	2011.11
351.56	1888.23
351.77	1923.04
351.99	2000.87
352.20	2002.91
352.41	2015.20
352.62	1847.27
352.83	1970.15
353.04	1949.67
353.25	1914.85
353.46	2080.74
353.67	2056.16
353.88	1759.21
354.09	1980.39
354.30	1918.95
354.52	1992.67
354.73	1925.09
354.94	1943.52
355.15	1988.58
355.36	2078.69
355.57	1896.42
355.78	1943.52
355.99	1949.67
356.20	1892.32
356.41	1984.48
356.62	1968.10
356.83	1976.29
357.04	2142.18
357.25	1818.60
357.46	1931.23
357.68	1933.28
357.89	1902.56
358.10	1943.52
358.31	1863.65
358.52	1875.94
358.73	1882.08
358.94	1898.47
359.15	1845.22
359.36	1980.39
359.57	1898.47
359.78	1888.23
359.99	1972.19
360.20	1925.09
360.41	1968.10
360.62	1953.76
360.83	1966.05
361.04	2015.20
361.25	1976.29
361.46	2078.69
361.67	1990.63
361.88	1982.43
362.09	1992.67
362.30	1974.24
362.51	1808.36
362.72	1964.00
362.93	2027.49
363.14	2025.44
363.35	1970.15
363.56	1937.38
363.78	2062.30
363.99	2041.82
364.20	1923.04
364.41	1931.23
364.62	2086.88
364.83	2000.87
365.04	1941.47
365.25	1970.15
365.46	2090.98
365.67	1920.99
365.88	1939.43
366.09	1789.92
366.30	1863.65
366.51	1996.77
366.72	1828.84
366.93	1949.67
367.14	1957.86
367.35	2068.45
367.56	1916.90
367.77	2045.92
367.98	1961.95
368.18	2027.49
368.39	1945.57
368.60	1937.38
368.81	2056.16
369.02	1982.43
369.23	1906.66
369.44	1871.84
369.65	1931.23
369.86	2035.68
370.07	2031.58
370.28	1855.46
370.49	1951.71
370.70	2017.25
370.91	1894.37
371.12	1857.51
371.33	1992.67
371.54	1896.42
371.75	2074.59
371.96	1816.55
372.17	2007.01
372.38	1982.43
372.59	2004.96
372.80	1896.42
373.01	1996.77
373.22	1968.10
373.43	1925.09
373.64	1896.42
373.85	2019.30
374.06	2115.55
374.26	1966.05
374.47	2011.11
374.68	2127.84
374.89	1980.39
375.10	1966.05
375.31	1957.86
375.52	2015.20
375.73	1933.28
375.94	1892.32
376.15	2037.73
376.36	1935.33
376.57	1927.14
376.78	1867.75
376.99	2027.49
377.20	2123.74
377.40	1912.80
377.61	2146.27
377.82	1951.71
378.03	2078.69
378.24	1955.81
378.45	1976.29
378.66	1933.28
378.87	1882.08
379.08	1812.45
379.29	1929.19
379.50	2117.60
379.71	1933.28
379.91	1972.19
380.12	1920.99
380.33	1939.43
380.54	2007.01
380.75	1976.29
380.96	1968.10
381.17	2009.06
381.38	1933.28
381.59	2027.49
381.80	1953.76
382.00	2152.42
382.21	2021.35
382.42	2168.80
382.63	2144.22
382.84	1974.24
383.05	2023.39
383.26	2113.50
383.47	2019.30
383.68	2068.45
383.88	2070.50
384.09	1923.04
384.30	2009.06
384.51	2017.25
384.72	1939.43
384.93	1834.98
385.14	1935.33
385.35	2027.49
385.55	1871.84
385.76	2021.35
385.97	1957.86
386.18	1857.51
386.39	1918.95
386.60	1988.58
386.81	1873.89
387.02	1896.42
387.22	1892.32
387.43	2025.44
387.64	2068.45
387.85	2105.31
388.06	2203.61
388.27	3964.87
388.48	8482.69
388.68	11865.93
388.89	14065.45
389.10	15253.27
389.31	13879.08
389.52	10872.67
389.73	9662.32
389.93	8675.20
390.14	7790.47
390.35	7143.32
390.56	6248.35
390.77	5207.98
390.98	4061.12
391.18	3151.82
391.39	2533.34
391.60	2234.33
391.81	2138.08
392.02	1972.19
392.23	2086.88
392.43	1998.82
392.64	2074.59
392.85	2023.39
393.06	2090.98
393.27	2047.97
393.47	1959.91
393.68	2000.87
393.89	1916.90
394.10	2045.92
394.31	1994.72
394.52	1898.47
394.72	1966.05
394.93	2156.51
395.14	1896.42
395.35	1990.63
395.56	1972.19
395.76	1959.91
395.97	2035.68
396.18	2043.87
396.39	2156.51
396.60	2383.84
396.80	2205.66
397.01	2146.27
397.22	2068.45
397.43	2220.00
397.64	1992.67
397.84	2082.78
398.05	2062.30
398.26	2015.20
398.47	2060.26
398.67	2088.93
398.88	1953.76
399.09	2039.78
399.30	1935.33
399.51	2004.96
399.71	1898.47
399.92	1900.52
400.13	1996.77
400.34	1849.32
400.54	1945.57
400.75	2074.59
400.96	2013.15
401.17	2062.30
401.37	2025.44
401.58	2027.49
401.79	1990.63
402.00	2045.92
402.21	2260.96
402.41	2295.77
402.62	2349.02
402.83	2498.52
403.04	2430.94
403.24	2582.49
403.45	2207.71
403.66	2299.87
403.87	2150.37
404.07	2185.18
404.28	2193.37
404.49	2150.37
404.70	1994.72
404.90	2045.92
405.11	1988.58
405.32	2000.87
405.52	1914.85
405.73	1843.17
405.94	1886.18
406.15	1945.57
406.35	1974.24
406.56	2074.59
406.77	2039.78
406.98	1970.15
407.18	1832.93
407.39	2144.22
407.60	1986.53
407.80	2002.91
408.01	1888.23
408.22	2039.78
408.43	1869.80
408.63	1984.48
408.84	2035.68
409.05	2023.39
409.25	1894.37
409.46	1961.95
409.67	1935.33
409.88	1914.85
410.08	2013.15
410.29	1937.38
410.50	1964.00
410.70	2058.21
410.91	1875.94
411.12	2029.54
411.32	1992.67
411.53	1892.32
411.74	2062.30
411.95	2031.58
412.15	2056.16
412.36	2103.26
412.57	2105.31
412.77	2074.59
412.98	2070.50
413.19	1916.90
413.39	2052.06
413.60	1955.81
413.81	2066.40
414.01	1851.36
414.22	2017.25
414.43	1984.48
414.63	1972.19
414.84	2090.98
415.05	1982.43
415.25	1916.90
415.46	2004.96
415.67	1898.47
415.87	2039.78
416.08	1970.15
416.29	1974.24
416.49	1976.29
416.70	1980.39
416.91	1988.58
417.11	1902.56
417.32	2029.54
417.53	1945.57
417.73	2019.30
417.94	1941.47
418.15	1968.10
418.35	2017.25
418.56	1978.34
418.77	2074.59
418.97	1959.91
419.18	1931.23
419.38	1859.56
419.59	1945.57
419.80	2109.41
420.00	1904.61
420.21	1884.13
420.42	2115.55
420.62	2041.82
420.83	1939.43
421.04	1918.95
421.24	1951.71
421.45	2023.39
421.65	2009.06
421.86	1898.47
422.07	1998.82
422.27	1939.43
422.48	1945.57
422.69	1918.95
422.89	1994.72
423.10	1904.61
423.30	1877.99
423.51	1902.56
423.72	1927.14
423.92	2025.44
424.13	1918.95
424.33	1937.38
424.54	2021.35
424.75	1943.52
424.95	2103.26
425.16	1998.82
425.36	1970.15
425.57	2043.87
425.78	1998.82
425.98	2029.54
426.19	1964.00
426.39	1892.32
426.60	1947.62
426.81	2082.78
427.01	1982.43
427.22	1955.81
427.42	1861.60
427.63	1976.29
427.83	2017.25
428.04	2076.64
428.25	1964.00
428.45	2017.25
428.66	2060.26
428.86	2027.49
429.07	1949.67
429.28	1929.19
429.48	1902.56
429.69	1890.28
429.89	2004.96
430.10	1945.57
430.30	2054.11
430.51	2074.59
430.71	1898.47
430.92	2000.87
431.13	1906.66
431.33	2031.58
431.54	2013.15
431.74	2105.31
431.95	2084.83
432.15	1853.41
432.36	1941.47
432.56	2023.39
432.77	2084.83
432.98	2109.41
433.18	1955.81
433.39	1931.23
433.59	1959.91
433.80	2086.88
434.00	2113.50
434.21	1957.86
434.41	1904.61
434.62	2103.26
434.82	1931.23
435.03	1941.47
435.23	2050.02
435.44	1888.23
435.64	1912.80
435.85	1994.72
436.06	2015.20
436.26	2076.64
436.47	1998.82
436.67	1939.43
436.88	1984.48
437.08	2123.74
437.29	2019.30
437.49	1994.72
437.70	1980.39
437.90	1980.39
438.11	2097.12
438.31	2072.54
438.52	2064.35
438.72	2078.69
438.93	2240.48
439.13	2131.94
439.34	2084.83
439.54	2060.26
439.75	2037.73
439.95	2050.02
440.16	1970.15
440.36	2017.25
440.57	2054.11
440.77	1998.82
440.98	1929.19
441.18	2009.06
441.39	1931.23
441.59	1945.57
441.80	2131.94
442.00	1914.85
442.21	2086.88
442.41	1837.03
442.62	2174.94
442.82	1978.34
443.02	1966.05
443.23	2013.15
443.43	2009.06
443.64	2086.88
443.84	1941.47
444.05	2097.12
444.25	1966.05
444.46	1968.10
444.66	1920.99
444.87	2109.41
445.07	1910.75
445.28	1951.71
445.48	2074.59
445.69	1972.19
445.89	2189.28
446.09	2031.58
446.30	2252.77
446.50	2570.20
446.71	4241.34
446.91	5345.20
447.12	6168.48
447.32	6514.59
447.53	5930.92
447.73	4954.04
447.93	4362.17
448.14	3954.63
448.34	3833.80
448.55	3426.25
448.75	3356.62
448.96	3239.89
449.16	2801.62
449.36	2551.77
449.57	2349.02
449.77	2076.64
449.98	2013.15
450.18	2058.21
450.39	2115.55
450.59	2029.54
450.79	1929.19
451.00	1994.72
451.20	2041.82
451.41	1976.29
451.61	2021.35
451.81	1916.90
452.02	1914.85
452.22	1968.10
452.43	1920.99
452.63	1966.05
