SpectraSuite Data File
++++++++++++++++++++++++++++++++++++
Date: Wed May 04 22:45:40 CEST 2016
User: root
Dark Spectrum Present: No
Reference Spectrum Present: No
Number of Sampled Component Spectra: 1
Spectrometers: USB4C02835
Integration Time (usec): 100000 (USB4C02835)
Spectra Averaged: 1 (USB4C02835)
Boxcar Smoothing: 0 (USB4C02835)
Correct for Electrical Dark: No (USB4C02835)
Strobe/Lamp Enabled: No (USB4C02835)
Correct for Detector Non-linearity: No (USB4C02835)
Correct for Stray Light: No (USB4C02835)
Number of Pixels in Processed Spectrum: 3648
>>>>>Begin Processed Spectral Data<<<<<
177.47	1628.14
177.69	1628.14
177.91	1628.14
178.13	1634.28
178.36	1595.37
178.58	1865.70
178.80	2064.35
179.02	1923.04
179.24	1898.47
179.46	1859.56
179.68	2021.35
179.90	1982.43
180.13	1992.67
180.35	1869.80
180.57	1914.85
180.79	1964.00
181.01	1964.00
181.23	1982.43
181.45	2023.39
181.67	1947.62
181.90	1980.39
182.12	1908.71
182.34	1787.88
182.56	1990.63
182.78	1966.05
183.00	1869.80
183.22	1943.52
183.44	1800.16
183.66	2172.89
183.89	1990.63
184.11	1959.91
184.33	2074.59
184.55	2082.78
184.77	1957.86
184.99	1890.28
185.21	1865.70
185.43	2183.13
185.65	1904.61
185.87	1929.19
186.10	2093.02
186.32	2125.79
186.54	1920.99
186.76	1933.28
186.98	1994.72
187.20	1918.95
187.42	1863.65
187.64	1945.57
187.86	1949.67
188.08	2035.68
188.30	1904.61
188.52	1923.04
188.75	2105.31
188.97	2035.68
189.19	1892.32
189.41	1927.14
189.63	2004.96
189.85	1982.43
190.07	1880.04
190.29	1877.99
190.51	1955.81
190.73	1832.93
190.95	1974.24
191.17	1920.99
191.39	1867.75
191.61	1894.37
191.84	1888.23
192.06	1968.10
192.28	1802.21
192.50	2138.08
192.72	1953.76
192.94	1929.19
193.16	2035.68
193.38	2037.73
193.60	1841.12
193.82	1880.04
194.04	2050.02
194.26	1988.58
194.48	1875.94
194.70	1900.52
194.92	1929.19
195.14	2056.16
195.36	1900.52
195.58	1902.56
195.80	1964.00
196.02	1904.61
196.24	1943.52
196.46	2037.73
196.69	1812.45
196.91	2195.42
197.13	1923.04
197.35	1888.23
197.57	2021.35
197.79	2019.30
198.01	2023.39
198.23	1961.95
198.45	1968.10
198.67	1925.09
198.89	1898.47
199.11	1943.52
199.33	1904.61
199.55	1751.01
199.77	1843.17
199.99	1980.39
200.21	1961.95
200.43	2017.25
200.65	1855.46
200.87	1761.25
201.09	1939.43
201.31	1849.32
201.53	2033.63
201.75	1972.19
201.97	2047.97
202.19	1998.82
202.41	1941.47
202.63	2043.87
202.85	1923.04
203.07	1974.24
203.29	1920.99
203.51	1964.00
203.73	1912.80
203.95	2164.70
204.17	1927.14
204.39	1904.61
204.61	1957.86
204.83	1929.19
205.05	1976.29
205.27	2013.15
205.49	2097.12
205.71	1990.63
205.93	1888.23
206.15	1857.51
206.37	1970.15
206.59	1941.47
206.81	1855.46
207.03	1794.02
207.25	1918.95
207.47	2056.16
207.69	1945.57
207.91	1957.86
208.13	2054.11
208.34	1900.52
208.56	1898.47
208.78	1935.33
209.00	1900.52
209.22	1906.66
209.44	1939.43
209.66	1820.64
209.88	1904.61
210.10	1961.95
210.32	1908.71
210.54	2027.49
210.76	1982.43
210.98	2058.21
211.20	1863.65
211.42	2000.87
211.64	2029.54
211.86	1902.56
212.08	1974.24
212.30	1990.63
212.52	1996.77
212.74	2027.49
212.96	1957.86
213.17	1992.67
213.39	1974.24
213.61	2093.02
213.83	1892.32
214.05	2007.01
214.27	2054.11
214.49	1947.62
214.71	1908.71
214.93	2023.39
215.15	1959.91
215.37	2019.30
215.59	1816.55
215.81	1976.29
216.03	2103.26
216.24	1900.52
216.46	1955.81
216.68	1990.63
216.90	1961.95
217.12	2021.35
217.34	1884.13
217.56	1918.95
217.78	2066.40
218.00	2021.35
218.22	2015.20
218.44	2004.96
218.66	2031.58
218.87	2082.78
219.09	1882.08
219.31	1937.38
219.53	2013.15
219.75	1986.53
219.97	1925.09
220.19	1908.71
220.41	1912.80
220.63	2056.16
220.85	1984.48
221.06	1910.75
221.28	2056.16
221.50	1943.52
221.72	1951.71
221.94	1896.42
222.16	1964.00
222.38	2033.63
222.60	2015.20
222.82	1918.95
223.03	1865.70
223.25	1914.85
223.47	2047.97
223.69	2111.46
223.91	2045.92
224.13	2086.88
224.35	1894.37
224.57	1947.62
224.78	2074.59
225.00	1929.19
225.22	2025.44
225.44	1927.14
225.66	2101.22
225.88	1947.62
226.10	2039.78
226.32	1900.52
226.53	2129.89
226.75	1941.47
226.97	1890.28
227.19	1961.95
227.41	1951.71
227.63	1880.04
227.85	1783.78
228.06	1966.05
228.28	1980.39
228.50	2039.78
228.72	1822.69
228.94	1880.04
229.16	1851.36
229.37	1861.60
229.59	1867.75
229.81	2074.59
230.03	1863.65
230.25	1896.42
230.47	1847.27
230.69	1849.32
230.90	2015.20
231.12	1906.66
231.34	1861.60
231.56	2017.25
231.78	1902.56
232.00	2017.25
232.21	1908.71
232.43	1953.76
232.65	1824.74
232.87	1968.10
233.09	1800.16
233.30	1898.47
233.52	2054.11
233.74	1912.80
233.96	1996.77
234.18	1970.15
234.40	1943.52
234.61	2203.61
234.83	1877.99
235.05	1918.95
235.27	2215.90
235.49	2029.54
235.70	1955.81
235.92	1961.95
236.14	1939.43
236.36	2103.26
236.58	1861.60
236.79	1978.34
237.01	1964.00
237.23	1980.39
237.45	2127.84
237.67	1941.47
237.88	2052.06
238.10	2074.59
238.32	1927.14
238.54	1916.90
238.76	1886.18
238.97	1816.55
239.19	1904.61
239.41	2056.16
239.63	1988.58
239.85	1886.18
240.06	1937.38
240.28	1865.70
240.50	1986.53
240.72	1941.47
240.93	1884.13
241.15	2107.36
241.37	1959.91
241.59	2136.03
241.81	1906.66
242.02	1943.52
242.24	1974.24
242.46	1974.24
242.68	1898.47
242.89	1892.32
243.11	1998.82
243.33	1937.38
243.55	1984.48
243.76	1984.48
243.98	1892.32
244.20	1939.43
244.42	1964.00
244.64	1957.86
244.85	1873.89
245.07	1863.65
245.29	1953.76
245.51	1957.86
245.72	2004.96
245.94	1970.15
246.16	1953.76
246.38	1986.53
246.59	1959.91
246.81	1865.70
247.03	1886.18
247.24	1849.32
247.46	1947.62
247.68	2021.35
247.90	1894.37
248.11	1904.61
248.33	1931.23
248.55	2025.44
248.77	2007.01
248.98	2050.02
249.20	2166.75
249.42	1933.28
249.64	1920.99
249.85	1933.28
250.07	1968.10
250.29	1888.23
250.50	2019.30
250.72	1867.75
250.94	1957.86
251.16	2080.74
251.37	1902.56
251.59	1976.29
251.81	1986.53
252.02	2101.22
252.24	1951.71
252.46	2009.06
252.68	1867.75
252.89	1923.04
253.11	1781.73
253.33	2033.63
253.54	2002.91
253.76	1947.62
253.98	1941.47
254.20	1918.95
254.41	1894.37
254.63	1968.10
254.85	1843.17
255.06	1966.05
255.28	1988.58
255.50	1939.43
255.71	1798.12
255.93	1900.52
256.15	1980.39
256.36	1986.53
256.58	1920.99
256.80	1992.67
257.02	1990.63
257.23	1943.52
257.45	1947.62
257.67	1988.58
257.88	1959.91
258.10	2074.59
258.32	1939.43
258.53	1978.34
258.75	2082.78
258.97	1894.37
259.18	1943.52
259.40	1904.61
259.62	2093.02
259.83	2050.02
260.05	1978.34
260.27	2265.05
260.48	2023.39
260.70	1894.37
260.92	1906.66
261.13	1884.13
261.35	1976.29
261.57	2037.73
261.78	1853.41
262.00	1949.67
262.22	2041.82
262.43	1914.85
262.65	1920.99
262.86	2013.15
263.08	2107.36
263.30	1947.62
263.51	1853.41
263.73	1935.33
263.95	2068.45
264.16	1894.37
264.38	1857.51
264.60	1990.63
264.81	1937.38
265.03	2009.06
265.25	2097.12
265.46	1964.00
265.68	2119.65
265.89	1974.24
266.11	1814.50
266.33	2023.39
266.54	2031.58
266.76	1970.15
266.98	1906.66
267.19	2064.35
267.41	2019.30
267.62	1939.43
267.84	1851.36
268.06	1937.38
268.27	1970.15
268.49	2076.64
268.70	1947.62
268.92	1898.47
269.14	1912.80
269.35	1910.75
269.57	1943.52
269.79	2013.15
270.00	1927.14
270.22	2039.78
270.43	1953.76
270.65	1734.63
270.87	1964.00
271.08	2068.45
271.30	1970.15
271.51	1951.71
271.73	1957.86
271.95	1996.77
272.16	1888.23
272.38	1925.09
272.59	1935.33
272.81	2086.88
273.02	1980.39
273.24	1968.10
273.46	2035.68
273.67	1843.17
273.89	1873.89
274.10	1923.04
274.32	2082.78
274.54	1929.19
274.75	1923.04
274.97	1894.37
275.18	2021.35
275.40	2054.11
275.61	1890.28
275.83	1996.77
276.05	1843.17
276.26	1953.76
276.48	1953.76
276.69	1892.32
276.91	1961.95
277.12	2105.31
277.34	2056.16
277.55	2056.16
277.77	1955.81
277.99	1927.14
278.20	1845.22
278.42	1828.84
278.63	1875.94
278.85	1927.14
279.06	1937.38
279.28	2060.26
279.49	1957.86
279.71	1935.33
279.93	1998.82
280.14	1871.84
280.36	1826.79
280.57	2019.30
280.79	2064.35
281.00	1912.80
281.22	1875.94
281.43	2076.64
281.65	1849.32
281.86	1964.00
282.08	1988.58
282.29	2058.21
282.51	1943.52
282.73	1914.85
282.94	1867.75
283.16	2019.30
283.37	2052.06
283.59	1949.67
283.80	1994.72
284.02	2039.78
284.23	1972.19
284.45	1886.18
284.66	1839.08
284.88	1855.46
285.09	1947.62
285.31	1992.67
285.52	2037.73
285.74	1865.70
285.95	2043.87
286.17	1994.72
286.38	2070.50
286.60	1886.18
286.81	1943.52
287.03	1849.32
287.24	1935.33
287.46	2009.06
287.67	1918.95
287.89	2064.35
288.10	1937.38
288.32	1972.19
288.53	2082.78
288.75	1943.52
288.96	2029.54
289.18	1845.22
289.39	1892.32
289.61	2025.44
289.82	2043.87
290.04	2103.26
290.25	1896.42
290.47	1918.95
290.68	1871.84
290.90	2004.96
291.11	1828.84
291.33	1966.05
291.54	1890.28
291.76	1953.76
291.97	2033.63
292.18	1925.09
292.40	1988.58
292.61	1873.89
292.83	2146.27
293.04	1968.10
293.26	1916.90
293.47	1957.86
293.69	1861.60
293.90	2023.39
294.12	2062.30
294.33	1914.85
294.55	1898.47
294.76	1996.77
294.97	2025.44
295.19	2088.93
295.40	1896.42
295.62	1929.19
295.83	2101.22
296.05	1916.90
296.26	1984.48
296.48	1947.62
296.69	1978.34
296.90	1941.47
297.12	2062.30
297.33	2062.30
297.55	1908.71
297.76	1955.81
297.98	2019.30
298.19	1972.19
298.41	1925.09
298.62	1877.99
298.83	2064.35
299.05	2004.96
299.26	1961.95
299.48	1920.99
299.69	1955.81
299.90	1966.05
300.12	1925.09
300.33	2011.11
300.55	1968.10
300.76	2078.69
300.98	1837.03
301.19	2052.06
301.40	2004.96
301.62	1986.53
301.83	1894.37
302.05	1929.19
302.26	1947.62
302.47	1988.58
302.69	1920.99
302.90	1941.47
303.12	1755.11
303.33	1951.71
303.54	2076.64
303.76	1888.23
303.97	1986.53
304.19	1990.63
304.40	1906.66
304.61	2068.45
304.83	2146.27
305.04	2052.06
305.26	2029.54
305.47	1873.89
305.68	1957.86
305.90	1947.62
306.11	2011.11
306.33	2021.35
306.54	1898.47
306.75	1910.75
306.97	1857.51
307.18	1857.51
307.39	1834.98
307.61	2002.91
307.82	1947.62
308.04	2041.82
308.25	1906.66
308.46	1978.34
308.68	1972.19
308.89	1953.76
309.10	2070.50
309.32	1951.71
309.53	1902.56
309.74	1966.05
309.96	1927.14
310.17	2093.02
310.39	1984.48
310.60	1984.48
310.81	1964.00
311.03	1920.99
311.24	2013.15
311.45	2013.15
311.67	2054.11
311.88	1916.90
312.09	1992.67
312.31	1914.85
312.52	1974.24
312.73	1912.80
312.95	1918.95
313.16	1832.93
313.37	2002.91
313.59	1998.82
313.80	2068.45
314.01	2041.82
314.23	1929.19
314.44	1966.05
314.65	1814.50
314.87	1906.66
315.08	1890.28
315.29	1877.99
315.51	1849.32
315.72	1847.27
315.93	2088.93
316.15	1990.63
316.36	1847.27
316.57	1961.95
316.79	2009.06
317.00	1949.67
317.21	1957.86
317.43	1918.95
317.64	1931.23
317.85	1869.80
318.07	1908.71
318.28	1957.86
318.49	2148.32
318.70	2189.28
318.92	2109.41
319.13	2164.70
319.34	2242.53
319.56	2062.30
319.77	2095.07
319.98	2129.89
320.20	2023.39
320.41	2060.26
320.62	2025.44
320.83	1902.56
321.05	2152.42
321.26	2023.39
321.47	2015.20
321.69	1986.53
321.90	1818.60
322.11	1918.95
322.32	1986.53
322.54	2027.49
322.75	1927.14
322.96	2119.65
323.18	1845.22
323.39	1775.59
323.60	1869.80
323.81	2004.96
324.03	1964.00
324.24	1990.63
324.45	1955.81
324.66	1974.24
324.88	1966.05
325.09	2047.97
325.30	1992.67
325.52	2033.63
325.73	1951.71
325.94	1912.80
326.15	1841.12
326.37	1884.13
326.58	1970.15
326.79	2090.98
327.00	1855.46
327.22	1988.58
327.43	1925.09
327.64	1892.32
327.85	2017.25
328.07	1976.29
328.28	2074.59
328.49	1994.72
328.70	1945.57
328.92	1892.32
329.13	1947.62
329.34	1927.14
329.55	2154.46
329.76	2015.20
329.98	1953.76
330.19	2066.40
330.40	1980.39
330.61	1974.24
330.83	2037.73
331.04	1927.14
331.25	1927.14
331.46	1964.00
331.68	1851.36
331.89	2062.30
332.10	1906.66
332.31	1898.47
332.52	1953.76
332.74	2076.64
332.95	1822.69
333.16	1939.43
333.37	2025.44
333.58	1935.33
333.80	1982.43
334.01	1857.51
334.22	1914.85
334.43	1953.76
334.64	1892.32
334.86	1961.95
335.07	1892.32
335.28	2084.83
335.49	1892.32
335.70	2068.45
335.92	2031.58
336.13	2097.12
336.34	2023.39
336.55	1920.99
336.76	2043.87
336.98	1855.46
337.19	1900.52
337.40	2080.74
337.61	2133.98
337.82	1935.33
338.04	2062.30
338.25	1867.75
338.46	1972.19
338.67	1925.09
338.88	1849.32
339.09	1869.80
339.31	1945.57
339.52	1916.90
339.73	1910.75
339.94	1927.14
340.15	1941.47
340.36	1923.04
340.58	1916.90
340.79	1841.12
341.00	2037.73
341.21	1904.61
341.42	2119.65
341.63	2015.20
341.85	2025.44
342.06	2047.97
342.27	1820.64
342.48	2009.06
342.69	1869.80
342.90	2015.20
343.12	2013.15
343.33	1927.14
343.54	1994.72
343.75	2068.45
343.96	2000.87
344.17	1880.04
344.38	1916.90
344.60	1920.99
344.81	1900.52
345.02	1974.24
345.23	2041.82
345.44	2101.22
345.65	2039.78
345.86	1937.38
346.07	1834.98
346.29	1947.62
346.50	2029.54
346.71	1984.48
346.92	2027.49
347.13	2113.50
347.34	1964.00
347.55	1959.91
347.76	2039.78
347.98	1847.27
348.19	1972.19
348.40	2125.79
348.61	1894.37
348.82	2064.35
349.03	2007.01
349.24	1902.56
349.45	2140.13
349.66	1877.99
349.88	1959.91
350.09	1943.52
350.30	2078.69
350.51	2017.25
350.72	2052.06
350.93	1976.29
351.14	1863.65
351.35	1996.77
351.56	1953.76
351.77	1959.91
351.99	2076.64
352.20	2115.55
352.41	2023.39
352.62	1880.04
352.83	1953.76
353.04	1941.47
353.25	1927.14
353.46	2027.49
353.67	1968.10
353.88	1871.84
354.09	1986.53
354.30	1939.43
354.52	2000.87
354.73	1990.63
354.94	1900.52
355.15	1964.00
355.36	2168.80
355.57	1980.39
355.78	1964.00
355.99	1861.60
356.20	1986.53
356.41	2013.15
356.62	1982.43
356.83	1914.85
357.04	2027.49
357.25	1845.22
357.46	1933.28
357.68	1873.89
357.89	1947.62
358.10	2002.91
358.31	1896.42
358.52	1943.52
358.73	1882.08
358.94	1837.03
359.15	1951.71
359.36	2023.39
359.57	1898.47
359.78	1978.34
359.99	2029.54
360.20	1869.80
360.41	1947.62
360.62	2009.06
360.83	1984.48
361.04	1994.72
361.25	2082.78
361.46	2080.74
361.67	2013.15
361.88	2017.25
362.09	1986.53
362.30	1964.00
362.51	1974.24
362.72	1890.28
362.93	2070.50
363.14	2013.15
363.35	1966.05
363.56	1886.18
363.78	2068.45
363.99	2009.06
364.20	1920.99
364.41	1966.05
364.62	2097.12
364.83	1927.14
365.04	2004.96
365.25	1959.91
365.46	2144.22
365.67	1955.81
365.88	1957.86
366.09	1900.52
366.30	1855.46
366.51	1980.39
366.72	1851.36
366.93	1992.67
367.14	1982.43
367.35	1992.67
367.56	1941.47
367.77	2105.31
367.98	1925.09
368.18	1984.48
368.39	2056.16
368.60	1896.42
368.81	2037.73
369.02	1986.53
369.23	1951.71
369.44	1841.12
369.65	1925.09
369.86	1955.81
370.07	2004.96
370.28	1871.84
370.49	1939.43
370.70	1968.10
370.91	1988.58
371.12	1859.56
371.33	2047.97
371.54	1978.34
371.75	2064.35
371.96	1849.32
372.17	1978.34
372.38	1986.53
372.59	2029.54
372.80	1951.71
373.01	1970.15
373.22	1974.24
373.43	1980.39
373.64	1886.18
373.85	2086.88
374.06	2047.97
374.26	2058.21
374.47	1972.19
374.68	2146.27
374.89	1955.81
375.10	1925.09
375.31	2017.25
375.52	1988.58
375.73	1953.76
375.94	1920.99
376.15	2072.54
376.36	1871.84
376.57	1910.75
376.78	1939.43
376.99	1972.19
377.20	1996.77
377.40	1923.04
377.61	2133.98
377.82	1877.99
378.03	2025.44
378.24	1994.72
378.45	1992.67
378.66	2000.87
378.87	1871.84
379.08	1904.61
379.29	1966.05
379.50	2054.11
379.71	1931.23
379.91	2076.64
380.12	1875.94
380.33	1923.04
380.54	1894.37
380.75	1943.52
380.96	1918.95
381.17	1984.48
381.38	2011.11
381.59	1980.39
381.80	2054.11
382.00	2131.94
382.21	2109.41
382.42	2189.28
382.63	2181.09
382.84	2068.45
383.05	2078.69
383.26	2037.73
383.47	1974.24
383.68	1986.53
383.88	2015.20
384.09	2029.54
384.30	2095.07
384.51	2025.44
384.72	1955.81
384.93	1863.65
385.14	1968.10
385.35	2058.21
385.55	1828.84
385.76	2080.74
385.97	1949.67
386.18	1894.37
386.39	1945.57
386.60	1890.28
386.81	1978.34
387.02	1861.60
387.22	1918.95
387.43	2107.36
387.64	2013.15
387.85	2103.26
388.06	2195.42
388.27	3936.20
388.48	8511.36
388.68	12058.44
388.89	14421.80
389.10	15587.09
389.31	13991.72
389.52	11108.18
389.73	9557.87
389.93	8519.55
390.14	7939.97
390.35	7212.95
390.56	6453.15
390.77	5255.09
390.98	4067.27
391.18	3180.50
391.39	2490.33
391.60	2168.80
391.81	2123.74
392.02	2000.87
392.23	2187.23
392.43	2033.63
392.64	1980.39
392.85	1884.13
393.06	2074.59
393.27	1925.09
393.47	1867.75
393.68	1957.86
393.89	1964.00
394.10	2050.02
394.31	1894.37
394.52	1923.04
394.72	1904.61
394.93	2088.93
395.14	1949.67
395.35	1976.29
395.56	1972.19
395.76	2060.26
395.97	2021.35
396.18	2086.88
396.39	2164.70
396.60	2422.75
396.80	2168.80
397.01	2193.37
397.22	2097.12
397.43	2181.09
397.64	1970.15
397.84	2086.88
398.05	2174.94
398.26	1982.43
398.47	2076.64
398.67	2013.15
398.88	2033.63
399.09	1976.29
399.30	1914.85
399.51	2076.64
399.71	1892.32
399.92	1830.88
400.13	1992.67
400.34	2015.20
400.54	1898.47
400.75	2111.46
400.96	2004.96
401.17	2152.42
401.37	2000.87
401.58	1949.67
401.79	1941.47
402.00	2054.11
402.21	2240.48
402.41	2258.91
402.62	2314.20
402.83	2373.60
403.04	2357.21
403.24	2467.80
403.45	2138.08
403.66	2308.06
403.87	2181.09
404.07	2156.51
404.28	2254.81
404.49	2181.09
404.70	2070.50
404.90	2090.98
405.11	1992.67
405.32	2082.78
405.52	1923.04
405.73	1927.14
405.94	1947.62
406.15	2004.96
406.35	2039.78
406.56	1996.77
406.77	2052.06
406.98	1988.58
407.18	1814.50
407.39	2011.11
407.60	1931.23
407.80	1990.63
408.01	1869.80
408.22	1996.77
408.43	1904.61
408.63	1945.57
408.84	2027.49
409.05	2045.92
409.25	1910.75
409.46	1943.52
409.67	1953.76
409.88	1947.62
410.08	1982.43
410.29	1914.85
410.50	1998.82
410.70	1990.63
410.91	1822.69
411.12	1990.63
411.32	1982.43
411.53	1869.80
411.74	2029.54
411.95	2099.17
412.15	2074.59
412.36	2121.70
412.57	2117.60
412.77	2146.27
412.98	1992.67
413.19	2017.25
413.39	2035.68
413.60	2025.44
413.81	2099.17
414.01	1984.48
414.22	1955.81
414.43	2058.21
414.63	1900.52
414.84	1994.72
415.05	1964.00
415.25	1861.60
415.46	2039.78
415.67	1943.52
415.87	1998.82
416.08	1961.95
416.29	1933.28
416.49	1992.67
416.70	1925.09
416.91	1898.47
417.11	1964.00
417.32	1920.99
417.53	2070.50
417.73	2013.15
417.94	1957.86
418.15	2109.41
418.35	2070.50
418.56	1996.77
418.77	2148.32
418.97	1998.82
419.18	1970.15
419.38	1783.78
419.59	1951.71
419.80	2099.17
420.00	1923.04
420.21	1974.24
420.42	2095.07
420.62	1959.91
420.83	1861.60
421.04	1953.76
421.24	1929.19
421.45	2019.30
421.65	1959.91
421.86	1884.13
422.07	1998.82
422.27	1992.67
422.48	1931.23
422.69	1927.14
422.89	1929.19
423.10	1945.57
423.30	1886.18
423.51	1994.72
423.72	2017.25
423.92	2066.40
424.13	1847.27
424.33	1976.29
424.54	1988.58
424.75	1939.43
424.95	2086.88
425.16	1986.53
425.36	1884.13
425.57	2070.50
425.78	2062.30
425.98	2013.15
426.19	1859.56
426.39	1916.90
426.60	1982.43
426.81	2027.49
427.01	1964.00
427.22	1910.75
427.42	1822.69
427.63	1978.34
427.83	1982.43
428.04	2140.13
428.25	2027.49
428.45	2033.63
428.66	2103.26
428.86	1970.15
429.07	1959.91
429.28	1970.15
429.48	1957.86
429.69	1880.04
429.89	1982.43
430.10	1933.28
430.30	1939.43
430.51	1959.91
430.71	1980.39
430.92	1968.10
431.13	1920.99
431.33	2011.11
431.54	1990.63
431.74	2113.50
431.95	2172.89
432.15	1861.60
432.36	1970.15
432.56	2129.89
432.77	2074.59
432.98	2154.46
433.18	2047.97
433.39	1904.61
433.59	1935.33
433.80	2058.21
434.00	2076.64
434.21	1970.15
434.41	1906.66
434.62	2133.98
434.82	1908.71
435.03	1912.80
435.23	1972.19
435.44	1832.93
435.64	1908.71
435.85	1998.82
436.06	2031.58
436.26	2023.39
436.47	1933.28
436.67	1957.86
436.88	1890.28
437.08	2027.49
437.29	2054.11
437.49	2107.36
437.70	2033.63
437.90	1927.14
438.11	2119.65
438.31	2088.93
438.52	2189.28
438.72	2207.71
438.93	2193.37
439.13	2074.59
439.34	2148.32
439.54	2037.73
439.75	2097.12
439.95	2029.54
440.16	2019.30
440.36	2004.96
440.57	2097.12
440.77	2107.36
440.98	1972.19
441.18	1980.39
441.39	1992.67
441.59	1884.13
441.80	2099.17
442.00	2002.91
442.21	2060.26
442.41	1816.55
442.62	2072.54
442.82	1920.99
443.02	1949.67
443.23	1990.63
443.43	1994.72
443.64	2090.98
443.84	1943.52
444.05	2027.49
444.25	1978.34
444.46	1966.05
444.66	1927.14
444.87	2107.36
445.07	1869.80
445.28	1933.28
445.48	2060.26
445.69	2009.06
445.89	2154.46
446.09	1968.10
446.30	2195.42
446.50	2703.32
446.71	4194.24
446.91	5259.18
447.12	6127.52
447.32	6428.57
447.53	6084.52
447.73	4880.31
447.93	4417.47
448.14	3950.53
448.34	3798.98
448.55	3483.59
448.75	3358.67
448.96	3133.39
449.16	2940.88
449.36	2580.44
449.57	2338.78
449.77	2086.88
449.98	2082.78
450.18	2025.44
450.39	2047.97
450.59	2058.21
450.79	1988.58
451.00	1935.33
451.20	2000.87
451.41	2007.01
451.61	2021.35
451.81	1988.58
452.02	1900.52
452.22	1976.29
452.43	1904.61
452.63	1951.71
