SpectraSuite Data File
++++++++++++++++++++++++++++++++++++
Date: Wed May 04 22:45:41 CEST 2016
User: root
Dark Spectrum Present: No
Reference Spectrum Present: No
Number of Sampled Component Spectra: 1
Spectrometers: USB4C02835
Integration Time (usec): 100000 (USB4C02835)
Spectra Averaged: 1 (USB4C02835)
Boxcar Smoothing: 0 (USB4C02835)
Correct for Electrical Dark: No (USB4C02835)
Strobe/Lamp Enabled: No (USB4C02835)
Correct for Detector Non-linearity: No (USB4C02835)
Correct for Stray Light: No (USB4C02835)
Number of Pixels in Processed Spectrum: 3648
>>>>>Begin Processed Spectral Data<<<<<
177.47	1578.98
177.69	1578.98
177.91	1578.98
178.13	1634.28
178.36	1548.26
178.58	1859.56
178.80	1976.29
179.02	1789.92
179.24	1882.08
179.46	1882.08
179.68	1998.82
179.90	1992.67
180.13	1994.72
180.35	1880.04
180.57	1929.19
180.79	1968.10
181.01	1980.39
181.23	1980.39
181.45	2054.11
181.67	2009.06
181.90	1959.91
182.12	1906.66
182.34	1837.03
182.56	2004.96
182.78	1970.15
183.00	1884.13
183.22	1945.57
183.44	1816.55
183.66	2168.80
183.89	2062.30
184.11	1925.09
184.33	1988.58
184.55	2027.49
184.77	1957.86
184.99	1912.80
185.21	1957.86
185.43	2174.94
185.65	1898.47
185.87	2007.01
186.10	2090.98
186.32	2142.18
186.54	1955.81
186.76	1939.43
186.98	2033.63
187.20	1910.75
187.42	1918.95
187.64	1966.05
187.86	1974.24
188.08	2082.78
188.30	1904.61
188.52	1898.47
188.75	2021.35
188.97	2056.16
189.19	1851.36
189.41	1918.95
189.63	2009.06
189.85	1951.71
190.07	1847.27
190.29	1863.65
190.51	2002.91
190.73	1824.74
190.95	2013.15
191.17	1931.23
191.39	1794.02
191.61	2007.01
191.84	1974.24
192.06	1955.81
192.28	1888.23
192.50	2244.57
192.72	1976.29
192.94	1943.52
193.16	2035.68
193.38	1986.53
193.60	1859.56
193.82	1859.56
194.04	2072.54
194.26	1859.56
194.48	2011.11
194.70	1837.03
194.92	2002.91
195.14	1939.43
195.36	1984.48
195.58	1984.48
195.80	2004.96
196.02	1931.23
196.24	1923.04
196.46	2011.11
196.69	1861.60
196.91	2148.32
197.13	1873.89
197.35	1912.80
197.57	2082.78
197.79	2037.73
198.01	1943.52
198.23	1988.58
198.45	2025.44
198.67	1814.50
198.89	1951.71
199.11	1923.04
199.33	1943.52
199.55	1734.63
199.77	1964.00
199.99	2004.96
200.21	1914.85
200.43	1949.67
200.65	1906.66
200.87	1804.26
201.09	1939.43
201.31	1918.95
201.53	2027.49
201.75	1933.28
201.97	1970.15
202.19	1920.99
202.41	2070.50
202.63	2052.06
202.85	1992.67
203.07	1961.95
203.29	1910.75
203.51	1937.38
203.73	1902.56
203.95	2121.70
204.17	1918.95
204.39	1984.48
204.61	1920.99
204.83	1945.57
205.05	1988.58
205.27	2000.87
205.49	2080.74
205.71	2004.96
205.93	1855.46
206.15	1824.74
206.37	1994.72
206.59	1923.04
206.81	1845.22
207.03	1855.46
207.25	1941.47
207.47	1994.72
207.69	1912.80
207.91	2103.26
208.13	2029.54
208.34	1947.62
208.56	1832.93
208.78	1955.81
209.00	1933.28
209.22	1964.00
209.44	1929.19
209.66	1916.90
209.88	1957.86
210.10	1925.09
210.32	1935.33
210.54	2004.96
210.76	1933.28
210.98	2025.44
211.20	1777.64
211.42	1970.15
211.64	2111.46
211.86	1961.95
212.08	1865.70
212.30	1929.19
212.52	1972.19
212.74	1937.38
212.96	1964.00
213.17	2033.63
213.39	1982.43
213.61	2023.39
213.83	1900.52
214.05	1884.13
214.27	2047.97
214.49	1884.13
214.71	1904.61
214.93	1964.00
215.15	1941.47
215.37	2011.11
215.59	1834.98
215.81	1957.86
216.03	2103.26
216.24	1929.19
216.46	1906.66
216.68	1910.75
216.90	2060.26
217.12	2054.11
217.34	1912.80
217.56	1970.15
217.78	2080.74
218.00	1994.72
218.22	2011.11
218.44	1953.76
218.66	1968.10
218.87	2090.98
219.09	1961.95
219.31	1992.67
219.53	2023.39
219.75	1910.75
219.97	1945.57
220.19	1892.32
220.41	1894.37
220.63	1988.58
220.85	1937.38
221.06	1912.80
221.28	2060.26
221.50	1998.82
221.72	1992.67
221.94	1880.04
222.16	1935.33
222.38	1988.58
222.60	1923.04
222.82	1957.86
223.03	1966.05
223.25	1843.17
223.47	2025.44
223.69	2093.02
223.91	2058.21
224.13	1929.19
224.35	1927.14
224.57	2045.92
224.78	1941.47
225.00	1886.18
225.22	1984.48
225.44	1935.33
225.66	2041.82
225.88	1992.67
226.10	2019.30
226.32	1900.52
226.53	2037.73
226.75	1945.57
226.97	1976.29
227.19	1980.39
227.41	1980.39
227.63	1947.62
227.85	1935.33
228.06	1933.28
228.28	1998.82
228.50	2023.39
228.72	1859.56
228.94	1943.52
229.16	1857.51
229.37	1888.23
229.59	1890.28
229.81	2019.30
230.03	1929.19
230.25	1871.84
230.47	1886.18
230.69	1812.45
230.90	2043.87
231.12	1902.56
231.34	1945.57
231.56	2033.63
231.78	1873.89
232.00	1949.67
232.21	1914.85
232.43	2009.06
232.65	1826.79
232.87	1988.58
233.09	1902.56
233.30	1884.13
233.52	1972.19
233.74	1943.52
233.96	1914.85
234.18	1959.91
234.40	1957.86
234.61	2136.03
234.83	1834.98
235.05	1816.55
235.27	2209.76
235.49	2109.41
235.70	1980.39
235.92	2082.78
236.14	2047.97
236.36	2138.08
236.58	1861.60
236.79	1984.48
237.01	1894.37
237.23	1937.38
237.45	2086.88
237.67	1865.70
237.88	1982.43
238.10	2064.35
238.32	1871.84
238.54	1916.90
238.76	1935.33
238.97	1900.52
239.19	1914.85
239.41	2000.87
239.63	2025.44
239.85	1853.41
240.06	1959.91
240.28	1892.32
240.50	1980.39
240.72	2015.20
240.93	1851.36
241.15	1988.58
241.37	2035.68
241.59	2068.45
241.81	1904.61
242.02	1869.80
242.24	1959.91
242.46	2054.11
242.68	1908.71
242.89	1916.90
243.11	2021.35
243.33	2011.11
243.55	1931.23
243.76	1937.38
243.98	1931.23
244.20	1890.28
244.42	1957.86
244.64	2029.54
244.85	1767.40
245.07	1886.18
245.29	1961.95
245.51	1941.47
245.72	1927.14
245.94	2054.11
246.16	1955.81
246.38	1949.67
246.59	1931.23
246.81	1927.14
247.03	1892.32
247.24	1853.41
247.46	1949.67
247.68	1978.34
247.90	1900.52
248.11	1980.39
248.33	2017.25
248.55	1984.48
248.77	1935.33
248.98	2004.96
249.20	2004.96
249.42	2011.11
249.64	1974.24
249.85	1988.58
250.07	1972.19
250.29	2009.06
250.50	1908.71
250.72	1869.80
250.94	2064.35
251.16	2097.12
251.37	1923.04
251.59	1957.86
251.81	1994.72
252.02	2058.21
252.24	1896.42
252.46	2000.87
252.68	1914.85
252.89	1957.86
253.11	1834.98
253.33	1998.82
253.54	2086.88
253.76	1837.03
253.98	1976.29
254.20	1929.19
254.41	1888.23
254.63	1896.42
254.85	1818.60
255.06	1970.15
255.28	2002.91
255.50	1931.23
255.71	1882.08
255.93	1875.94
256.15	1943.52
256.36	1906.66
256.58	1904.61
256.80	1951.71
257.02	2035.68
257.23	1947.62
257.45	1966.05
257.67	2039.78
257.88	1882.08
258.10	2002.91
258.32	1982.43
258.53	1937.38
258.75	2097.12
258.97	1882.08
259.18	1941.47
259.40	1877.99
259.62	2142.18
259.83	2052.06
260.05	2009.06
260.27	2289.63
260.48	1994.72
260.70	1916.90
260.92	1906.66
261.13	1976.29
261.35	1992.67
261.57	2013.15
261.78	1892.32
262.00	1904.61
262.22	2021.35
262.43	1916.90
262.65	1904.61
262.86	1951.71
263.08	2113.50
263.30	1914.85
263.51	1804.26
263.73	1947.62
263.95	2066.40
264.16	1869.80
264.38	1824.74
264.60	1875.94
264.81	1941.47
265.03	2056.16
265.25	2025.44
265.46	1970.15
265.68	2074.59
265.89	2050.02
266.11	1812.45
266.33	2009.06
266.54	1988.58
266.76	1943.52
266.98	2023.39
267.19	2021.35
267.41	2025.44
267.62	1945.57
267.84	1820.64
268.06	1980.39
268.27	1986.53
268.49	2043.87
268.70	1935.33
268.92	1964.00
269.14	1896.42
269.35	1914.85
269.57	1898.47
269.79	2023.39
270.00	1865.70
270.22	2025.44
270.43	1824.74
270.65	1785.83
270.87	1923.04
271.08	1959.91
271.30	1976.29
271.51	1892.32
271.73	2013.15
271.95	1990.63
272.16	1982.43
272.38	1941.47
272.59	1916.90
272.81	1951.71
273.02	1972.19
273.24	1994.72
273.46	2054.11
273.67	1882.08
273.89	1875.94
274.10	1904.61
274.32	2066.40
274.54	1994.72
274.75	1908.71
274.97	1896.42
275.18	1976.29
275.40	1998.82
275.61	1929.19
275.83	1959.91
276.05	1865.70
276.26	1951.71
276.48	1976.29
276.69	1943.52
276.91	1947.62
277.12	2099.17
277.34	2050.02
277.55	2035.68
277.77	1900.52
277.99	1988.58
278.20	1820.64
278.42	1853.41
278.63	1943.52
278.85	1910.75
279.06	1875.94
279.28	2015.20
279.49	1968.10
279.71	1949.67
279.93	1882.08
280.14	1904.61
280.36	1859.56
280.57	2056.16
280.79	2043.87
281.00	1900.52
281.22	1845.22
281.43	2033.63
281.65	1843.17
281.86	1894.37
282.08	1974.24
282.29	2123.74
282.51	1937.38
282.73	1816.55
282.94	1861.60
283.16	2029.54
283.37	2129.89
283.59	1871.84
283.80	1976.29
284.02	1998.82
284.23	1949.67
284.45	1976.29
284.66	1841.12
284.88	1945.57
285.09	1957.86
285.31	1968.10
285.52	2029.54
285.74	1810.40
285.95	2031.58
286.17	1996.77
286.38	1998.82
286.60	1902.56
286.81	1884.13
287.03	1904.61
287.24	1925.09
287.46	1994.72
287.67	1959.91
287.89	2045.92
288.10	1914.85
288.32	1961.95
288.53	2072.54
288.75	1986.53
288.96	1939.43
289.18	1920.99
289.39	1918.95
289.61	1968.10
289.82	2107.36
290.04	2123.74
290.25	1892.32
290.47	1968.10
290.68	1955.81
290.90	1976.29
291.11	1824.74
291.33	2066.40
291.54	1894.37
291.76	1910.75
291.97	1908.71
292.18	1935.33
292.40	1994.72
292.61	1955.81
292.83	2068.45
293.04	1918.95
293.26	1978.34
293.47	1980.39
293.69	1908.71
293.90	1990.63
294.12	2064.35
294.33	1994.72
294.55	2047.97
294.76	1996.77
294.97	2084.83
295.19	2148.32
295.40	2000.87
295.62	1931.23
295.83	2070.50
296.05	1927.14
296.26	2103.26
296.48	2031.58
296.69	1982.43
296.90	2002.91
297.12	2050.02
297.33	2045.92
297.55	1951.71
297.76	1953.76
297.98	2041.82
298.19	1951.71
298.41	1939.43
298.62	1986.53
298.83	2031.58
299.05	1923.04
299.26	1914.85
299.48	1894.37
299.69	1951.71
299.90	1943.52
300.12	1914.85
300.33	2011.11
300.55	2004.96
300.76	1994.72
300.98	1871.84
301.19	2002.91
301.40	1961.95
301.62	2029.54
301.83	2054.11
302.05	2045.92
302.26	1994.72
302.47	1943.52
302.69	1859.56
302.90	1937.38
303.12	1816.55
303.33	2002.91
303.54	2113.50
303.76	1914.85
303.97	2054.11
304.19	2068.45
304.40	1841.12
304.61	1984.48
304.83	2152.42
305.04	1947.62
305.26	1951.71
305.47	1914.85
305.68	1966.05
305.90	1816.55
306.11	2047.97
306.33	2029.54
306.54	1902.56
306.75	1865.70
306.97	1812.45
307.18	1873.89
307.39	1861.60
307.61	1961.95
307.82	1939.43
308.04	1961.95
308.25	1931.23
308.46	1953.76
308.68	1986.53
308.89	1916.90
309.10	2050.02
309.32	2007.01
309.53	1898.47
309.74	1931.23
309.96	1884.13
310.17	1984.48
310.39	1939.43
310.60	1964.00
310.81	1990.63
311.03	1857.51
311.24	2052.06
311.45	1880.04
311.67	2064.35
311.88	2009.06
312.09	1964.00
312.31	1929.19
312.52	1888.23
312.73	1959.91
312.95	1875.94
313.16	1834.98
313.37	2011.11
313.59	1994.72
313.80	2017.25
314.01	2109.41
314.23	1966.05
314.44	1912.80
314.65	1884.13
314.87	1853.41
315.08	1873.89
315.29	1871.84
315.51	1839.08
315.72	1841.12
315.93	2062.30
316.15	2021.35
316.36	1873.89
316.57	1898.47
316.79	1964.00
317.00	1947.62
317.21	2011.11
317.43	1978.34
317.64	1892.32
317.85	1935.33
318.07	1925.09
318.28	2017.25
318.49	2082.78
318.70	2306.01
318.92	2160.61
319.13	2105.31
319.34	2170.85
319.56	2105.31
319.77	2080.74
319.98	2097.12
320.20	2095.07
320.41	2103.26
320.62	2043.87
320.83	1865.70
321.05	2191.33
321.26	1916.90
321.47	1908.71
321.69	2015.20
321.90	1943.52
322.11	1824.74
322.32	1923.04
322.54	2086.88
322.75	1890.28
322.96	2207.71
323.18	1904.61
323.39	1794.02
323.60	1912.80
323.81	2015.20
324.03	1853.41
324.24	1910.75
324.45	1964.00
324.66	1845.22
324.88	2099.17
325.09	2056.16
325.30	1920.99
325.52	1916.90
325.73	1984.48
325.94	1945.57
326.15	1906.66
326.37	1986.53
326.58	2015.20
326.79	2117.60
327.00	1882.08
327.22	2021.35
327.43	1888.23
327.64	1886.18
327.85	1970.15
328.07	2023.39
328.28	2115.55
328.49	1968.10
328.70	1964.00
328.92	1902.56
329.13	1898.47
329.34	1957.86
329.55	2101.22
329.76	2095.07
329.98	1957.86
330.19	2027.49
330.40	1998.82
330.61	1968.10
330.83	1988.58
331.04	1959.91
331.25	1982.43
331.46	1925.09
331.68	1877.99
331.89	2088.93
332.10	1953.76
332.31	1841.12
332.52	1945.57
332.74	2027.49
332.95	1880.04
333.16	1918.95
333.37	1929.19
333.58	1875.94
333.80	2021.35
334.01	1839.08
334.22	1955.81
334.43	1906.66
334.64	1857.51
334.86	1755.11
335.07	1966.05
335.28	2066.40
335.49	1841.12
335.70	2021.35
335.92	2021.35
336.13	2101.22
336.34	1933.28
336.55	1939.43
336.76	1978.34
336.98	1845.22
337.19	2031.58
337.40	2095.07
337.61	2121.70
337.82	1892.32
338.04	1988.58
338.25	1810.40
338.46	1920.99
338.67	1953.76
338.88	1912.80
339.09	1923.04
339.31	1880.04
339.52	1888.23
339.73	1896.42
339.94	2062.30
340.15	1998.82
340.36	1970.15
340.58	2029.54
340.79	1943.52
341.00	2050.02
341.21	1943.52
341.42	2119.65
341.63	1918.95
341.85	2047.97
342.06	1959.91
342.27	1845.22
342.48	2062.30
342.69	1867.75
342.90	1988.58
343.12	2002.91
343.33	1986.53
343.54	2058.21
343.75	2068.45
343.96	1886.18
344.17	1845.22
344.38	1927.14
344.60	1847.27
344.81	1857.51
345.02	1935.33
345.23	1953.76
345.44	2187.23
345.65	2023.39
345.86	2002.91
346.07	1998.82
346.29	1890.28
346.50	2011.11
346.71	2062.30
346.92	2086.88
347.13	2050.02
347.34	1933.28
347.55	1957.86
347.76	2021.35
347.98	1855.46
348.19	1931.23
348.40	2056.16
348.61	1957.86
348.82	2023.39
349.03	1980.39
349.24	1894.37
349.45	2017.25
349.66	1730.53
349.88	1906.66
350.09	1959.91
350.30	2103.26
350.51	2117.60
350.72	1964.00
350.93	2013.15
351.14	1892.32
351.35	2017.25
351.56	1910.75
351.77	1896.42
351.99	1966.05
352.20	1994.72
352.41	2009.06
352.62	1812.45
352.83	1861.60
353.04	1943.52
353.25	1904.61
353.46	2056.16
353.67	2015.20
353.88	1771.49
354.09	1943.52
354.30	2019.30
354.52	1945.57
354.73	1888.23
354.94	1920.99
355.15	1943.52
355.36	2113.50
355.57	1976.29
355.78	1955.81
355.99	1910.75
356.20	1931.23
356.41	2066.40
356.62	2031.58
356.83	2041.82
357.04	1964.00
357.25	1841.12
357.46	1982.43
357.68	1822.69
357.89	1853.41
358.10	2090.98
358.31	1937.38
358.52	1906.66
358.73	1863.65
358.94	1859.56
359.15	1945.57
359.36	1929.19
359.57	1939.43
359.78	1941.47
359.99	2019.30
360.20	1886.18
360.41	1959.91
360.62	2015.20
360.83	1984.48
361.04	2015.20
361.25	1974.24
361.46	2172.89
361.67	2033.63
361.88	2054.11
362.09	2086.88
362.30	1974.24
362.51	1955.81
362.72	1974.24
362.93	2025.44
363.14	2066.40
363.35	1937.38
363.56	1943.52
363.78	2086.88
363.99	2011.11
364.20	1929.19
364.41	2064.35
364.62	2123.74
364.83	2052.06
365.04	1943.52
365.25	1945.57
365.46	2154.46
365.67	1820.64
365.88	1947.62
366.09	1929.19
366.30	1918.95
366.51	2080.74
366.72	1857.51
366.93	1964.00
367.14	1906.66
367.35	2072.54
367.56	1945.57
367.77	2041.82
367.98	1953.76
368.18	1988.58
368.39	2021.35
368.60	1904.61
368.81	1953.76
369.02	2000.87
369.23	1894.37
369.44	1783.78
369.65	1894.37
369.86	2054.11
370.07	2002.91
370.28	1933.28
370.49	1943.52
370.70	2017.25
370.91	1877.99
371.12	1849.32
371.33	2031.58
371.54	1925.09
371.75	2101.22
371.96	1830.88
372.17	1935.33
372.38	1857.51
372.59	2013.15
372.80	1861.60
373.01	1992.67
373.22	2021.35
373.43	1943.52
373.64	1894.37
373.85	2062.30
374.06	2052.06
374.26	2052.06
374.47	2068.45
374.68	2101.22
374.89	1939.43
375.10	1980.39
375.31	2019.30
375.52	1982.43
375.73	1968.10
375.94	1900.52
376.15	2088.93
376.36	1945.57
376.57	1898.47
376.78	1931.23
376.99	1929.19
377.20	1988.58
377.40	1877.99
377.61	2029.54
377.82	1804.26
378.03	2068.45
378.24	1970.15
378.45	1992.67
378.66	1998.82
378.87	1824.74
379.08	1871.84
379.29	1968.10
379.50	2023.39
379.71	1953.76
379.91	1990.63
380.12	1933.28
380.33	1984.48
380.54	1923.04
380.75	1957.86
380.96	1933.28
381.17	2074.59
381.38	1933.28
381.59	1990.63
381.80	1941.47
382.00	2168.80
382.21	2062.30
382.42	2097.12
382.63	2187.23
382.84	1982.43
383.05	1970.15
383.26	2117.60
383.47	1927.14
383.68	2017.25
383.88	2029.54
384.09	2107.36
384.30	2080.74
384.51	2058.21
384.72	1888.23
384.93	1861.60
385.14	1980.39
385.35	2033.63
385.55	1867.75
385.76	2017.25
385.97	1951.71
386.18	1884.13
386.39	1871.84
386.60	1972.19
386.81	1920.99
387.02	1853.41
387.22	1959.91
387.43	2019.30
387.64	2019.30
387.85	2162.66
388.06	2256.86
388.27	3981.25
388.48	8601.47
388.68	11878.22
388.89	14489.38
389.10	15394.58
389.31	14083.88
389.52	11065.18
389.73	9748.33
389.93	8449.92
390.14	7792.52
390.35	7083.92
390.56	6473.63
390.77	5435.31
390.98	4165.57
391.18	3172.30
391.39	2559.96
391.60	2170.85
391.81	2162.66
392.02	1929.19
392.23	2166.75
392.43	1968.10
392.64	2117.60
392.85	1970.15
393.06	2068.45
393.27	2056.16
393.47	1910.75
393.68	1978.34
393.89	1959.91
394.10	2035.68
394.31	2000.87
394.52	1914.85
394.72	1865.70
394.93	2154.46
395.14	1824.74
395.35	1964.00
395.56	1916.90
395.76	1986.53
395.97	2090.98
396.18	2158.56
396.39	2095.07
396.60	2359.26
396.80	2203.61
397.01	2195.42
397.22	2093.02
397.43	2162.66
397.64	1990.63
397.84	2019.30
398.05	2211.81
398.26	1998.82
398.47	2086.88
398.67	2109.41
398.88	1923.04
399.09	2000.87
399.30	2031.58
399.51	2039.78
399.71	1918.95
399.92	1996.77
400.13	1986.53
400.34	1976.29
400.54	1914.85
400.75	2105.31
400.96	1980.39
401.17	2088.93
401.37	2004.96
401.58	1992.67
401.79	1992.67
402.00	2082.78
402.21	2248.67
402.41	2297.82
402.62	2357.21
402.83	2447.32
403.04	2402.27
403.24	2475.99
403.45	2207.71
403.66	2234.33
403.87	2111.46
404.07	2209.76
404.28	2228.19
404.49	2140.13
404.70	2056.16
404.90	2117.60
405.11	1978.34
405.32	2009.06
405.52	1925.09
405.73	1957.86
405.94	1920.99
406.15	1986.53
406.35	2025.44
406.56	1996.77
406.77	2002.91
406.98	1902.56
407.18	1918.95
407.39	2021.35
407.60	1941.47
407.80	1877.99
408.01	1890.28
408.22	2031.58
408.43	1914.85
408.63	1906.66
408.84	1957.86
409.05	2039.78
409.25	1861.60
409.46	1912.80
409.67	1988.58
409.88	1945.57
410.08	1976.29
410.29	1890.28
410.50	2015.20
410.70	2007.01
410.91	1857.51
411.12	1980.39
411.32	1890.28
411.53	1923.04
411.74	2209.76
411.95	2070.50
412.15	2062.30
412.36	2144.22
412.57	2062.30
412.77	2095.07
412.98	2082.78
413.19	1933.28
413.39	2084.83
413.60	1988.58
413.81	2142.18
414.01	1988.58
414.22	2043.87
414.43	1982.43
414.63	1920.99
414.84	2082.78
415.05	2002.91
415.25	1871.84
415.46	2033.63
415.67	1945.57
415.87	1998.82
416.08	1947.62
416.29	1980.39
416.49	2019.30
416.70	1918.95
416.91	1957.86
417.11	2027.49
417.32	2025.44
417.53	2062.30
417.73	1955.81
417.94	1857.51
418.15	2009.06
418.35	1939.43
418.56	1925.09
418.77	2136.03
418.97	1935.33
419.18	1873.89
419.38	1845.22
419.59	1943.52
419.80	2062.30
420.00	1888.23
420.21	1970.15
420.42	2037.73
420.62	2000.87
420.83	1914.85
421.04	1916.90
421.24	1912.80
421.45	1968.10
421.65	2007.01
421.86	1939.43
422.07	2015.20
422.27	2004.96
422.48	1966.05
422.69	1875.94
422.89	1925.09
423.10	1861.60
423.30	1859.56
423.51	2035.68
423.72	1990.63
423.92	2060.26
424.13	1920.99
424.33	2009.06
424.54	1964.00
424.75	2019.30
424.95	2097.12
425.16	2041.82
425.36	1898.47
425.57	2025.44
425.78	2076.64
425.98	2107.36
426.19	1918.95
426.39	1894.37
426.60	1910.75
426.81	2062.30
427.01	1939.43
427.22	1892.32
427.42	1869.80
427.63	1925.09
427.83	1955.81
428.04	2099.17
428.25	2052.06
428.45	2072.54
428.66	1964.00
428.86	2002.91
429.07	1933.28
429.28	2007.01
429.48	1976.29
429.69	1908.71
429.89	1959.91
430.10	1875.94
430.30	2037.73
430.51	2039.78
430.71	1923.04
430.92	1949.67
431.13	1937.38
431.33	2037.73
431.54	1914.85
431.74	2041.82
431.95	2070.50
432.15	1896.42
432.36	1951.71
432.56	2068.45
432.77	2072.54
432.98	2074.59
433.18	1941.47
433.39	1986.53
433.59	1980.39
433.80	2115.55
434.00	2093.02
434.21	1916.90
434.41	1964.00
434.62	2142.18
434.82	1867.75
435.03	1904.61
435.23	1990.63
435.44	1830.88
435.64	1957.86
435.85	2004.96
436.06	2047.97
436.26	1918.95
436.47	1923.04
436.67	1953.76
436.88	2011.11
437.08	2144.22
437.29	2117.60
437.49	1949.67
437.70	2111.46
437.90	1894.37
438.11	2144.22
438.31	2060.26
438.52	2195.42
438.72	2158.56
438.93	2185.18
439.13	2082.78
439.34	2084.83
439.54	2054.11
439.75	2088.93
439.95	2027.49
440.16	1898.47
440.36	2029.54
440.57	2031.58
440.77	1986.53
440.98	2027.49
441.18	2013.15
441.39	1929.19
441.59	1865.70
441.80	2205.66
442.00	1970.15
442.21	2025.44
442.41	1869.80
442.62	1945.57
442.82	1927.14
443.02	1998.82
443.23	1951.71
443.43	1992.67
443.64	2054.11
443.84	1906.66
444.05	2103.26
444.25	1974.24
444.46	2000.87
444.66	2002.91
444.87	2070.50
445.07	1859.56
445.28	1980.39
445.48	2064.35
445.69	2150.37
445.89	2162.66
446.09	2025.44
446.30	2248.67
446.50	2660.31
446.71	4286.40
446.91	5408.69
447.12	6270.88
447.32	6502.30
447.53	5939.11
447.73	4765.62
447.93	4265.92
448.14	3985.35
448.34	3856.33
448.55	3383.24
448.75	3309.52
448.96	3250.13
449.16	2863.06
449.36	2680.79
449.57	2404.32
449.77	2133.98
449.98	1984.48
450.18	2004.96
450.39	2113.50
450.59	1996.77
450.79	1920.99
451.00	1972.19
451.20	2035.68
451.41	1933.28
451.61	1943.52
451.81	1992.67
452.02	1978.34
452.22	1886.18
452.43	1900.52
452.63	1935.33
