SpectraSuite Data File
++++++++++++++++++++++++++++++++++++
Date: Wed May 04 22:45:39 CEST 2016
User: root
Dark Spectrum Present: No
Reference Spectrum Present: No
Number of Sampled Component Spectra: 1
Spectrometers: USB4C02835
Integration Time (usec): 100000 (USB4C02835)
Spectra Averaged: 1 (USB4C02835)
Boxcar Smoothing: 0 (USB4C02835)
Correct for Electrical Dark: No (USB4C02835)
Strobe/Lamp Enabled: No (USB4C02835)
Correct for Detector Non-linearity: No (USB4C02835)
Correct for Stray Light: No (USB4C02835)
Number of Pixels in Processed Spectrum: 3648
>>>>>Begin Processed Spectral Data<<<<<
177.47	1578.98
177.69	1578.98
177.91	1578.98
178.13	1554.41
178.36	1634.28
178.58	1888.23
178.80	1970.15
179.02	1892.32
179.24	1900.52
179.46	1957.86
179.68	1943.52
179.90	2023.39
180.13	1861.60
180.35	1888.23
180.57	1900.52
180.79	2002.91
181.01	1943.52
181.23	2025.44
181.45	2025.44
181.67	1968.10
181.90	2031.58
182.12	1886.18
182.34	1826.79
182.56	2021.35
182.78	2066.40
183.00	1892.32
183.22	1933.28
183.44	1875.94
183.66	2113.50
183.89	2050.02
184.11	1937.38
184.33	2007.01
184.55	2047.97
184.77	1945.57
184.99	1931.23
185.21	1906.66
185.43	2133.98
185.65	1931.23
185.87	1968.10
186.10	2129.89
186.32	2174.94
186.54	1968.10
186.76	1974.24
186.98	2017.25
187.20	2017.25
187.42	1939.43
187.64	1937.38
187.86	1925.09
188.08	1978.34
188.30	1910.75
188.52	1955.81
188.75	2037.73
188.97	2039.78
189.19	1853.41
189.41	1900.52
189.63	2023.39
189.85	1937.38
190.07	1789.92
190.29	1826.79
190.51	2043.87
190.73	1910.75
190.95	1996.77
191.17	1941.47
191.39	1863.65
191.61	1970.15
191.84	1955.81
192.06	1908.71
192.28	1830.88
192.50	2232.29
192.72	1980.39
192.94	1890.28
193.16	2074.59
193.38	1972.19
193.60	1916.90
193.82	1988.58
194.04	2082.78
194.26	1966.05
194.48	2009.06
194.70	1884.13
194.92	1945.57
195.14	1984.48
195.36	1916.90
195.58	1904.61
195.80	1906.66
196.02	1783.78
196.24	1910.75
196.46	1990.63
196.69	1931.23
196.91	2179.04
197.13	1920.99
197.35	1929.19
197.57	2115.55
197.79	1984.48
198.01	2000.87
198.23	1980.39
198.45	1961.95
198.67	1865.70
198.89	1964.00
199.11	1951.71
199.33	1884.13
199.55	1773.54
199.77	1918.95
199.99	1980.39
200.21	1867.75
200.43	1966.05
200.65	1859.56
200.87	1767.40
201.09	2002.91
201.31	1964.00
201.53	1966.05
201.75	1933.28
201.97	2011.11
202.19	1968.10
202.41	1974.24
202.63	2066.40
202.85	2029.54
203.07	1880.04
203.29	1933.28
203.51	1832.93
203.73	1906.66
203.95	2166.75
204.17	1984.48
204.39	1994.72
204.61	1935.33
204.83	1884.13
205.05	2054.11
205.27	1941.47
205.49	2150.37
205.71	2029.54
205.93	1845.22
206.15	1953.76
206.37	1959.91
206.59	1984.48
206.81	1834.98
207.03	1873.89
207.25	1867.75
207.47	1947.62
207.69	1933.28
207.91	2011.11
208.13	2031.58
208.34	1986.53
208.56	1912.80
208.78	1890.28
209.00	1902.56
209.22	1863.65
209.44	1990.63
209.66	1853.41
209.88	1851.36
210.10	1929.19
210.32	1916.90
210.54	2105.31
210.76	1953.76
210.98	1998.82
211.20	1783.78
211.42	1880.04
211.64	2031.58
211.86	1939.43
212.08	2023.39
212.30	1898.47
212.52	1941.47
212.74	1974.24
212.96	1949.67
213.17	1935.33
213.39	1994.72
213.61	2062.30
213.83	1898.47
214.05	1923.04
214.27	1996.77
214.49	1939.43
214.71	1888.23
214.93	1955.81
215.15	2015.20
215.37	2009.06
215.59	1820.64
215.81	1976.29
216.03	2062.30
216.24	1931.23
216.46	1955.81
216.68	1955.81
216.90	2058.21
217.12	2029.54
217.34	1970.15
217.56	1972.19
217.78	2041.82
218.00	1984.48
218.22	1982.43
218.44	2011.11
218.66	1923.04
218.87	2039.78
219.09	1892.32
219.31	1927.14
219.53	2023.39
219.75	1927.14
219.97	1980.39
220.19	1927.14
220.41	1974.24
220.63	1976.29
220.85	1978.34
221.06	1863.65
221.28	2058.21
221.50	1980.39
221.72	1884.13
221.94	1923.04
222.16	1902.56
222.38	2011.11
222.60	1892.32
222.82	1888.23
223.03	1994.72
223.25	1816.55
223.47	1945.57
223.69	2033.63
223.91	2019.30
224.13	1970.15
224.35	1910.75
224.57	2021.35
224.78	1968.10
225.00	1916.90
225.22	1871.84
225.44	1902.56
225.66	2025.44
225.88	1918.95
226.10	1970.15
226.32	1927.14
226.53	2176.99
226.75	2015.20
226.97	1877.99
227.19	1920.99
227.41	1861.60
227.63	1916.90
227.85	1785.83
228.06	1906.66
228.28	1908.71
228.50	2009.06
228.72	1873.89
228.94	1894.37
229.16	1812.45
229.37	1910.75
229.59	1884.13
229.81	2039.78
230.03	1916.90
230.25	1855.46
230.47	1834.98
230.69	1955.81
230.90	2138.08
231.12	1920.99
231.34	1910.75
231.56	2002.91
231.78	1849.32
232.00	1970.15
232.21	1939.43
232.43	1953.76
232.65	1843.17
232.87	1951.71
233.09	1871.84
233.30	1877.99
233.52	2060.26
233.74	1947.62
233.96	1916.90
234.18	1939.43
234.40	1925.09
234.61	2080.74
234.83	1847.27
235.05	1882.08
235.27	2119.65
235.49	2082.78
235.70	1904.61
235.92	2041.82
236.14	1957.86
236.36	2111.46
236.58	1849.32
236.79	1933.28
237.01	1996.77
237.23	1951.71
237.45	2064.35
237.67	1896.42
237.88	1953.76
238.10	1988.58
238.32	1880.04
238.54	1968.10
238.76	1986.53
238.97	1964.00
239.19	1882.08
239.41	1974.24
239.63	2088.93
239.85	1976.29
240.06	1910.75
240.28	1931.23
240.50	1998.82
240.72	1884.13
240.93	1861.60
241.15	2000.87
241.37	2009.06
241.59	2058.21
241.81	1863.65
242.02	1931.23
242.24	1953.76
242.46	2007.01
242.68	1875.94
242.89	1966.05
243.11	2021.35
243.33	1898.47
243.55	1955.81
243.76	1964.00
243.98	1941.47
244.20	2039.78
244.42	1892.32
244.64	1937.38
244.85	1916.90
245.07	1918.95
245.29	2017.25
245.51	1937.38
245.72	1927.14
245.94	1978.34
246.16	1914.85
246.38	1945.57
246.59	1920.99
246.81	1914.85
247.03	1972.19
247.24	1861.60
247.46	1916.90
247.68	1988.58
247.90	1849.32
248.11	1898.47
248.33	2027.49
248.55	1949.67
248.77	1982.43
248.98	2019.30
249.20	2060.26
249.42	1937.38
249.64	1961.95
249.85	1888.23
250.07	1927.14
250.29	2056.16
250.50	1970.15
250.72	1808.36
250.94	1980.39
251.16	2068.45
251.37	1970.15
251.59	1961.95
251.81	1929.19
252.02	2025.44
252.24	1912.80
252.46	2007.01
252.68	1943.52
252.89	1906.66
253.11	1834.98
253.33	2080.74
253.54	2029.54
253.76	1847.27
253.98	1882.08
254.20	1949.67
254.41	1783.78
254.63	1953.76
254.85	1849.32
255.06	1955.81
255.28	1953.76
255.50	1908.71
255.71	1898.47
255.93	1847.27
256.15	1880.04
256.36	1947.62
256.58	1910.75
256.80	1931.23
257.02	1972.19
257.23	1871.84
257.45	1982.43
257.67	1959.91
257.88	1771.49
258.10	2017.25
258.32	1933.28
258.53	1955.81
258.75	2097.12
258.97	1890.28
259.18	1980.39
259.40	1882.08
259.62	2095.07
259.83	2097.12
260.05	1900.52
260.27	2336.73
260.48	2019.30
260.70	1865.70
260.92	1933.28
261.13	1980.39
261.35	1959.91
261.57	2050.02
261.78	1820.64
262.00	1808.36
262.22	2004.96
262.43	1929.19
262.65	1957.86
262.86	1855.46
263.08	2164.70
263.30	1927.14
263.51	1816.55
263.73	1900.52
263.95	2074.59
264.16	1886.18
264.38	1910.75
264.60	2029.54
264.81	1925.09
265.03	1990.63
265.25	2064.35
265.46	1931.23
265.68	2103.26
265.89	2009.06
266.11	1845.22
266.33	2000.87
266.54	2115.55
266.76	1966.05
266.98	2017.25
267.19	2011.11
267.41	2058.21
267.62	1957.86
267.84	1810.40
268.06	2056.16
268.27	1920.99
268.49	1992.67
268.70	2002.91
268.92	1961.95
269.14	1923.04
269.35	1918.95
269.57	1972.19
269.79	2031.58
270.00	1945.57
270.22	2109.41
270.43	1857.51
270.65	1740.77
270.87	1951.71
271.08	2041.82
271.30	1923.04
271.51	1906.66
271.73	2021.35
271.95	2072.54
272.16	1925.09
272.38	1931.23
272.59	1857.51
272.81	1994.72
273.02	1957.86
273.24	1953.76
273.46	1992.67
273.67	1867.75
273.89	1904.61
274.10	1855.46
274.32	2000.87
274.54	2009.06
274.75	1986.53
274.97	1939.43
275.18	2041.82
275.40	2072.54
275.61	1914.85
275.83	1984.48
276.05	1931.23
276.26	1982.43
276.48	1972.19
276.69	1951.71
276.91	1951.71
277.12	2105.31
277.34	1970.15
277.55	2041.82
277.77	1892.32
277.99	1990.63
278.20	1763.30
278.42	1884.13
278.63	1900.52
278.85	1945.57
279.06	1837.03
279.28	2025.44
279.49	2060.26
279.71	1949.67
279.93	1964.00
280.14	1939.43
280.36	1834.98
280.57	1957.86
280.79	2064.35
281.00	1947.62
281.22	1923.04
281.43	2041.82
281.65	1767.40
281.86	1884.13
282.08	1970.15
282.29	2183.13
282.51	1892.32
282.73	1890.28
282.94	1910.75
283.16	1910.75
283.37	2140.13
283.59	2011.11
283.80	1984.48
284.02	1875.94
284.23	1978.34
284.45	1906.66
284.66	1886.18
284.88	1929.19
285.09	1937.38
285.31	1939.43
285.52	1998.82
285.74	1824.74
285.95	2064.35
286.17	2037.73
286.38	1976.29
286.60	1847.27
286.81	1918.95
287.03	1945.57
287.24	1925.09
287.46	1990.63
287.67	1984.48
287.89	2021.35
288.10	1959.91
288.32	1939.43
288.53	2074.59
288.75	1935.33
288.96	2068.45
289.18	1939.43
289.39	1947.62
289.61	2013.15
289.82	2068.45
290.04	2103.26
290.25	1902.56
290.47	1945.57
290.68	1992.67
290.90	1996.77
291.11	1839.08
291.33	2025.44
291.54	1949.67
291.76	1994.72
291.97	2043.87
292.18	1918.95
292.40	1986.53
292.61	1912.80
292.83	2090.98
293.04	1982.43
293.26	2015.20
293.47	1923.04
293.69	1941.47
293.90	1927.14
294.12	2035.68
294.33	1951.71
294.55	1929.19
294.76	2000.87
294.97	2025.44
295.19	2125.79
295.40	1871.84
295.62	1949.67
295.83	2066.40
296.05	1902.56
296.26	1978.34
296.48	1912.80
296.69	1968.10
296.90	1986.53
297.12	1945.57
297.33	2074.59
297.55	1941.47
297.76	1996.77
297.98	2023.39
298.19	1925.09
298.41	1918.95
298.62	1834.98
298.83	2121.70
299.05	1861.60
299.26	1912.80
299.48	1900.52
299.69	2017.25
299.90	1927.14
300.12	1900.52
300.33	2076.64
300.55	1888.23
300.76	1976.29
300.98	1945.57
301.19	2000.87
301.40	1961.95
301.62	1908.71
301.83	1996.77
302.05	1898.47
302.26	1964.00
302.47	1957.86
302.69	1875.94
302.90	2033.63
303.12	1748.97
303.33	2011.11
303.54	2144.22
303.76	1918.95
303.97	1996.77
304.19	2002.91
304.40	1880.04
304.61	1976.29
304.83	2068.45
305.04	2115.55
305.26	2041.82
305.47	1972.19
305.68	1955.81
305.90	1869.80
306.11	2035.68
306.33	1904.61
306.54	1894.37
306.75	1845.22
306.97	1902.56
307.18	1886.18
307.39	1855.46
307.61	2037.73
307.82	1980.39
308.04	1959.91
308.25	1927.14
308.46	1957.86
308.68	1970.15
308.89	1923.04
309.10	2011.11
309.32	1992.67
309.53	1953.76
309.74	1964.00
309.96	1900.52
310.17	2101.22
310.39	1888.23
310.60	1998.82
310.81	1986.53
311.03	1886.18
311.24	1941.47
311.45	1961.95
311.67	2078.69
311.88	1988.58
312.09	1933.28
312.31	1898.47
312.52	1935.33
312.73	1865.70
312.95	1875.94
313.16	1875.94
313.37	2072.54
313.59	1982.43
313.80	2023.39
314.01	2039.78
314.23	1920.99
314.44	1914.85
314.65	1855.46
314.87	1923.04
315.08	1894.37
315.29	1945.57
315.51	1931.23
315.72	1875.94
315.93	2133.98
316.15	2002.91
316.36	1923.04
316.57	1980.39
316.79	2007.01
317.00	1957.86
317.21	2027.49
317.43	1978.34
317.64	1984.48
317.85	1779.68
318.07	1861.60
318.28	1980.39
318.49	2084.83
318.70	2256.86
318.92	2117.60
319.13	2174.94
319.34	2109.41
319.56	2025.44
319.77	2129.89
319.98	2125.79
320.20	2060.26
320.41	2025.44
320.62	2019.30
320.83	1986.53
321.05	2187.23
321.26	2002.91
321.47	2027.49
321.69	2099.17
321.90	1847.27
322.11	1871.84
322.32	1988.58
322.54	2070.50
322.75	1845.22
322.96	2144.22
323.18	1824.74
323.39	1877.99
323.60	1843.17
323.81	2088.93
324.03	1861.60
324.24	1966.05
324.45	1939.43
324.66	1953.76
324.88	2037.73
325.09	2082.78
325.30	1964.00
325.52	1986.53
325.73	2015.20
325.94	1892.32
326.15	1855.46
326.37	1800.16
326.58	2013.15
326.79	2113.50
327.00	1867.75
327.22	1925.09
327.43	1839.08
327.64	1884.13
327.85	1920.99
328.07	1937.38
328.28	2068.45
328.49	1918.95
328.70	1961.95
328.92	1957.86
329.13	2019.30
329.34	2011.11
329.55	2070.50
329.76	2007.01
329.98	1957.86
330.19	2082.78
330.40	1937.38
330.61	1968.10
330.83	1970.15
331.04	1955.81
331.25	1968.10
331.46	1968.10
331.68	1845.22
331.89	1986.53
332.10	1976.29
332.31	1798.12
332.52	1898.47
332.74	2004.96
332.95	1798.12
333.16	1937.38
333.37	1986.53
333.58	1966.05
333.80	1976.29
334.01	1890.28
334.22	1912.80
334.43	1978.34
334.64	1920.99
334.86	1794.02
335.07	1869.80
335.28	2043.87
335.49	1892.32
335.70	2062.30
335.92	2035.68
336.13	2172.89
336.34	1964.00
336.55	1968.10
336.76	1984.48
336.98	1763.30
337.19	1931.23
337.40	2035.68
337.61	2080.74
337.82	1933.28
338.04	1990.63
338.25	1877.99
338.46	2019.30
338.67	1904.61
338.88	1898.47
339.09	1816.55
339.31	1982.43
339.52	1968.10
339.73	1855.46
339.94	1961.95
340.15	2004.96
340.36	1951.71
340.58	2015.20
340.79	1982.43
341.00	2070.50
341.21	1802.21
341.42	2007.01
341.63	1892.32
341.85	2113.50
342.06	2031.58
342.27	1855.46
342.48	1998.82
342.69	1779.68
342.90	2013.15
343.12	1925.09
343.33	1976.29
343.54	2013.15
343.75	2125.79
343.96	1884.13
344.17	1900.52
344.38	2056.16
344.60	1886.18
344.81	1841.12
345.02	1929.19
345.23	2015.20
345.44	2131.94
345.65	2054.11
345.86	1986.53
346.07	1974.24
346.29	1941.47
346.50	1996.77
346.71	1933.28
346.92	2109.41
347.13	2121.70
347.34	2019.30
347.55	1964.00
347.76	2021.35
347.98	1851.36
348.19	1927.14
348.40	2011.11
348.61	1933.28
348.82	2131.94
349.03	1976.29
349.24	1927.14
349.45	2097.12
349.66	1806.31
349.88	1941.47
350.09	1947.62
350.30	2029.54
350.51	2033.63
350.72	1984.48
350.93	1980.39
351.14	1941.47
351.35	2002.91
351.56	1974.24
351.77	1949.67
351.99	2011.11
352.20	2084.83
352.41	2037.73
352.62	1853.41
352.83	1933.28
353.04	1964.00
353.25	1992.67
353.46	2037.73
353.67	2072.54
353.88	1851.36
354.09	1925.09
354.30	1957.86
354.52	2004.96
354.73	2009.06
354.94	1923.04
355.15	1964.00
355.36	2090.98
355.57	2029.54
355.78	1953.76
355.99	1892.32
356.20	1964.00
356.41	2023.39
356.62	2015.20
356.83	2009.06
357.04	2007.01
357.25	1886.18
357.46	1959.91
357.68	1845.22
357.89	1900.52
358.10	1933.28
358.31	1947.62
358.52	1880.04
358.73	1994.72
358.94	1900.52
359.15	1914.85
359.36	1970.15
359.57	1966.05
359.78	1918.95
359.99	1941.47
360.20	1925.09
360.41	1910.75
360.62	2023.39
360.83	1949.67
361.04	1996.77
361.25	1941.47
361.46	2066.40
361.67	1966.05
361.88	1978.34
362.09	2080.74
362.30	2009.06
362.51	1980.39
362.72	1972.19
362.93	2041.82
363.14	2045.92
363.35	1996.77
363.56	1949.67
363.78	2023.39
363.99	2070.50
364.20	1951.71
364.41	1968.10
364.62	2133.98
364.83	1937.38
365.04	1898.47
365.25	1927.14
365.46	2127.84
365.67	1937.38
365.88	1988.58
366.09	1918.95
366.30	1853.41
366.51	1914.85
366.72	1912.80
366.93	1910.75
367.14	1933.28
367.35	2060.26
367.56	1937.38
367.77	2176.99
367.98	1927.14
368.18	2023.39
368.39	1951.71
368.60	1843.17
368.81	2154.46
369.02	1964.00
369.23	1935.33
369.44	1798.12
369.65	1931.23
369.86	1986.53
370.07	2039.78
370.28	1830.88
370.49	1984.48
370.70	1972.19
370.91	1900.52
371.12	1839.08
371.33	2007.01
371.54	1910.75
371.75	2039.78
371.96	1808.36
372.17	2033.63
372.38	2004.96
372.59	2023.39
372.80	1896.42
373.01	1920.99
373.22	1970.15
373.43	1992.67
373.64	1896.42
373.85	2029.54
374.06	2068.45
374.26	2007.01
374.47	2019.30
374.68	2058.21
374.89	1947.62
375.10	1953.76
375.31	2068.45
375.52	1980.39
375.73	1982.43
375.94	1890.28
376.15	2119.65
376.36	1937.38
376.57	1951.71
376.78	1984.48
376.99	2029.54
377.20	2058.21
377.40	2002.91
377.61	2072.54
377.82	1861.60
378.03	2111.46
378.24	1994.72
378.45	1918.95
378.66	1974.24
378.87	1880.04
379.08	1935.33
379.29	1914.85
379.50	2015.20
379.71	1978.34
379.91	1984.48
380.12	1929.19
380.33	1929.19
380.54	1939.43
380.75	1882.08
380.96	1961.95
381.17	2054.11
381.38	1943.52
381.59	1898.47
381.80	1964.00
382.00	2160.61
382.21	2117.60
382.42	2111.46
382.63	2172.89
382.84	2033.63
383.05	2097.12
383.26	2136.03
383.47	2021.35
383.68	2011.11
383.88	2058.21
384.09	1990.63
384.30	2125.79
384.51	2015.20
384.72	1935.33
384.93	1947.62
385.14	2056.16
385.35	2017.25
385.55	1914.85
385.76	2101.22
385.97	1955.81
386.18	1859.56
386.39	1914.85
386.60	1968.10
386.81	1984.48
387.02	1925.09
387.22	1933.28
387.43	2115.55
387.64	2004.96
387.85	2095.07
388.06	2269.15
388.27	3930.05
388.48	8673.15
388.68	12117.83
388.89	14233.38
389.10	15613.71
389.31	14157.61
389.52	11079.51
389.73	9486.19
389.93	8685.44
390.14	7921.54
390.35	7214.99
390.56	6459.29
390.77	5320.62
390.98	4177.86
391.18	3153.87
391.39	2547.67
391.60	2148.32
391.81	2111.46
392.02	2009.06
392.23	2127.84
392.43	2013.15
392.64	2035.68
392.85	1978.34
393.06	2121.70
393.27	1935.33
393.47	1875.94
393.68	1943.52
393.89	1925.09
394.10	2025.44
394.31	1912.80
394.52	1875.94
394.72	1826.79
394.93	2138.08
395.14	1939.43
395.35	2047.97
395.56	2007.01
395.76	1943.52
395.97	2062.30
396.18	2148.32
396.39	2129.89
396.60	2387.93
396.80	2258.91
397.01	2127.84
397.22	2144.22
397.43	2142.18
397.64	1951.71
397.84	2129.89
398.05	2121.70
398.26	2027.49
398.47	1994.72
398.67	2058.21
398.88	2031.58
399.09	2060.26
399.30	1916.90
399.51	2037.73
399.71	1941.47
399.92	1875.94
400.13	1976.29
400.34	1923.04
400.54	1869.80
400.75	2021.35
400.96	2021.35
401.17	2140.13
401.37	1986.53
401.58	1902.56
401.79	2041.82
402.00	2045.92
402.21	2240.48
402.41	2303.96
402.62	2361.31
402.83	2473.95
403.04	2435.03
403.24	2455.51
403.45	2129.89
403.66	2291.68
403.87	2185.18
404.07	2232.29
404.28	2176.99
404.49	2183.13
404.70	2043.87
404.90	2070.50
405.11	1984.48
405.32	2070.50
405.52	1851.36
405.73	1841.12
405.94	1880.04
406.15	1978.34
406.35	2070.50
406.56	1980.39
406.77	2031.58
406.98	1914.85
407.18	1955.81
407.39	2095.07
407.60	2033.63
407.80	1959.91
408.01	1923.04
408.22	1998.82
408.43	1898.47
408.63	2045.92
408.84	2023.39
409.05	1982.43
409.25	1914.85
409.46	1892.32
409.67	1902.56
409.88	1914.85
410.08	1988.58
410.29	1988.58
410.50	1955.81
410.70	2013.15
410.91	1916.90
411.12	1970.15
411.32	2000.87
411.53	1910.75
411.74	2037.73
411.95	2062.30
412.15	2043.87
412.36	2119.65
412.57	2127.84
412.77	2101.22
412.98	1984.48
413.19	1877.99
413.39	2027.49
413.60	2060.26
413.81	2064.35
414.01	1955.81
414.22	2027.49
414.43	1959.91
414.63	1972.19
414.84	2013.15
415.05	1955.81
415.25	1912.80
415.46	1976.29
415.67	2000.87
415.87	1998.82
416.08	1947.62
416.29	1927.14
416.49	1970.15
416.70	1970.15
416.91	1912.80
417.11	1953.76
417.32	1982.43
417.53	2078.69
417.73	2029.54
417.94	1892.32
418.15	1980.39
418.35	1939.43
418.56	1964.00
418.77	2144.22
418.97	2037.73
419.18	2039.78
419.38	1783.78
419.59	1951.71
419.80	2090.98
420.00	1974.24
420.21	1920.99
420.42	2037.73
420.62	1980.39
420.83	1882.08
421.04	1910.75
421.24	1998.82
421.45	2035.68
421.65	2080.74
421.86	2002.91
422.07	2033.63
422.27	1959.91
422.48	1951.71
422.69	1896.42
422.89	1957.86
423.10	1986.53
423.30	1859.56
423.51	1970.15
423.72	2000.87
423.92	2033.63
424.13	1845.22
424.33	2017.25
424.54	2007.01
424.75	1933.28
424.95	2072.54
425.16	2027.49
425.36	1900.52
425.57	2090.98
425.78	2000.87
425.98	1986.53
426.19	1900.52
426.39	1947.62
426.60	1972.19
426.81	2064.35
427.01	2009.06
427.22	1888.23
427.42	1849.32
427.63	1894.37
427.83	2056.16
428.04	2152.42
428.25	1986.53
428.45	2119.65
428.66	2007.01
428.86	1939.43
429.07	1888.23
429.28	2000.87
429.48	1943.52
429.69	1890.28
429.89	2015.20
430.10	1904.61
430.30	2017.25
430.51	2009.06
430.71	1898.47
430.92	1949.67
431.13	1894.37
431.33	1959.91
431.54	1912.80
431.74	2131.94
431.95	2090.98
432.15	1865.70
432.36	2007.01
432.56	2002.91
432.77	2119.65
432.98	2078.69
433.18	1959.91
433.39	1908.71
433.59	2019.30
433.80	2027.49
434.00	2078.69
434.21	2015.20
434.41	1923.04
434.62	2140.13
434.82	1957.86
435.03	1867.75
435.23	2019.30
435.44	1834.98
435.64	1925.09
435.85	1992.67
436.06	2090.98
436.26	2084.83
436.47	1974.24
436.67	1970.15
436.88	1968.10
437.08	1972.19
437.29	2029.54
437.49	1988.58
437.70	2037.73
437.90	1974.24
438.11	2121.70
438.31	2004.96
438.52	2111.46
438.72	2211.81
438.93	2318.30
439.13	2052.06
439.34	2234.33
439.54	1994.72
439.75	2037.73
439.95	2080.74
440.16	2021.35
440.36	2072.54
440.57	2011.11
440.77	1996.77
440.98	1994.72
441.18	2009.06
441.39	1898.47
441.59	1855.46
441.80	2080.74
442.00	2052.06
442.21	2078.69
442.41	1976.29
442.62	2068.45
442.82	1871.84
443.02	1935.33
443.23	2035.68
443.43	2011.11
443.64	2107.36
443.84	1949.67
444.05	2129.89
444.25	1935.33
444.46	1929.19
444.66	1941.47
444.87	2111.46
445.07	1916.90
445.28	1990.63
445.48	2125.79
445.69	1980.39
445.89	2176.99
446.09	2047.97
446.30	2236.38
446.50	2619.35
446.71	4243.39
446.91	5328.81
447.12	6229.92
447.32	6399.90
447.53	6012.84
447.73	4730.81
447.93	4210.62
448.14	4083.65
448.34	3729.35
448.55	3491.79
448.75	3282.89
448.96	3157.97
449.16	2828.24
449.36	2731.99
449.57	2389.98
449.77	2127.84
449.98	2058.21
450.18	2015.20
450.39	2015.20
450.59	2103.26
450.79	2027.49
451.00	1888.23
451.20	2037.73
451.41	2015.20
451.61	2115.55
451.81	1892.32
452.02	1961.95
452.22	1869.80
452.43	1898.47
452.63	1961.95
