SpectraSuite Data File
++++++++++++++++++++++++++++++++++++
Date: Wed May 04 22:45:18 CEST 2016
User: root
Dark Spectrum Present: No
Reference Spectrum Present: No
Number of Sampled Component Spectra: 1
Spectrometers: USB4C02835
Integration Time (usec): 100000 (USB4C02835)
Spectra Averaged: 1 (USB4C02835)
Boxcar Smoothing: 0 (USB4C02835)
Correct for Electrical Dark: No (USB4C02835)
Strobe/Lamp Enabled: No (USB4C02835)
Correct for Detector Non-linearity: No (USB4C02835)
Correct for Stray Light: No (USB4C02835)
Number of Pixels in Processed Spectrum: 3648
>>>>>Begin Processed Spectral Data<<<<<
177.47	1607.66
177.69	1607.66
177.91	1607.66
178.13	1654.76
178.36	1650.66
178.58	1890.28
178.80	1955.81
179.02	1822.69
179.24	1880.04
179.46	1898.47
179.68	1998.82
179.90	1933.28
180.13	1927.14
180.35	1888.23
180.57	1978.34
180.79	2013.15
181.01	1859.56
181.23	1961.95
181.45	2056.16
181.67	2027.49
181.90	2062.30
182.12	1869.80
182.34	1877.99
182.56	1976.29
182.78	2004.96
183.00	1947.62
183.22	1923.04
183.44	1800.16
183.66	2101.22
183.89	1982.43
184.11	1935.33
184.33	2050.02
184.55	1918.95
184.77	1933.28
184.99	1976.29
185.21	1955.81
185.43	2172.89
185.65	1867.75
185.87	1953.76
186.10	2068.45
186.32	2146.27
186.54	1959.91
186.76	2043.87
186.98	2050.02
187.20	1992.67
187.42	1933.28
187.64	2015.20
187.86	1972.19
188.08	2019.30
188.30	1896.42
188.52	1906.66
188.75	2072.54
188.97	2070.50
189.19	1880.04
189.41	1861.60
189.63	1974.24
189.85	1931.23
190.07	1894.37
190.29	1877.99
190.51	1978.34
190.73	1888.23
190.95	2062.30
191.17	1925.09
191.39	1886.18
191.61	1912.80
191.84	1951.71
192.06	1994.72
192.28	1902.56
192.50	2170.85
192.72	1992.67
192.94	1908.71
193.16	1998.82
193.38	2017.25
193.60	1882.08
193.82	1964.00
194.04	1970.15
194.26	1914.85
194.48	1927.14
194.70	1880.04
194.92	1873.89
195.14	1970.15
195.36	1978.34
195.58	2017.25
195.80	1925.09
196.02	1914.85
196.24	1892.32
196.46	2007.01
196.69	1894.37
196.91	2156.51
197.13	1896.42
197.35	1865.70
197.57	2154.46
197.79	2011.11
198.01	1976.29
198.23	1968.10
198.45	1935.33
198.67	1865.70
198.89	1953.76
199.11	1980.39
199.33	1880.04
199.55	1787.88
199.77	1939.43
199.99	1974.24
200.21	1906.66
200.43	2019.30
200.65	1810.40
200.87	1841.12
201.09	2007.01
201.31	1828.84
201.53	2017.25
201.75	1941.47
201.97	2009.06
202.19	2011.11
202.41	2007.01
202.63	2013.15
202.85	2052.06
203.07	2017.25
203.29	1865.70
203.51	1834.98
203.73	1871.84
203.95	2146.27
204.17	1937.38
204.39	1941.47
204.61	1947.62
204.83	1912.80
205.05	1990.63
205.27	1927.14
205.49	2050.02
205.71	1912.80
205.93	1931.23
206.15	1849.32
206.37	1966.05
206.59	1980.39
206.81	1824.74
207.03	1935.33
207.25	1904.61
207.47	1988.58
207.69	1910.75
207.91	2033.63
208.13	2105.31
208.34	1951.71
208.56	1937.38
208.78	1939.43
209.00	1933.28
209.22	2060.26
209.44	1978.34
209.66	1955.81
209.88	1914.85
210.10	1925.09
210.32	1945.57
210.54	1986.53
210.76	1943.52
210.98	1998.82
211.20	1832.93
211.42	1953.76
211.64	2011.11
211.86	1968.10
212.08	2002.91
212.30	1863.65
212.52	1947.62
212.74	1953.76
212.96	1927.14
213.17	2047.97
213.39	2007.01
213.61	2088.93
213.83	1863.65
214.05	1974.24
214.27	1990.63
214.49	1871.84
214.71	1867.75
214.93	2033.63
215.15	2070.50
215.37	1961.95
215.59	1859.56
215.81	1955.81
216.03	2099.17
216.24	1972.19
216.46	1908.71
216.68	2011.11
216.90	2025.44
217.12	2043.87
217.34	1955.81
217.56	2004.96
217.78	2093.02
218.00	1914.85
218.22	1957.86
218.44	1939.43
218.66	1947.62
218.87	2060.26
219.09	1941.47
219.31	1937.38
219.53	1961.95
219.75	1882.08
219.97	1949.67
220.19	1959.91
220.41	1964.00
220.63	2025.44
220.85	1970.15
221.06	1837.03
221.28	1998.82
221.50	1957.86
221.72	1884.13
221.94	1916.90
222.16	1951.71
222.38	1961.95
222.60	1970.15
222.82	1925.09
223.03	2023.39
223.25	1890.28
223.47	1980.39
223.69	1988.58
223.91	1994.72
224.13	1933.28
224.35	1935.33
224.57	2023.39
224.78	1996.77
225.00	1949.67
225.22	1982.43
225.44	1896.42
225.66	2017.25
225.88	1949.67
226.10	1964.00
226.32	2013.15
226.53	2021.35
226.75	1978.34
226.97	1902.56
227.19	1920.99
227.41	1865.70
227.63	1890.28
227.85	1865.70
228.06	1918.95
228.28	1982.43
228.50	2004.96
228.72	1863.65
228.94	2011.11
229.16	1873.89
229.37	1884.13
229.59	1902.56
229.81	2072.54
230.03	1912.80
230.25	1763.30
230.47	1847.27
230.69	1839.08
230.90	2007.01
231.12	1941.47
231.34	1931.23
231.56	1941.47
231.78	1888.23
232.00	1990.63
232.21	1875.94
232.43	1880.04
232.65	1810.40
232.87	2013.15
233.09	1935.33
233.30	1898.47
233.52	2015.20
233.74	1953.76
233.96	1910.75
234.18	1982.43
234.40	1941.47
234.61	2117.60
234.83	1839.08
235.05	1863.65
235.27	2160.61
235.49	2027.49
235.70	1843.17
235.92	2017.25
236.14	2007.01
236.36	2099.17
236.58	1877.99
236.79	1978.34
237.01	1955.81
237.23	1927.14
237.45	2060.26
237.67	1839.08
237.88	1908.71
238.10	2066.40
238.32	1796.07
238.54	2002.91
238.76	2013.15
238.97	1894.37
239.19	1871.84
239.41	1988.58
239.63	2039.78
239.85	1890.28
240.06	1945.57
240.28	1947.62
240.50	2002.91
240.72	1918.95
240.93	1828.84
241.15	2015.20
241.37	1984.48
241.59	2084.83
241.81	1933.28
242.02	1937.38
242.24	1976.29
242.46	1974.24
242.68	1849.32
242.89	1920.99
243.11	2060.26
243.33	1941.47
243.55	2000.87
243.76	1992.67
243.98	1943.52
244.20	1966.05
244.42	1857.51
244.64	1959.91
244.85	1841.12
245.07	1914.85
245.29	2027.49
245.51	1951.71
245.72	1976.29
245.94	2045.92
246.16	1953.76
246.38	1992.67
246.59	1976.29
246.81	1947.62
247.03	1910.75
247.24	1775.59
247.46	1918.95
247.68	1980.39
247.90	1877.99
248.11	1888.23
248.33	1955.81
248.55	1996.77
248.77	1996.77
248.98	1961.95
249.20	2056.16
249.42	1972.19
249.64	1988.58
249.85	1980.39
250.07	1894.37
250.29	2119.65
250.50	2054.11
250.72	1832.93
250.94	2004.96
251.16	2113.50
251.37	1955.81
251.59	1914.85
251.81	1945.57
252.02	2023.39
252.24	1904.61
252.46	2007.01
252.68	1824.74
252.89	1933.28
253.11	1814.50
253.33	2025.44
253.54	1994.72
253.76	1925.09
253.98	1900.52
254.20	1957.86
254.41	1904.61
254.63	1853.41
254.85	1875.94
255.06	1990.63
255.28	1957.86
255.50	1880.04
255.71	1904.61
255.93	1802.21
256.15	1898.47
256.36	1966.05
256.58	1853.41
256.80	2023.39
257.02	1947.62
257.23	1955.81
257.45	1910.75
257.67	2007.01
257.88	1890.28
258.10	1986.53
258.32	1945.57
258.53	2027.49
258.75	2119.65
258.97	1904.61
259.18	1947.62
259.40	1920.99
259.62	2107.36
259.83	1980.39
260.05	1976.29
260.27	2303.96
260.48	1992.67
260.70	1933.28
260.92	1976.29
261.13	1949.67
261.35	1916.90
261.57	1947.62
261.78	1867.75
262.00	1957.86
262.22	1986.53
262.43	1900.52
262.65	1996.77
262.86	1871.84
263.08	2191.33
263.30	1923.04
263.51	1882.08
263.73	1976.29
263.95	2101.22
264.16	1888.23
264.38	1890.28
264.60	1941.47
264.81	1964.00
265.03	1982.43
265.25	2052.06
265.46	1896.42
265.68	2058.21
265.89	1978.34
266.11	1865.70
266.33	2004.96
266.54	2039.78
266.76	1976.29
266.98	2025.44
267.19	2023.39
267.41	1998.82
267.62	1904.61
267.84	1824.74
268.06	1904.61
268.27	1943.52
268.49	1994.72
268.70	1990.63
268.92	1892.32
269.14	1851.36
269.35	1841.12
269.57	1927.14
269.79	1978.34
270.00	1957.86
270.22	2052.06
270.43	1904.61
270.65	1867.75
270.87	2009.06
271.08	1955.81
271.30	1937.38
271.51	1939.43
271.73	1920.99
271.95	2002.91
272.16	1976.29
272.38	1988.58
272.59	1890.28
272.81	1988.58
273.02	1964.00
273.24	1904.61
273.46	2093.02
273.67	1834.98
273.89	1923.04
274.10	1898.47
274.32	2019.30
274.54	1984.48
274.75	1966.05
274.97	1988.58
275.18	2082.78
275.40	2054.11
275.61	1933.28
275.83	1978.34
276.05	1904.61
276.26	1923.04
276.48	1970.15
276.69	1849.32
276.91	1873.89
277.12	2060.26
277.34	2021.35
277.55	1986.53
277.77	1953.76
277.99	1949.67
278.20	1875.94
278.42	1884.13
278.63	1861.60
278.85	1945.57
279.06	1773.54
279.28	1955.81
279.49	2019.30
279.71	1966.05
279.93	1916.90
280.14	1949.67
280.36	1877.99
280.57	2050.02
280.79	1974.24
281.00	1839.08
281.22	1918.95
281.43	1986.53
281.65	1841.12
281.86	1806.31
282.08	1951.71
282.29	2144.22
282.51	1882.08
282.73	1914.85
282.94	1847.27
283.16	2000.87
283.37	2007.01
283.59	1955.81
283.80	1972.19
284.02	1949.67
284.23	2023.39
284.45	1892.32
284.66	1949.67
284.88	1867.75
285.09	1920.99
285.31	2039.78
285.52	2027.49
285.74	1798.12
285.95	2031.58
286.17	1949.67
286.38	2066.40
286.60	1918.95
286.81	1869.80
287.03	1945.57
287.24	1951.71
287.46	1976.29
287.67	1976.29
287.89	2080.74
288.10	1990.63
288.32	2025.44
288.53	2076.64
288.75	1994.72
288.96	1994.72
289.18	1972.19
289.39	1937.38
289.61	1945.57
289.82	2027.49
290.04	2097.12
290.25	1890.28
290.47	1920.99
290.68	1935.33
290.90	2072.54
291.11	1880.04
291.33	2019.30
291.54	1841.12
291.76	1861.60
291.97	1964.00
292.18	1988.58
292.40	1834.98
292.61	1959.91
292.83	2072.54
293.04	1996.77
293.26	1966.05
293.47	1959.91
293.69	1908.71
293.90	1949.67
294.12	1998.82
294.33	1961.95
294.55	1957.86
294.76	2007.01
294.97	2054.11
295.19	2152.42
295.40	1949.67
295.62	2017.25
295.83	2037.73
296.05	1898.47
296.26	2047.97
296.48	1943.52
296.69	1920.99
296.90	1945.57
297.12	2070.50
297.33	1947.62
297.55	1968.10
297.76	1968.10
297.98	2127.84
298.19	2000.87
298.41	1976.29
298.62	1902.56
298.83	2113.50
299.05	1951.71
299.26	1929.19
299.48	1931.23
299.69	2019.30
299.90	1951.71
300.12	1953.76
300.33	1964.00
300.55	1920.99
300.76	1980.39
300.98	1910.75
301.19	2023.39
301.40	1947.62
301.62	1951.71
301.83	1996.77
302.05	1955.81
302.26	1976.29
302.47	1982.43
302.69	1888.23
302.90	1910.75
303.12	1744.87
303.33	1982.43
303.54	2127.84
303.76	1914.85
303.97	2011.11
304.19	2064.35
304.40	1865.70
304.61	1998.82
304.83	2189.28
305.04	2011.11
305.26	1970.15
305.47	1923.04
305.68	2050.02
305.90	1912.80
306.11	2047.97
306.33	1914.85
306.54	1988.58
306.75	1941.47
306.97	1791.97
307.18	1871.84
307.39	1910.75
307.61	1992.67
307.82	1916.90
308.04	2017.25
308.25	1929.19
308.46	1978.34
308.68	1949.67
308.89	1996.77
309.10	2074.59
309.32	1966.05
309.53	1986.53
309.74	2037.73
309.96	1957.86
310.17	2019.30
310.39	1933.28
310.60	2050.02
310.81	1937.38
311.03	1951.71
311.24	1935.33
311.45	1908.71
311.67	2045.92
311.88	1990.63
312.09	1935.33
312.31	1982.43
312.52	1931.23
312.73	1959.91
312.95	1851.36
313.16	1859.56
313.37	2062.30
313.59	2021.35
313.80	2019.30
314.01	2115.55
314.23	1873.89
314.44	1920.99
314.65	1828.84
314.87	1882.08
315.08	1916.90
315.29	1910.75
315.51	1841.12
315.72	1808.36
315.93	2064.35
316.15	2013.15
316.36	1900.52
316.57	1972.19
316.79	1941.47
317.00	2023.39
317.21	2099.17
317.43	1898.47
317.64	1939.43
317.85	1810.40
318.07	1894.37
318.28	2039.78
318.49	2097.12
318.70	2271.20
318.92	2140.13
319.13	2111.46
319.34	2156.51
319.56	2105.31
319.77	2103.26
319.98	2142.18
320.20	2166.75
320.41	2072.54
320.62	2074.59
320.83	1949.67
321.05	2152.42
321.26	1955.81
321.47	1873.89
321.69	2031.58
321.90	1839.08
322.11	1961.95
322.32	1933.28
322.54	2033.63
322.75	1910.75
322.96	2187.23
323.18	1877.99
323.39	1796.07
323.60	1929.19
323.81	1998.82
324.03	1867.75
324.24	1923.04
324.45	1916.90
324.66	1925.09
324.88	2025.44
325.09	2127.84
325.30	1933.28
325.52	1976.29
325.73	1972.19
325.94	1875.94
326.15	1880.04
326.37	1920.99
326.58	1996.77
326.79	2068.45
327.00	1863.65
327.22	2011.11
327.43	2023.39
327.64	1904.61
327.85	1988.58
328.07	1968.10
328.28	2131.94
328.49	1980.39
328.70	1896.42
328.92	1947.62
329.13	1957.86
329.34	2078.69
329.55	2101.22
329.76	1943.52
329.98	1933.28
330.19	2090.98
330.40	2025.44
330.61	1894.37
330.83	2031.58
331.04	1857.51
331.25	2011.11
331.46	1873.89
331.68	1845.22
331.89	1976.29
332.10	1943.52
332.31	1841.12
332.52	1947.62
332.74	2047.97
332.95	1873.89
333.16	1937.38
333.37	2054.11
333.58	1902.56
333.80	2019.30
334.01	1867.75
334.22	1884.13
334.43	1869.80
334.64	1935.33
334.86	1873.89
335.07	1890.28
335.28	2078.69
335.49	1865.70
335.70	1984.48
335.92	2090.98
336.13	2113.50
336.34	1968.10
336.55	1949.67
336.76	1982.43
336.98	1830.88
337.19	2004.96
337.40	2088.93
337.61	2097.12
337.82	1968.10
338.04	2078.69
338.25	1796.07
338.46	1994.72
338.67	1920.99
338.88	1877.99
339.09	1906.66
339.31	1853.41
339.52	1857.51
339.73	1927.14
339.94	1998.82
340.15	2052.06
340.36	1927.14
340.58	1867.75
340.79	1902.56
341.00	1968.10
341.21	1873.89
341.42	2105.31
341.63	1890.28
341.85	2025.44
342.06	2004.96
342.27	1964.00
342.48	2080.74
342.69	1896.42
342.90	1931.23
343.12	1996.77
343.33	1896.42
343.54	2011.11
343.75	2142.18
343.96	1968.10
344.17	1964.00
344.38	1896.42
344.60	1927.14
344.81	1839.08
345.02	1986.53
345.23	2025.44
345.44	2191.33
345.65	2045.92
345.86	1941.47
346.07	1974.24
346.29	1916.90
346.50	1986.53
346.71	2043.87
346.92	2045.92
347.13	2172.89
347.34	1972.19
347.55	1959.91
347.76	2054.11
347.98	1824.74
348.19	1916.90
348.40	1980.39
348.61	1959.91
348.82	2084.83
349.03	2015.20
349.24	1853.41
349.45	2131.94
349.66	1826.79
349.88	1972.19
350.09	1916.90
350.30	1986.53
350.51	2078.69
350.72	1972.19
350.93	2021.35
351.14	1900.52
351.35	2031.58
351.56	1968.10
351.77	1968.10
351.99	1972.19
352.20	1972.19
352.41	1980.39
352.62	1775.59
352.83	1945.57
353.04	1984.48
353.25	1949.67
353.46	1994.72
353.67	2025.44
353.88	1888.23
354.09	1949.67
354.30	1880.04
354.52	2013.15
354.73	1953.76
354.94	1966.05
355.15	1882.08
355.36	2027.49
355.57	1890.28
355.78	2021.35
355.99	1984.48
356.20	1939.43
356.41	2072.54
356.62	1996.77
356.83	1988.58
357.04	2142.18
357.25	1800.16
357.46	1906.66
357.68	1914.85
357.89	1929.19
358.10	1945.57
358.31	1972.19
358.52	1935.33
358.73	1898.47
358.94	1869.80
359.15	1906.66
359.36	2039.78
359.57	1964.00
359.78	1998.82
359.99	1972.19
360.20	1849.32
360.41	1894.37
360.62	1939.43
360.83	1968.10
361.04	1959.91
361.25	1978.34
361.46	2080.74
361.67	2009.06
361.88	1982.43
362.09	2033.63
362.30	2015.20
362.51	1988.58
362.72	1904.61
362.93	2037.73
363.14	1996.77
363.35	1908.71
363.56	1871.84
363.78	2080.74
363.99	2025.44
364.20	1923.04
364.41	2035.68
364.62	2095.07
364.83	1925.09
365.04	1945.57
365.25	1941.47
365.46	2068.45
365.67	1853.41
365.88	1961.95
366.09	1912.80
366.30	1910.75
366.51	1961.95
366.72	1820.64
366.93	1873.89
367.14	1937.38
367.35	2084.83
367.56	1916.90
367.77	1972.19
367.98	1914.85
368.18	2054.11
368.39	2041.82
368.60	1861.60
368.81	2064.35
369.02	2060.26
369.23	2015.20
369.44	1916.90
369.65	1951.71
369.86	2009.06
370.07	2047.97
370.28	1904.61
370.49	1945.57
370.70	1957.86
370.91	1894.37
371.12	1888.23
371.33	1990.63
371.54	1902.56
371.75	2064.35
371.96	1830.88
372.17	1957.86
372.38	1953.76
372.59	2099.17
372.80	1923.04
373.01	1918.95
373.22	1966.05
373.43	2039.78
373.64	1875.94
373.85	2095.07
374.06	2060.26
374.26	1949.67
374.47	1976.29
374.68	1966.05
374.89	1994.72
375.10	1937.38
375.31	2099.17
375.52	2017.25
375.73	2000.87
375.94	1894.37
376.15	2033.63
376.36	1918.95
376.57	1896.42
376.78	1908.71
376.99	1906.66
377.20	2033.63
377.40	1822.69
377.61	2013.15
377.82	1865.70
378.03	2129.89
378.24	2027.49
378.45	1966.05
378.66	2011.11
378.87	1959.91
379.08	1834.98
379.29	1867.75
379.50	2019.30
379.71	1892.32
379.91	1974.24
380.12	1943.52
380.33	1955.81
380.54	1906.66
380.75	1906.66
380.96	1949.67
381.17	1990.63
381.38	1914.85
381.59	2080.74
381.80	1929.19
382.00	2213.85
382.21	1978.34
382.42	2209.76
382.63	2148.32
382.84	2058.21
383.05	2066.40
383.26	2082.78
383.47	2031.58
383.68	2050.02
383.88	1927.14
384.09	1992.67
384.30	2129.89
384.51	2029.54
384.72	1882.08
384.93	1937.38
385.14	2004.96
385.35	2068.45
385.55	1869.80
385.76	2101.22
385.97	1898.47
386.18	1863.65
386.39	1920.99
386.60	1918.95
386.81	1988.58
387.02	1867.75
387.22	1929.19
387.43	2084.83
387.64	2025.44
387.85	2076.64
388.06	2299.87
388.27	3999.68
388.48	8658.81
388.68	12216.13
388.89	14434.08
389.10	15738.64
389.31	14061.35
389.52	11257.68
389.73	9674.60
389.93	8605.56
390.14	8124.29
390.35	7276.43
390.56	6354.85
390.77	5367.73
390.98	4083.65
391.18	3205.07
391.39	2688.98
391.60	2252.77
391.81	2136.03
392.02	1968.10
392.23	2183.13
392.43	2011.11
392.64	2119.65
392.85	1935.33
393.06	2064.35
393.27	1990.63
393.47	1906.66
393.68	1935.33
393.89	1912.80
394.10	2047.97
394.31	1994.72
394.52	1904.61
394.72	1949.67
394.93	1959.91
395.14	1912.80
395.35	2041.82
395.56	1931.23
395.76	1959.91
395.97	1992.67
396.18	2095.07
396.39	2164.70
396.60	2326.49
396.80	2291.68
397.01	2084.83
397.22	2131.94
397.43	2152.42
397.64	1976.29
397.84	2037.73
398.05	2131.94
398.26	1959.91
398.47	2037.73
398.67	2078.69
398.88	1918.95
399.09	2068.45
399.30	1914.85
399.51	1953.76
399.71	1964.00
399.92	2002.91
400.13	1988.58
400.34	1959.91
400.54	1976.29
400.75	2074.59
400.96	1949.67
401.17	2138.08
401.37	2000.87
401.58	1959.91
401.79	1978.34
402.00	2131.94
402.21	2293.72
402.41	2291.68
402.62	2326.49
402.83	2484.19
403.04	2428.89
403.24	2562.01
403.45	2176.99
403.66	2168.80
403.87	2242.53
404.07	2242.53
404.28	2232.29
404.49	2226.14
404.70	2023.39
404.90	2062.30
405.11	2035.68
405.32	1978.34
405.52	1877.99
405.73	1869.80
405.94	1828.84
406.15	1951.71
406.35	1996.77
406.56	1929.19
406.77	1976.29
406.98	1994.72
407.18	1910.75
407.39	2002.91
407.60	1949.67
407.80	2004.96
408.01	1892.32
408.22	2072.54
408.43	1933.28
408.63	2052.06
408.84	1992.67
409.05	2015.20
409.25	1875.94
409.46	1904.61
409.67	1884.13
409.88	1916.90
410.08	1957.86
410.29	1931.23
410.50	2050.02
410.70	1951.71
410.91	1865.70
411.12	2009.06
411.32	1984.48
411.53	1873.89
411.74	2037.73
411.95	2123.74
412.15	2019.30
412.36	2140.13
412.57	2080.74
412.77	2033.63
412.98	2004.96
413.19	2002.91
413.39	1990.63
413.60	1968.10
413.81	2119.65
414.01	1920.99
414.22	1933.28
414.43	2041.82
414.63	1994.72
414.84	2093.02
415.05	1920.99
415.25	1855.46
415.46	2050.02
415.67	1937.38
415.87	1988.58
416.08	1941.47
416.29	2050.02
416.49	2004.96
416.70	1890.28
416.91	1912.80
417.11	1914.85
417.32	1970.15
417.53	2002.91
417.73	1961.95
417.94	2015.20
418.15	1964.00
418.35	1937.38
418.56	1939.43
418.77	2121.70
418.97	1964.00
419.18	2043.87
419.38	1892.32
419.59	1931.23
419.80	2142.18
420.00	1992.67
420.21	1902.56
420.42	2050.02
420.62	1974.24
420.83	1927.14
421.04	1978.34
421.24	1953.76
421.45	2002.91
421.65	2056.16
421.86	1964.00
422.07	2041.82
422.27	1982.43
422.48	1892.32
422.69	1976.29
422.89	1929.19
423.10	1976.29
423.30	1839.08
423.51	1953.76
423.72	1972.19
423.92	2033.63
424.13	1894.37
424.33	2045.92
424.54	2011.11
424.75	1998.82
424.95	2097.12
425.16	2070.50
425.36	2000.87
425.57	2025.44
425.78	2068.45
425.98	2004.96
426.19	1939.43
426.39	1974.24
426.60	2035.68
426.81	2041.82
427.01	1902.56
427.22	1918.95
427.42	1875.94
427.63	1896.42
427.83	2017.25
428.04	2185.18
428.25	2062.30
428.45	1992.67
428.66	2021.35
428.86	1966.05
429.07	1968.10
429.28	1984.48
429.48	1984.48
429.69	1871.84
429.89	1978.34
430.10	1916.90
430.30	2045.92
430.51	2115.55
430.71	1877.99
430.92	1951.71
431.13	1937.38
431.33	2013.15
431.54	1978.34
431.74	2086.88
431.95	2054.11
432.15	1832.93
432.36	1980.39
432.56	1986.53
432.77	2078.69
432.98	2080.74
433.18	2039.78
433.39	1933.28
433.59	1961.95
433.80	2119.65
434.00	2181.09
434.21	1998.82
434.41	1886.18
434.62	2265.05
434.82	1949.67
435.03	1877.99
435.23	1933.28
435.44	1804.26
435.64	1996.77
435.85	1923.04
436.06	1974.24
436.26	2007.01
436.47	1990.63
436.67	1957.86
436.88	1923.04
437.08	2019.30
437.29	2076.64
437.49	1980.39
437.70	2062.30
437.90	1941.47
438.11	2176.99
438.31	2070.50
438.52	2174.94
438.72	2189.28
438.93	2258.91
439.13	2072.54
439.34	2064.35
439.54	2054.11
439.75	2009.06
439.95	2056.16
440.16	1972.19
440.36	1984.48
440.57	2035.68
440.77	2025.44
440.98	1929.19
441.18	2017.25
441.39	2015.20
441.59	1894.37
441.80	2140.13
442.00	1953.76
442.21	2033.63
442.41	1857.51
442.62	2041.82
442.82	1894.37
443.02	1920.99
443.23	2023.39
443.43	1988.58
443.64	2080.74
443.84	2000.87
444.05	2078.69
444.25	1951.71
444.46	1961.95
444.66	2031.58
444.87	2097.12
445.07	1894.37
445.28	1941.47
445.48	2119.65
445.69	1957.86
445.89	2195.42
446.09	1929.19
446.30	2193.37
446.50	2605.02
446.71	4282.30
446.91	5511.08
447.12	6215.59
447.32	6598.56
447.53	5980.07
447.73	4857.78
447.93	4315.07
448.14	3954.63
448.34	3921.86
448.55	3416.01
448.75	3438.54
448.96	3198.93
449.16	2906.07
449.36	2598.87
449.57	2338.78
449.77	2103.26
449.98	1980.39
450.18	2043.87
450.39	2093.02
450.59	2064.35
450.79	1976.29
451.00	1959.91
451.20	2070.50
451.41	1996.77
451.61	2072.54
451.81	1920.99
452.02	2033.63
452.22	1972.19
452.43	1955.81
452.63	1970.15
