SpectraSuite Data File
++++++++++++++++++++++++++++++++++++
Date: Wed May 04 22:46:07 CEST 2016
User: root
Dark Spectrum Present: No
Reference Spectrum Present: No
Number of Sampled Component Spectra: 1
Spectrometers: USB4C02835
Integration Time (usec): 100000 (USB4C02835)
Spectra Averaged: 1 (USB4C02835)
Boxcar Smoothing: 0 (USB4C02835)
Correct for Electrical Dark: No (USB4C02835)
Strobe/Lamp Enabled: No (USB4C02835)
Correct for Detector Non-linearity: No (USB4C02835)
Correct for Stray Light: No (USB4C02835)
Number of Pixels in Processed Spectrum: 3648
>>>>>Begin Processed Spectral Data<<<<<
177.47	1660.90
177.69	1660.90
177.91	1660.90
178.13	1595.37
178.36	1660.90
178.58	1912.80
178.80	1886.18
179.02	1923.04
179.24	1935.33
179.46	1941.47
179.68	1992.67
179.90	1898.47
180.13	2041.82
180.35	1873.89
180.57	1925.09
180.79	2064.35
181.01	1931.23
181.23	1982.43
181.45	2031.58
181.67	1955.81
181.90	2013.15
182.12	1830.88
182.34	1847.27
182.56	2007.01
182.78	1980.39
183.00	1943.52
183.22	1892.32
183.44	1826.79
183.66	2068.45
183.89	2076.64
184.11	2043.87
184.33	1986.53
184.55	2023.39
184.77	1920.99
184.99	1933.28
185.21	1906.66
185.43	2179.04
185.65	1859.56
185.87	1959.91
186.10	2080.74
186.32	2084.83
186.54	1908.71
186.76	2033.63
186.98	2070.50
187.20	1882.08
187.42	1837.03
187.64	1937.38
187.86	2004.96
188.08	2035.68
188.30	1892.32
188.52	1953.76
188.75	2021.35
188.97	2084.83
189.19	1912.80
189.41	1867.75
189.63	2027.49
189.85	1970.15
190.07	1767.40
190.29	1847.27
190.51	1935.33
190.73	1943.52
190.95	1986.53
191.17	1920.99
191.39	1857.51
191.61	1988.58
191.84	1898.47
192.06	1986.53
192.28	1822.69
192.50	2082.78
192.72	1918.95
192.94	1923.04
193.16	1986.53
193.38	1994.72
193.60	1914.85
193.82	1873.89
194.04	2019.30
194.26	1990.63
194.48	1996.77
194.70	1902.56
194.92	1894.37
195.14	1890.28
195.36	1908.71
195.58	1939.43
195.80	2023.39
196.02	1906.66
196.24	1966.05
196.46	1900.52
196.69	1875.94
196.91	2127.84
197.13	1945.57
197.35	1906.66
197.57	2047.97
197.79	1966.05
198.01	1943.52
198.23	1996.77
198.45	1988.58
198.67	1892.32
198.89	1927.14
199.11	1980.39
199.33	1974.24
199.55	1765.35
199.77	1933.28
199.99	2076.64
200.21	2004.96
200.43	2000.87
200.65	1861.60
200.87	1796.07
201.09	2058.21
201.31	1961.95
201.53	1935.33
201.75	1947.62
201.97	1939.43
202.19	2011.11
202.41	1992.67
202.63	2172.89
202.85	1953.76
203.07	2050.02
203.29	1847.27
203.51	1892.32
203.73	1892.32
203.95	2146.27
204.17	1980.39
204.39	2021.35
204.61	1896.42
204.83	1890.28
205.05	1974.24
205.27	1978.34
205.49	2056.16
205.71	1888.23
205.93	1890.28
206.15	1916.90
206.37	1929.19
206.59	1949.67
206.81	1884.13
207.03	1834.98
207.25	1808.36
207.47	1916.90
207.69	1896.42
207.91	2019.30
208.13	2007.01
208.34	1966.05
208.56	1931.23
208.78	1988.58
209.00	1980.39
209.22	1828.84
209.44	1935.33
209.66	1859.56
209.88	1923.04
210.10	1982.43
210.32	1925.09
210.54	1990.63
210.76	1976.29
210.98	2035.68
211.20	1763.30
211.42	1935.33
211.64	2086.88
211.86	1927.14
212.08	1910.75
212.30	1869.80
212.52	1968.10
212.74	1951.71
212.96	1945.57
213.17	1935.33
213.39	1941.47
213.61	2039.78
213.83	1939.43
214.05	1931.23
214.27	2009.06
214.49	1898.47
214.71	1851.36
214.93	2017.25
215.15	1908.71
215.37	2105.31
215.59	1828.84
215.81	2013.15
216.03	2023.39
216.24	1994.72
216.46	1970.15
216.68	2025.44
216.90	1992.67
217.12	1982.43
217.34	1978.34
217.56	1998.82
217.78	2111.46
218.00	1980.39
218.22	2037.73
218.44	1974.24
218.66	1853.41
218.87	2119.65
219.09	1923.04
219.31	1990.63
219.53	2004.96
219.75	1941.47
219.97	1957.86
220.19	1951.71
220.41	1902.56
220.63	1986.53
220.85	1988.58
221.06	1882.08
221.28	2086.88
221.50	1929.19
221.72	1931.23
221.94	1935.33
222.16	1980.39
222.38	2033.63
222.60	1941.47
222.82	1937.38
223.03	2056.16
223.25	1853.41
223.47	1964.00
223.69	2133.98
223.91	2017.25
224.13	1908.71
224.35	1857.51
224.57	2031.58
224.78	2043.87
225.00	1959.91
225.22	1916.90
225.44	1974.24
225.66	2072.54
225.88	1970.15
226.10	1982.43
226.32	2000.87
226.53	2109.41
226.75	1894.37
226.97	1892.32
227.19	2007.01
227.41	1945.57
227.63	1949.67
227.85	1828.84
228.06	1923.04
228.28	1996.77
228.50	1970.15
228.72	1859.56
228.94	1918.95
229.16	1816.55
229.37	1845.22
229.59	1873.89
229.81	2039.78
230.03	1923.04
230.25	1914.85
230.47	1808.36
230.69	1910.75
230.90	1978.34
231.12	1904.61
231.34	1972.19
231.56	1998.82
231.78	1859.56
232.00	1882.08
232.21	1925.09
232.43	1894.37
232.65	1890.28
232.87	2009.06
233.09	1886.18
233.30	1877.99
233.52	2037.73
233.74	1941.47
233.96	1877.99
234.18	1974.24
234.40	1961.95
234.61	2076.64
234.83	1845.22
235.05	1841.12
235.27	2107.36
235.49	2097.12
235.70	1912.80
235.92	2101.22
236.14	1990.63
236.36	2150.37
236.58	1859.56
236.79	1933.28
237.01	1990.63
237.23	1961.95
237.45	2142.18
237.67	1880.04
237.88	1970.15
238.10	2164.70
238.32	1931.23
238.54	1945.57
238.76	1970.15
238.97	1826.79
239.19	1847.27
239.41	1976.29
239.63	2047.97
239.85	1882.08
240.06	2000.87
240.28	1888.23
240.50	1978.34
240.72	1935.33
240.93	1970.15
241.15	2017.25
241.37	2007.01
241.59	1947.62
241.81	1892.32
242.02	1937.38
242.24	2019.30
242.46	1992.67
242.68	1798.12
242.89	1886.18
243.11	2058.21
243.33	1931.23
243.55	1918.95
243.76	1941.47
243.98	1873.89
244.20	1943.52
244.42	1957.86
244.64	1943.52
244.85	1931.23
245.07	1966.05
245.29	1986.53
245.51	1920.99
245.72	1925.09
245.94	2017.25
246.16	1959.91
246.38	1964.00
246.59	1914.85
246.81	1888.23
247.03	1914.85
247.24	1732.58
247.46	1904.61
247.68	1945.57
247.90	1859.56
248.11	1884.13
248.33	1994.72
248.55	2041.82
248.77	1933.28
248.98	1986.53
249.20	2082.78
249.42	1980.39
249.64	2009.06
249.85	1947.62
250.07	1888.23
250.29	1978.34
250.50	2023.39
250.72	1865.70
250.94	1970.15
251.16	2144.22
251.37	1966.05
251.59	1968.10
251.81	2068.45
252.02	2074.59
252.24	1927.14
252.46	2086.88
252.68	1834.98
252.89	1882.08
253.11	1837.03
253.33	2011.11
253.54	2095.07
253.76	1800.16
253.98	1877.99
254.20	1847.27
254.41	1882.08
254.63	1923.04
254.85	1894.37
255.06	1794.02
255.28	1976.29
255.50	1916.90
255.71	1964.00
255.93	1818.60
256.15	1880.04
256.36	1992.67
256.58	1851.36
256.80	1943.52
257.02	1935.33
257.23	1906.66
257.45	1925.09
257.67	2002.91
257.88	1923.04
258.10	2039.78
258.32	1923.04
258.53	1984.48
258.75	1970.15
258.97	1900.52
259.18	1871.84
259.40	1959.91
259.62	2062.30
259.83	2043.87
260.05	2035.68
260.27	2295.77
260.48	1998.82
260.70	1875.94
260.92	1900.52
261.13	1974.24
261.35	1964.00
261.57	2004.96
261.78	1804.26
262.00	1861.60
262.22	2068.45
262.43	1970.15
262.65	1957.86
262.86	1918.95
263.08	2244.57
263.30	1906.66
263.51	1802.21
263.73	1918.95
263.95	2029.54
264.16	1974.24
264.38	1892.32
264.60	1955.81
264.81	1964.00
265.03	2052.06
265.25	1998.82
265.46	1931.23
265.68	1964.00
265.89	1966.05
266.11	1902.56
266.33	1937.38
266.54	2060.26
266.76	1986.53
266.98	1943.52
267.19	2017.25
267.41	2035.68
267.62	1957.86
267.84	1775.59
268.06	1966.05
268.27	2056.16
268.49	1984.48
268.70	1998.82
268.92	1925.09
269.14	1896.42
269.35	1857.51
269.57	1988.58
269.79	2023.39
270.00	1939.43
270.22	2103.26
270.43	1863.65
270.65	1828.84
270.87	1982.43
271.08	1931.23
271.30	1964.00
271.51	2013.15
271.73	1939.43
271.95	2076.64
272.16	1943.52
272.38	1970.15
272.59	1974.24
272.81	2033.63
273.02	1927.14
273.24	2011.11
273.46	2007.01
273.67	1894.37
273.89	1935.33
274.10	1890.28
274.32	2035.68
274.54	1984.48
274.75	1914.85
274.97	1935.33
275.18	1996.77
275.40	1974.24
275.61	1925.09
275.83	1929.19
276.05	1914.85
276.26	1982.43
276.48	2050.02
276.69	1920.99
276.91	1929.19
277.12	2125.79
277.34	1970.15
277.55	1978.34
277.77	1986.53
277.99	1961.95
278.20	1933.28
278.42	1820.64
278.63	1900.52
278.85	1941.47
279.06	1873.89
279.28	2015.20
279.49	1996.77
279.71	1947.62
279.93	1988.58
280.14	1982.43
280.36	1884.13
280.57	2148.32
280.79	2047.97
281.00	1908.71
281.22	1834.98
281.43	2107.36
281.65	1806.31
281.86	1824.74
282.08	2019.30
282.29	2127.84
282.51	1904.61
282.73	1918.95
282.94	1933.28
283.16	2007.01
283.37	2064.35
283.59	1927.14
283.80	1929.19
284.02	1923.04
284.23	1933.28
284.45	1898.47
284.66	1914.85
284.88	1861.60
285.09	1929.19
285.31	1984.48
285.52	2047.97
285.74	1847.27
285.95	1976.29
286.17	1980.39
286.38	2002.91
286.60	1943.52
286.81	1898.47
287.03	1970.15
287.24	1986.53
287.46	1984.48
287.67	1925.09
287.89	2166.75
288.10	1927.14
288.32	1988.58
288.53	2039.78
288.75	1929.19
288.96	2002.91
289.18	1873.89
289.39	1970.15
289.61	2031.58
289.82	2127.84
290.04	2103.26
290.25	1884.13
290.47	1910.75
290.68	1976.29
290.90	1984.48
291.11	1892.32
291.33	2060.26
291.54	1859.56
291.76	1882.08
291.97	1861.60
292.18	1959.91
292.40	1949.67
292.61	1804.26
292.83	2164.70
293.04	1947.62
293.26	1867.75
293.47	1988.58
293.69	1898.47
293.90	2002.91
294.12	2050.02
294.33	1951.71
294.55	1968.10
294.76	1990.63
294.97	2035.68
295.19	2156.51
295.40	1972.19
295.62	1996.77
295.83	2029.54
296.05	1908.71
296.26	2056.16
296.48	1939.43
296.69	2043.87
296.90	1923.04
297.12	1992.67
297.33	2078.69
297.55	1945.57
297.76	2052.06
297.98	2000.87
298.19	1982.43
298.41	1959.91
298.62	1955.81
298.83	2054.11
299.05	1914.85
299.26	1912.80
299.48	1994.72
299.69	2004.96
299.90	1982.43
300.12	1851.36
300.33	1982.43
300.55	1953.76
300.76	1953.76
300.98	1767.40
301.19	2023.39
301.40	2021.35
301.62	1898.47
301.83	2007.01
302.05	2004.96
302.26	2027.49
302.47	1980.39
302.69	1888.23
302.90	1914.85
303.12	1826.79
303.33	1984.48
303.54	2121.70
303.76	1863.65
303.97	1988.58
304.19	2068.45
304.40	1855.46
304.61	1994.72
304.83	2074.59
305.04	2029.54
305.26	1996.77
305.47	1888.23
305.68	1994.72
305.90	1853.41
306.11	2078.69
306.33	1927.14
306.54	1886.18
306.75	1890.28
306.97	1880.04
307.18	1861.60
307.39	1871.84
307.61	2027.49
307.82	1966.05
308.04	1976.29
308.25	1925.09
308.46	2017.25
308.68	1953.76
308.89	1996.77
309.10	1996.77
309.32	2002.91
309.53	1998.82
309.74	1994.72
309.96	1943.52
310.17	2037.73
310.39	1951.71
310.60	1937.38
310.81	1912.80
311.03	1859.56
311.24	2039.78
311.45	1937.38
311.67	2125.79
311.88	1951.71
312.09	1968.10
312.31	1939.43
312.52	2007.01
312.73	1918.95
312.95	1818.60
313.16	1945.57
313.37	2025.44
313.59	1964.00
313.80	1990.63
314.01	2009.06
314.23	1906.66
314.44	1843.17
314.65	1880.04
314.87	1859.56
315.08	1898.47
315.29	1970.15
315.51	1880.04
315.72	1890.28
315.93	2058.21
316.15	1939.43
316.36	1961.95
316.57	2017.25
316.79	1976.29
317.00	1894.37
317.21	1964.00
317.43	1945.57
317.64	1964.00
317.85	1943.52
318.07	1826.79
318.28	1949.67
318.49	2015.20
318.70	2254.81
318.92	2154.46
319.13	2172.89
319.34	2215.90
319.56	2064.35
319.77	2039.78
319.98	2138.08
320.20	2037.73
320.41	2082.78
320.62	2013.15
320.83	1970.15
321.05	2127.84
321.26	2000.87
321.47	2045.92
321.69	2031.58
321.90	1837.03
322.11	1855.46
322.32	1937.38
322.54	2062.30
322.75	1949.67
322.96	2090.98
323.18	1898.47
323.39	1837.03
323.60	1949.67
323.81	2070.50
324.03	1863.65
324.24	1961.95
324.45	1961.95
324.66	2033.63
324.88	2064.35
325.09	2021.35
325.30	1875.94
325.52	1964.00
325.73	1943.52
325.94	1892.32
326.15	1869.80
326.37	1865.70
326.58	2009.06
326.79	2062.30
327.00	1918.95
327.22	1929.19
327.43	2007.01
327.64	1882.08
327.85	2039.78
328.07	2011.11
328.28	2043.87
328.49	1814.50
328.70	1972.19
328.92	1906.66
329.13	1920.99
329.34	1986.53
329.55	2113.50
329.76	2037.73
329.98	1935.33
330.19	2086.88
330.40	1925.09
330.61	2033.63
330.83	1959.91
331.04	1837.03
331.25	1945.57
331.46	1923.04
331.68	1892.32
331.89	1984.48
332.10	1978.34
332.31	1877.99
332.52	1978.34
332.74	2009.06
332.95	1841.12
333.16	1886.18
333.37	1925.09
333.58	1968.10
333.80	1923.04
334.01	1853.41
334.22	1978.34
334.43	1953.76
334.64	1873.89
334.86	1853.41
335.07	1859.56
335.28	2064.35
335.49	1855.46
335.70	1959.91
335.92	2060.26
336.13	2103.26
336.34	1939.43
336.55	1966.05
336.76	1945.57
336.98	1875.94
337.19	1961.95
337.40	2082.78
337.61	2039.78
337.82	1890.28
338.04	1984.48
338.25	1830.88
338.46	1966.05
338.67	2013.15
338.88	1904.61
339.09	1968.10
339.31	1918.95
339.52	1800.16
339.73	1943.52
339.94	1894.37
340.15	2062.30
340.36	1953.76
340.58	1959.91
340.79	1906.66
341.00	2000.87
341.21	1843.17
341.42	2060.26
341.63	1912.80
341.85	2095.07
342.06	1961.95
342.27	1912.80
342.48	1968.10
342.69	1871.84
342.90	1910.75
343.12	2031.58
343.33	1865.70
343.54	1923.04
343.75	2084.83
343.96	1939.43
344.17	1869.80
344.38	1912.80
344.60	1955.81
344.81	1927.14
345.02	1892.32
345.23	2021.35
345.44	2156.51
345.65	1990.63
345.86	1941.47
346.07	1998.82
346.29	1871.84
346.50	2007.01
346.71	2004.96
346.92	2029.54
347.13	2113.50
347.34	1949.67
347.55	1976.29
347.76	2011.11
347.98	1906.66
348.19	1918.95
348.40	2041.82
348.61	1933.28
348.82	2078.69
349.03	2002.91
349.24	1931.23
349.45	2013.15
349.66	1810.40
349.88	2011.11
350.09	1945.57
350.30	1966.05
350.51	2031.58
350.72	1988.58
350.93	2011.11
351.14	1855.46
351.35	1980.39
351.56	1914.85
351.77	2023.39
351.99	2025.44
352.20	2136.03
352.41	2039.78
352.62	1851.36
352.83	1918.95
353.04	1968.10
353.25	1943.52
353.46	1927.14
353.67	2056.16
353.88	1822.69
354.09	1929.19
354.30	1904.61
354.52	1974.24
354.73	1984.48
354.94	1898.47
355.15	1968.10
355.36	2103.26
355.57	1855.46
355.78	2004.96
355.99	1933.28
356.20	1984.48
356.41	2029.54
356.62	2015.20
356.83	1914.85
357.04	2066.40
357.25	1882.08
357.46	1925.09
357.68	1898.47
357.89	1957.86
358.10	1947.62
358.31	1972.19
358.52	1972.19
358.73	1925.09
358.94	1867.75
359.15	1966.05
359.36	1974.24
359.57	1929.19
359.78	2037.73
359.99	1992.67
360.20	1906.66
360.41	1947.62
360.62	2029.54
360.83	1912.80
361.04	2000.87
361.25	1976.29
361.46	1986.53
361.67	1972.19
361.88	2033.63
362.09	2099.17
362.30	1996.77
362.51	1863.65
362.72	1996.77
362.93	2072.54
363.14	2015.20
363.35	1939.43
363.56	1912.80
363.78	2070.50
363.99	2093.02
364.20	1882.08
364.41	2007.01
364.62	2170.85
364.83	1949.67
365.04	1916.90
365.25	1959.91
365.46	2166.75
365.67	1906.66
365.88	1898.47
366.09	1925.09
366.30	1935.33
366.51	1964.00
366.72	1888.23
366.93	1933.28
367.14	2013.15
367.35	2039.78
367.56	1945.57
367.77	2103.26
367.98	1951.71
368.18	1976.29
368.39	2039.78
368.60	1933.28
368.81	2027.49
369.02	2023.39
369.23	1892.32
369.44	1845.22
369.65	1896.42
369.86	2039.78
370.07	2037.73
370.28	1916.90
370.49	1976.29
370.70	2027.49
370.91	1923.04
371.12	1785.83
371.33	2035.68
371.54	1861.60
371.75	2168.80
371.96	1761.25
372.17	1914.85
372.38	1916.90
372.59	1955.81
372.80	1957.86
373.01	1945.57
373.22	2033.63
373.43	1949.67
373.64	1920.99
373.85	2072.54
374.06	2039.78
374.26	2011.11
374.47	1953.76
374.68	2076.64
374.89	2004.96
375.10	1945.57
375.31	1970.15
375.52	1953.76
375.73	2004.96
375.94	1841.12
376.15	2123.74
376.36	1918.95
376.57	1978.34
376.78	1900.52
376.99	2019.30
377.20	2043.87
377.40	1982.43
377.61	2072.54
377.82	2000.87
378.03	2023.39
378.24	1951.71
378.45	1968.10
378.66	1955.81
378.87	1767.40
379.08	1818.60
379.29	1906.66
379.50	2074.59
379.71	1953.76
379.91	1988.58
380.12	1937.38
380.33	1992.67
380.54	1953.76
380.75	1941.47
380.96	1949.67
381.17	2160.61
381.38	2031.58
381.59	1986.53
381.80	1990.63
382.00	2127.84
382.21	2019.30
382.42	2148.32
382.63	2125.79
382.84	1994.72
383.05	2045.92
383.26	2064.35
383.47	1976.29
383.68	1957.86
383.88	1957.86
384.09	1941.47
384.30	2174.94
384.51	2078.69
384.72	1906.66
384.93	1882.08
385.14	1978.34
385.35	1990.63
385.55	1814.50
385.76	2041.82
385.97	1912.80
386.18	1931.23
386.39	1894.37
386.60	1949.67
386.81	1972.19
387.02	1927.14
387.22	1916.90
387.43	1996.77
387.64	2035.68
387.85	2097.12
388.06	2279.39
388.27	3868.61
388.48	8576.89
388.68	11915.08
388.89	14319.40
389.10	15533.84
389.31	13903.66
389.52	10966.87
389.73	9574.25
389.93	8626.04
390.14	8105.86
390.35	7161.75
390.56	6358.94
390.77	5279.66
390.98	3987.40
391.18	3125.20
391.39	2568.15
391.60	2162.66
391.81	2086.88
392.02	1976.29
392.23	2117.60
392.43	1972.19
392.64	2113.50
392.85	1990.63
393.06	2070.50
393.27	1996.77
393.47	1824.74
393.68	1996.77
393.89	1912.80
394.10	2123.74
394.31	1855.46
394.52	1920.99
394.72	1884.13
394.93	2105.31
395.14	1906.66
395.35	2000.87
395.56	1900.52
395.76	1961.95
395.97	1982.43
396.18	2148.32
396.39	2172.89
396.60	2406.36
396.80	2330.59
397.01	2146.27
397.22	2111.46
397.43	2107.36
397.64	2035.68
397.84	2066.40
398.05	2174.94
398.26	1984.48
398.47	2072.54
398.67	2123.74
398.88	1980.39
399.09	1988.58
399.30	1908.71
399.51	1941.47
399.71	1927.14
399.92	1892.32
400.13	1986.53
400.34	1947.62
400.54	2019.30
400.75	2062.30
400.96	2041.82
401.17	2101.22
401.37	2015.20
401.58	1947.62
401.79	2037.73
402.00	2080.74
402.21	2340.83
402.41	2260.96
402.62	2285.53
402.83	2463.71
403.04	2349.02
403.24	2418.65
403.45	2125.79
403.66	2263.01
403.87	2176.99
404.07	2265.05
404.28	2142.18
404.49	2172.89
404.70	2097.12
404.90	2090.98
405.11	2093.02
405.32	2007.01
405.52	1959.91
405.73	1947.62
405.94	1873.89
406.15	2013.15
406.35	2021.35
406.56	2084.83
406.77	1937.38
406.98	2011.11
407.18	1923.04
407.39	2054.11
407.60	1904.61
407.80	1994.72
408.01	1957.86
408.22	1996.77
408.43	1935.33
408.63	1947.62
408.84	2072.54
409.05	2072.54
409.25	1882.08
409.46	1898.47
409.67	1929.19
409.88	1873.89
410.08	1957.86
410.29	1953.76
410.50	1966.05
410.70	1980.39
410.91	1904.61
411.12	1941.47
411.32	1900.52
411.53	1867.75
411.74	2099.17
411.95	2068.45
412.15	2017.25
412.36	2121.70
412.57	2078.69
412.77	2068.45
412.98	2017.25
413.19	1894.37
413.39	1961.95
413.60	2031.58
413.81	2043.87
414.01	1869.80
414.22	2056.16
414.43	2064.35
414.63	1937.38
414.84	2062.30
415.05	1974.24
415.25	1843.17
415.46	1964.00
415.67	1916.90
415.87	2033.63
416.08	1957.86
416.29	2000.87
416.49	1980.39
416.70	1912.80
416.91	1996.77
417.11	1900.52
417.32	2054.11
417.53	2045.92
417.73	2002.91
417.94	1961.95
418.15	1908.71
418.35	1949.67
418.56	1910.75
418.77	2129.89
418.97	1910.75
419.18	1898.47
419.38	1794.02
419.59	1964.00
419.80	2107.36
420.00	1945.57
420.21	2007.01
420.42	2054.11
420.62	1996.77
420.83	1964.00
421.04	1837.03
421.24	1890.28
421.45	2000.87
421.65	1988.58
421.86	1904.61
422.07	2066.40
422.27	1986.53
422.48	1972.19
422.69	1884.13
422.89	1894.37
423.10	1875.94
423.30	1947.62
423.51	2054.11
423.72	2047.97
423.92	2058.21
424.13	1861.60
424.33	2035.68
424.54	1992.67
424.75	1996.77
424.95	2101.22
425.16	1992.67
425.36	1951.71
425.57	1968.10
425.78	2041.82
425.98	2033.63
426.19	1927.14
426.39	1880.04
426.60	1957.86
426.81	2078.69
427.01	1996.77
427.22	1900.52
427.42	1828.84
427.63	1923.04
427.83	1994.72
428.04	2037.73
428.25	2054.11
428.45	2070.50
428.66	2035.68
428.86	1974.24
429.07	1949.67
429.28	1951.71
429.48	1884.13
429.69	1939.43
429.89	1933.28
430.10	1804.26
430.30	2023.39
430.51	2031.58
430.71	1871.84
430.92	1970.15
431.13	1949.67
431.33	1978.34
431.54	2007.01
431.74	2062.30
431.95	2154.46
432.15	1927.14
432.36	1970.15
432.56	2023.39
432.77	2156.51
432.98	2140.13
433.18	1961.95
433.39	1984.48
433.59	1912.80
433.80	2095.07
434.00	2158.56
434.21	1939.43
434.41	1931.23
434.62	2162.66
434.82	1875.94
435.03	1904.61
435.23	1982.43
435.44	1816.55
435.64	1935.33
435.85	1996.77
436.06	2052.06
436.26	2050.02
436.47	1961.95
436.67	1865.70
436.88	1871.84
437.08	2039.78
437.29	2066.40
437.49	1937.38
437.70	2043.87
437.90	1984.48
438.11	2146.27
438.31	2041.82
438.52	2195.42
438.72	2164.70
438.93	2215.90
439.13	2133.98
439.34	2129.89
439.54	1976.29
439.75	2127.84
439.95	2050.02
440.16	1880.04
440.36	2007.01
440.57	2009.06
440.77	1992.67
440.98	1992.67
441.18	1959.91
441.39	1923.04
441.59	1773.54
441.80	2154.46
442.00	2000.87
442.21	2015.20
442.41	1920.99
442.62	2002.91
442.82	1871.84
443.02	1927.14
443.23	2021.35
443.43	1951.71
443.64	2099.17
443.84	1910.75
444.05	2035.68
444.25	2047.97
444.46	1912.80
444.66	2019.30
444.87	2101.22
445.07	1873.89
445.28	1976.29
445.48	2043.87
445.69	2013.15
445.89	2152.42
446.09	2033.63
446.30	2303.96
446.50	2688.98
446.71	4161.47
446.91	5365.68
447.12	6148.00
447.32	6641.56
447.53	6025.12
447.73	4886.45
447.93	4403.13
448.14	4046.79
448.34	3807.17
448.55	3323.85
448.75	3274.70
448.96	3176.40
449.16	2891.73
449.36	2590.68
449.57	2252.77
449.77	2148.32
449.98	2039.78
450.18	2058.21
450.39	2060.26
450.59	2000.87
450.79	2000.87
451.00	1982.43
451.20	2090.98
451.41	1929.19
451.61	2027.49
451.81	2035.68
452.02	1978.34
452.22	2000.87
452.43	1906.66
452.63	1906.66
