SpectraSuite Data File
++++++++++++++++++++++++++++++++++++
Date: Wed May 04 22:46:17 CEST 2016
User: root
Dark Spectrum Present: No
Reference Spectrum Present: No
Number of Sampled Component Spectra: 1
Spectrometers: USB4C02835
Integration Time (usec): 100000 (USB4C02835)
Spectra Averaged: 1 (USB4C02835)
Boxcar Smoothing: 0 (USB4C02835)
Correct for Electrical Dark: No (USB4C02835)
Strobe/Lamp Enabled: No (USB4C02835)
Correct for Detector Non-linearity: No (USB4C02835)
Correct for Stray Light: No (USB4C02835)
Number of Pixels in Processed Spectrum: 3648
>>>>>Begin Processed Spectral Data<<<<<
177.47	1669.09
177.69	1669.09
177.91	1669.09
178.13	1613.80
178.36	1517.54
178.58	1933.28
178.80	1986.53
179.02	1826.79
179.24	1855.46
179.46	1974.24
179.68	1949.67
179.90	1941.47
180.13	1968.10
180.35	1904.61
180.57	1890.28
180.79	1947.62
181.01	1951.71
181.23	1986.53
181.45	2043.87
181.67	2011.11
181.90	1920.99
182.12	1935.33
182.34	1918.95
182.56	1939.43
182.78	1976.29
183.00	1896.42
183.22	1974.24
183.44	1820.64
183.66	2232.29
183.89	2045.92
184.11	1970.15
184.33	2023.39
184.55	2021.35
184.77	2000.87
184.99	2004.96
185.21	1853.41
185.43	2127.84
185.65	1871.84
185.87	1904.61
186.10	2136.03
186.32	2076.64
186.54	1959.91
186.76	1994.72
186.98	2023.39
187.20	1959.91
187.42	1945.57
187.64	1968.10
187.86	2043.87
188.08	2000.87
188.30	1968.10
188.52	1939.43
188.75	2019.30
188.97	2000.87
189.19	1939.43
189.41	1902.56
189.63	2029.54
189.85	1875.94
190.07	1816.55
190.29	1748.97
190.51	1984.48
190.73	1871.84
190.95	1937.38
191.17	1920.99
191.39	1820.64
191.61	1896.42
191.84	1865.70
192.06	1951.71
192.28	1816.55
192.50	2170.85
192.72	1959.91
192.94	1912.80
193.16	1966.05
193.38	1923.04
193.60	1888.23
193.82	1892.32
194.04	2082.78
194.26	1941.47
194.48	2037.73
194.70	1904.61
194.92	2029.54
195.14	2129.89
195.36	1923.04
195.58	1894.37
195.80	1890.28
196.02	1984.48
196.24	1941.47
196.46	1933.28
196.69	1941.47
196.91	2133.98
197.13	1892.32
197.35	1957.86
197.57	2062.30
197.79	2060.26
198.01	2002.91
198.23	2000.87
198.45	1974.24
198.67	1873.89
198.89	1906.66
199.11	1949.67
199.33	1904.61
199.55	1800.16
199.77	1964.00
199.99	2078.69
200.21	1875.94
200.43	1933.28
200.65	1845.22
200.87	1804.26
201.09	1978.34
201.31	1951.71
201.53	1980.39
201.75	1982.43
201.97	1939.43
202.19	2013.15
202.41	1908.71
202.63	2033.63
202.85	1998.82
203.07	2004.96
203.29	1865.70
203.51	1882.08
203.73	1890.28
203.95	2211.81
204.17	2007.01
204.39	2037.73
204.61	1972.19
204.83	1900.52
205.05	2093.02
205.27	1996.77
205.49	2093.02
205.71	1931.23
205.93	1826.79
206.15	1892.32
206.37	1984.48
206.59	1920.99
206.81	1867.75
207.03	1849.32
207.25	1912.80
207.47	2023.39
207.69	1923.04
207.91	2060.26
208.13	2115.55
208.34	1892.32
208.56	1918.95
208.78	1968.10
209.00	1984.48
209.22	1953.76
209.44	1859.56
209.66	1918.95
209.88	1992.67
210.10	1824.74
210.32	1892.32
210.54	1996.77
210.76	1945.57
210.98	2058.21
211.20	1837.03
211.42	2002.91
211.64	2117.60
211.86	2013.15
212.08	1961.95
212.30	1865.70
212.52	1964.00
212.74	1996.77
212.96	2013.15
213.17	1984.48
213.39	1998.82
213.61	2062.30
213.83	1861.60
214.05	2015.20
214.27	2052.06
214.49	1906.66
214.71	1904.61
214.93	1972.19
215.15	1925.09
215.37	2015.20
215.59	1832.93
215.81	1970.15
216.03	2150.37
216.24	1892.32
216.46	1941.47
216.68	1920.99
216.90	2002.91
217.12	2017.25
217.34	1916.90
217.56	2009.06
217.78	2056.16
218.00	1980.39
218.22	1920.99
218.44	1974.24
218.66	2025.44
218.87	2123.74
219.09	1890.28
219.31	1945.57
219.53	1914.85
219.75	1877.99
219.97	1935.33
220.19	1906.66
220.41	1898.47
220.63	2136.03
220.85	1953.76
221.06	1873.89
221.28	1974.24
221.50	1982.43
221.72	1951.71
221.94	1904.61
222.16	2023.39
222.38	2023.39
222.60	1994.72
222.82	1918.95
223.03	2047.97
223.25	1867.75
223.47	2007.01
223.69	2068.45
223.91	2052.06
224.13	2002.91
224.35	1861.60
224.57	2041.82
224.78	2082.78
225.00	1873.89
225.22	1945.57
225.44	1951.71
225.66	1990.63
225.88	1894.37
226.10	1976.29
226.32	1912.80
226.53	2000.87
226.75	1920.99
226.97	1982.43
227.19	1955.81
227.41	1871.84
227.63	1888.23
227.85	1767.40
228.06	1890.28
228.28	1945.57
228.50	2023.39
228.72	1865.70
228.94	1920.99
229.16	1837.03
229.37	1902.56
229.59	1839.08
229.81	2029.54
230.03	1882.08
230.25	1773.54
230.47	1865.70
230.69	1847.27
230.90	2025.44
231.12	1920.99
231.34	2004.96
231.56	2062.30
231.78	1855.46
232.00	1982.43
232.21	1916.90
232.43	1943.52
232.65	1791.97
232.87	1959.91
233.09	1896.42
233.30	1910.75
233.52	2013.15
233.74	1992.67
233.96	1912.80
234.18	1996.77
234.40	1943.52
234.61	2109.41
234.83	1800.16
235.05	1882.08
235.27	2150.37
235.49	2007.01
235.70	1888.23
235.92	2017.25
236.14	2047.97
236.36	2099.17
236.58	1902.56
236.79	1986.53
237.01	1908.71
237.23	1927.14
237.45	2076.64
237.67	1845.22
237.88	1966.05
238.10	2152.42
238.32	1886.18
238.54	1972.19
238.76	1990.63
238.97	1953.76
239.19	1877.99
239.41	1972.19
239.63	2045.92
239.85	1927.14
240.06	1904.61
240.28	1953.76
240.50	2011.11
240.72	1976.29
240.93	1920.99
241.15	2013.15
241.37	2000.87
241.59	2019.30
241.81	1822.69
242.02	1900.52
242.24	1959.91
242.46	2078.69
242.68	1955.81
242.89	1918.95
243.11	2035.68
243.33	1927.14
243.55	1990.63
243.76	1961.95
243.98	1933.28
244.20	1959.91
244.42	1906.66
244.64	1916.90
244.85	1828.84
245.07	1869.80
245.29	1949.67
245.51	1929.19
245.72	1861.60
245.94	1984.48
246.16	1990.63
246.38	1939.43
246.59	1890.28
246.81	1939.43
247.03	1890.28
247.24	1877.99
247.46	1927.14
247.68	1916.90
247.90	1900.52
248.11	1853.41
248.33	2074.59
248.55	1996.77
248.77	1904.61
248.98	1912.80
249.20	2181.09
249.42	1959.91
249.64	2000.87
249.85	1935.33
250.07	1957.86
250.29	1957.86
250.50	1968.10
250.72	1853.41
250.94	1994.72
251.16	2097.12
251.37	2007.01
251.59	1918.95
251.81	1947.62
252.02	2099.17
252.24	1865.70
252.46	1992.67
252.68	1929.19
252.89	1943.52
253.11	1841.12
253.33	2125.79
253.54	2082.78
253.76	1945.57
253.98	1931.23
254.20	1888.23
254.41	1890.28
254.63	1900.52
254.85	1837.03
255.06	1904.61
255.28	1947.62
255.50	1945.57
255.71	1908.71
255.93	1802.21
256.15	2007.01
256.36	1996.77
256.58	1849.32
256.80	1984.48
257.02	1957.86
257.23	1933.28
257.45	1945.57
257.67	2021.35
257.88	1998.82
258.10	2088.93
258.32	1906.66
258.53	1974.24
258.75	2037.73
258.97	1918.95
259.18	1906.66
259.40	1871.84
259.62	2082.78
259.83	2043.87
260.05	1947.62
260.27	2314.20
260.48	2000.87
260.70	1865.70
260.92	1890.28
261.13	1914.85
261.35	1996.77
261.57	1945.57
261.78	1834.98
262.00	1882.08
262.22	1974.24
262.43	1949.67
262.65	1890.28
262.86	1937.38
263.08	2109.41
263.30	1994.72
263.51	1857.51
263.73	1914.85
263.95	1966.05
264.16	1875.94
264.38	1898.47
264.60	1964.00
264.81	1970.15
265.03	2058.21
265.25	2033.63
265.46	1880.04
265.68	2111.46
265.89	1974.24
266.11	1810.40
266.33	2011.11
266.54	2019.30
266.76	1998.82
266.98	1953.76
267.19	2000.87
267.41	2029.54
267.62	2045.92
267.84	1857.51
268.06	1974.24
268.27	1933.28
268.49	1994.72
268.70	1935.33
268.92	1961.95
269.14	1943.52
269.35	1853.41
269.57	1968.10
269.79	1992.67
270.00	1910.75
270.22	2150.37
270.43	1865.70
270.65	1802.21
270.87	1939.43
271.08	2039.78
271.30	1949.67
271.51	2033.63
271.73	1990.63
271.95	2078.69
272.16	1984.48
272.38	1976.29
272.59	1920.99
272.81	1970.15
273.02	1943.52
273.24	1984.48
273.46	1970.15
273.67	1841.12
273.89	1916.90
274.10	1908.71
274.32	2080.74
274.54	2000.87
274.75	2074.59
274.97	1941.47
275.18	1945.57
275.40	1970.15
275.61	1988.58
275.83	1929.19
276.05	1904.61
276.26	1947.62
276.48	2056.16
276.69	1857.51
276.91	1912.80
277.12	2084.83
277.34	1994.72
277.55	1953.76
277.77	2041.82
277.99	1972.19
278.20	1947.62
278.42	1849.32
278.63	1882.08
278.85	1978.34
279.06	1841.12
279.28	2088.93
279.49	2056.16
279.71	2045.92
279.93	1968.10
280.14	2017.25
280.36	1906.66
280.57	2052.06
280.79	2011.11
281.00	1847.27
281.22	1904.61
281.43	2033.63
281.65	1781.73
281.86	1894.37
282.08	2027.49
282.29	2105.31
282.51	1882.08
282.73	1867.75
282.94	1871.84
283.16	2045.92
283.37	2103.26
283.59	1964.00
283.80	1884.13
284.02	1978.34
284.23	2009.06
284.45	1918.95
284.66	1880.04
284.88	1877.99
285.09	1996.77
285.31	2050.02
285.52	2093.02
285.74	1816.55
285.95	1974.24
286.17	1970.15
286.38	1998.82
286.60	1925.09
286.81	1978.34
287.03	1916.90
287.24	1970.15
287.46	2041.82
287.67	1992.67
287.89	2142.18
288.10	1873.89
288.32	1949.67
288.53	2060.26
288.75	1957.86
288.96	1982.43
289.18	1837.03
289.39	1896.42
289.61	2021.35
289.82	2156.51
290.04	2133.98
290.25	1859.56
290.47	1949.67
290.68	1914.85
290.90	2056.16
291.11	1877.99
291.33	2062.30
291.54	1890.28
291.76	1957.86
291.97	1966.05
292.18	1959.91
292.40	1955.81
292.61	1935.33
292.83	2127.84
293.04	1992.67
293.26	2021.35
293.47	1966.05
293.69	1890.28
293.90	1908.71
294.12	1986.53
294.33	2041.82
294.55	1947.62
294.76	2031.58
294.97	2066.40
295.19	2097.12
295.40	1970.15
295.62	1953.76
295.83	2025.44
296.05	1916.90
296.26	2054.11
296.48	1916.90
296.69	1988.58
296.90	1857.51
297.12	1996.77
297.33	2095.07
297.55	1916.90
297.76	2027.49
297.98	2023.39
298.19	2074.59
298.41	1929.19
298.62	1845.22
298.83	2074.59
299.05	1898.47
299.26	1918.95
299.48	1877.99
299.69	1931.23
299.90	1966.05
300.12	1906.66
300.33	2041.82
300.55	1953.76
300.76	2019.30
300.98	1898.47
301.19	2074.59
301.40	1966.05
301.62	1984.48
301.83	1951.71
302.05	1994.72
302.26	2002.91
302.47	2060.26
302.69	1888.23
302.90	1947.62
303.12	1794.02
303.33	2045.92
303.54	2076.64
303.76	1900.52
303.97	1966.05
304.19	2047.97
304.40	1916.90
304.61	2062.30
304.83	2105.31
305.04	2060.26
305.26	2064.35
305.47	2029.54
305.68	1976.29
305.90	1865.70
306.11	2103.26
306.33	1931.23
306.54	1955.81
306.75	1898.47
306.97	1873.89
307.18	1867.75
307.39	1912.80
307.61	1951.71
307.82	1882.08
308.04	2021.35
308.25	1984.48
308.46	1914.85
308.68	1923.04
308.89	1927.14
309.10	2015.20
309.32	2021.35
309.53	1972.19
309.74	2025.44
309.96	1890.28
310.17	1980.39
310.39	1898.47
310.60	1992.67
310.81	1955.81
311.03	1925.09
311.24	2066.40
311.45	1968.10
311.67	2090.98
311.88	1961.95
312.09	1974.24
312.31	1964.00
312.52	1933.28
312.73	1945.57
312.95	1900.52
313.16	1843.17
313.37	2009.06
313.59	2011.11
313.80	1970.15
314.01	1978.34
314.23	1927.14
314.44	1902.56
314.65	1837.03
314.87	1871.84
315.08	1947.62
315.29	1972.19
315.51	1912.80
315.72	1810.40
315.93	2066.40
316.15	2013.15
316.36	1925.09
316.57	2009.06
316.79	1951.71
317.00	1959.91
317.21	1978.34
317.43	1865.70
317.64	1953.76
317.85	1882.08
318.07	1900.52
318.28	1994.72
318.49	2082.78
318.70	2224.09
318.92	2230.24
319.13	2142.18
319.34	2140.13
319.56	2138.08
319.77	2105.31
319.98	2101.22
320.20	2035.68
320.41	2072.54
320.62	1959.91
320.83	1865.70
321.05	2101.22
321.26	2013.15
321.47	1914.85
321.69	2072.54
321.90	1810.40
322.11	1906.66
322.32	2007.01
322.54	2019.30
322.75	1945.57
322.96	2121.70
323.18	1865.70
323.39	1798.12
323.60	1892.32
323.81	2021.35
324.03	1849.32
324.24	2013.15
324.45	1931.23
324.66	2000.87
324.88	2050.02
325.09	1990.63
325.30	1951.71
325.52	1994.72
325.73	2029.54
325.94	1898.47
326.15	1841.12
326.37	1929.19
326.58	1992.67
326.79	2045.92
327.00	1890.28
327.22	1892.32
327.43	2007.01
327.64	1906.66
327.85	1914.85
328.07	1964.00
328.28	2062.30
328.49	1974.24
328.70	1916.90
328.92	1976.29
329.13	1882.08
329.34	1998.82
329.55	2054.11
329.76	1968.10
329.98	1875.94
330.19	2021.35
330.40	1976.29
330.61	1916.90
330.83	2056.16
331.04	1890.28
331.25	1939.43
331.46	1931.23
331.68	1843.17
331.89	2060.26
332.10	1984.48
332.31	1859.56
332.52	1957.86
332.74	2060.26
332.95	1832.93
333.16	1941.47
333.37	1925.09
333.58	1894.37
333.80	1931.23
334.01	1839.08
334.22	2009.06
334.43	1931.23
334.64	1890.28
334.86	1857.51
335.07	1970.15
335.28	2015.20
335.49	1894.37
335.70	2029.54
335.92	1933.28
336.13	2084.83
336.34	2031.58
336.55	1953.76
336.76	1916.90
336.98	1777.64
337.19	1978.34
337.40	2074.59
337.61	2129.89
337.82	1877.99
338.04	1992.67
338.25	1804.26
338.46	1931.23
338.67	1904.61
338.88	1777.64
339.09	1890.28
339.31	1914.85
339.52	1837.03
339.73	1834.98
339.94	1886.18
340.15	1867.75
340.36	1867.75
340.58	1972.19
340.79	1937.38
341.00	1957.86
341.21	1914.85
341.42	2111.46
341.63	1980.39
341.85	1992.67
342.06	1943.52
342.27	1931.23
342.48	2011.11
342.69	1880.04
342.90	2045.92
343.12	1964.00
343.33	1847.27
343.54	1972.19
343.75	2047.97
343.96	1972.19
344.17	1851.36
344.38	1957.86
344.60	1845.22
344.81	1894.37
345.02	1902.56
345.23	2023.39
345.44	2131.94
345.65	2013.15
345.86	2017.25
346.07	1994.72
346.29	1937.38
346.50	1982.43
346.71	1923.04
346.92	2060.26
347.13	2131.94
347.34	1914.85
347.55	2002.91
347.76	1941.47
347.98	1818.60
348.19	1978.34
348.40	2066.40
348.61	1904.61
348.82	2031.58
349.03	2043.87
349.24	1937.38
349.45	2088.93
349.66	1800.16
349.88	1945.57
350.09	1918.95
350.30	2105.31
350.51	2099.17
350.72	1931.23
350.93	2060.26
351.14	1968.10
351.35	1912.80
351.56	1873.89
351.77	1882.08
351.99	1978.34
352.20	2131.94
352.41	2052.06
352.62	1865.70
352.83	1988.58
353.04	1890.28
353.25	1929.19
353.46	2039.78
353.67	2070.50
353.88	1849.32
354.09	1974.24
354.30	1982.43
354.52	1994.72
354.73	1888.23
354.94	1916.90
355.15	1931.23
355.36	2062.30
355.57	1968.10
355.78	2013.15
355.99	1923.04
356.20	1957.86
356.41	1980.39
356.62	2062.30
356.83	1961.95
357.04	2060.26
357.25	1865.70
357.46	1974.24
357.68	1851.36
357.89	1877.99
358.10	1970.15
358.31	1898.47
358.52	1892.32
358.73	1898.47
358.94	1845.22
359.15	1933.28
359.36	2064.35
359.57	1982.43
359.78	1925.09
359.99	2039.78
360.20	1916.90
360.41	2047.97
360.62	2035.68
360.83	1961.95
361.04	1966.05
361.25	1898.47
361.46	2101.22
361.67	1964.00
361.88	1998.82
362.09	2054.11
362.30	2013.15
362.51	1898.47
362.72	1910.75
362.93	2064.35
363.14	2002.91
363.35	2072.54
363.56	1953.76
363.78	2037.73
363.99	2017.25
364.20	1865.70
364.41	2017.25
364.62	2080.74
364.83	1970.15
365.04	1875.94
365.25	1953.76
365.46	2185.18
365.67	1914.85
365.88	1910.75
366.09	1941.47
366.30	1961.95
366.51	2054.11
366.72	1871.84
366.93	1949.67
367.14	1939.43
367.35	2017.25
367.56	1877.99
367.77	2095.07
367.98	1949.67
368.18	1970.15
368.39	1982.43
368.60	1925.09
368.81	2007.01
369.02	2002.91
369.23	1935.33
369.44	1849.32
369.65	1937.38
369.86	2015.20
370.07	2017.25
370.28	1947.62
370.49	2011.11
370.70	2002.91
370.91	1873.89
371.12	1798.12
371.33	2033.63
371.54	1912.80
371.75	2023.39
371.96	1767.40
372.17	2050.02
372.38	1912.80
372.59	1953.76
372.80	1923.04
373.01	1976.29
373.22	2015.20
373.43	1984.48
373.64	1914.85
373.85	2037.73
374.06	2074.59
374.26	1974.24
374.47	1992.67
374.68	2078.69
374.89	2031.58
375.10	1984.48
375.31	2009.06
375.52	1941.47
375.73	2021.35
375.94	1886.18
376.15	2035.68
376.36	1951.71
376.57	1826.79
376.78	1929.19
376.99	2021.35
377.20	2078.69
377.40	1949.67
377.61	2011.11
377.82	1877.99
378.03	2062.30
378.24	1939.43
378.45	1916.90
378.66	1949.67
378.87	1882.08
379.08	1812.45
379.29	1951.71
379.50	2054.11
379.71	2058.21
379.91	2021.35
380.12	1955.81
380.33	1968.10
380.54	1996.77
380.75	1976.29
380.96	1970.15
381.17	2004.96
381.38	1845.22
381.59	1943.52
381.80	2027.49
382.00	2150.37
382.21	2056.16
382.42	2187.23
382.63	2203.61
382.84	2090.98
383.05	2031.58
383.26	2082.78
383.47	2021.35
383.68	1990.63
383.88	2009.06
384.09	1984.48
384.30	2047.97
384.51	1978.34
384.72	1927.14
384.93	1859.56
385.14	1953.76
385.35	2007.01
385.55	1873.89
385.76	1998.82
385.97	1923.04
386.18	1877.99
386.39	1898.47
386.60	1939.43
386.81	2004.96
387.02	1880.04
387.22	1929.19
387.43	2125.79
387.64	2152.42
387.85	2152.42
388.06	2248.67
388.27	3946.44
388.48	8681.34
388.68	11888.46
388.89	14247.72
389.10	15722.26
389.31	14110.50
389.52	10927.96
389.73	9447.28
389.93	8681.34
390.14	7905.16
390.35	7229.33
390.56	6586.27
390.77	5156.79
390.98	4159.42
391.18	3229.65
391.39	2545.63
391.60	2148.32
391.81	2138.08
392.02	1990.63
392.23	2179.04
392.43	2000.87
392.64	2060.26
392.85	1945.57
393.06	2129.89
393.27	1937.38
393.47	2027.49
393.68	2017.25
393.89	1873.89
394.10	2047.97
394.31	1910.75
394.52	1910.75
394.72	1877.99
394.93	2074.59
395.14	1908.71
395.35	1984.48
395.56	1892.32
395.76	1961.95
395.97	2074.59
396.18	2121.70
396.39	2058.21
396.60	2353.12
396.80	2252.77
397.01	2084.83
397.22	2193.37
397.43	2211.81
397.64	2007.01
397.84	2121.70
398.05	2136.03
398.26	1988.58
398.47	2090.98
398.67	2109.41
398.88	1953.76
399.09	1900.52
399.30	1865.70
399.51	2093.02
399.71	1931.23
399.92	1978.34
400.13	2070.50
400.34	1892.32
400.54	1927.14
400.75	2076.64
400.96	1998.82
401.17	2199.52
401.37	1978.34
401.58	2002.91
401.79	1972.19
402.00	2109.41
402.21	2301.92
402.41	2344.92
402.62	2301.92
402.83	2340.83
403.04	2475.99
403.24	2463.71
403.45	2209.76
403.66	2222.05
403.87	2209.76
404.07	2199.52
404.28	2187.23
404.49	2168.80
404.70	2023.39
404.90	2045.92
405.11	2023.39
405.32	2015.20
405.52	1957.86
405.73	1867.75
405.94	1855.46
406.15	1927.14
406.35	1968.10
406.56	1966.05
406.77	1964.00
406.98	2068.45
407.18	1933.28
407.39	2033.63
407.60	1931.23
407.80	1974.24
408.01	1880.04
408.22	2021.35
408.43	1937.38
408.63	2025.44
408.84	2080.74
409.05	1918.95
409.25	1912.80
409.46	1861.60
409.67	1886.18
409.88	1961.95
410.08	2021.35
410.29	1912.80
410.50	2000.87
410.70	1990.63
410.91	1859.56
411.12	2019.30
411.32	1974.24
411.53	1910.75
411.74	2088.93
411.95	2045.92
412.15	2064.35
412.36	2152.42
412.57	2037.73
412.77	2162.66
412.98	1943.52
413.19	1980.39
413.39	1988.58
413.60	2084.83
413.81	2138.08
414.01	1947.62
414.22	1935.33
414.43	2033.63
414.63	1937.38
414.84	2052.06
415.05	2043.87
415.25	1945.57
415.46	2037.73
415.67	1961.95
415.87	2035.68
416.08	2045.92
416.29	1904.61
416.49	1941.47
416.70	1935.33
416.91	1994.72
417.11	1972.19
417.32	1978.34
417.53	1955.81
417.73	2000.87
417.94	1912.80
418.15	1937.38
418.35	1970.15
418.56	1992.67
418.77	2189.28
418.97	1931.23
419.18	1984.48
419.38	1763.30
419.59	1927.14
419.80	2029.54
420.00	1951.71
420.21	1914.85
420.42	2021.35
420.62	2000.87
420.83	1900.52
421.04	1892.32
421.24	1892.32
421.45	1980.39
421.65	2019.30
421.86	1959.91
422.07	1972.19
422.27	1992.67
422.48	1976.29
422.69	1892.32
422.89	1970.15
423.10	1927.14
423.30	1837.03
423.51	1906.66
423.72	1982.43
423.92	2072.54
424.13	1865.70
424.33	1990.63
424.54	1990.63
424.75	1964.00
424.95	2056.16
425.16	2013.15
425.36	1890.28
425.57	1961.95
425.78	1998.82
425.98	2078.69
426.19	1933.28
426.39	1894.37
426.60	1996.77
426.81	2050.02
427.01	1998.82
427.22	1890.28
427.42	1880.04
427.63	1882.08
427.83	2017.25
428.04	2117.60
428.25	2074.59
428.45	2056.16
428.66	2086.88
428.86	1941.47
429.07	1941.47
429.28	1998.82
429.48	1959.91
429.69	1923.04
429.89	1980.39
430.10	1867.75
430.30	1976.29
430.51	2082.78
430.71	1912.80
430.92	1918.95
431.13	1929.19
431.33	1957.86
431.54	1959.91
431.74	2076.64
431.95	2140.13
432.15	1964.00
432.36	1986.53
432.56	2009.06
432.77	2072.54
432.98	2093.02
433.18	1996.77
433.39	1953.76
433.59	1937.38
433.80	2240.48
434.00	2152.42
434.21	1953.76
434.41	1939.43
434.62	2195.42
434.82	1865.70
435.03	1923.04
435.23	2066.40
435.44	1806.31
435.64	1933.28
435.85	1978.34
436.06	1990.63
436.26	1994.72
436.47	1949.67
436.67	1927.14
436.88	1931.23
437.08	2058.21
437.29	2146.27
437.49	1968.10
437.70	2068.45
437.90	1964.00
438.11	2117.60
438.31	2084.83
438.52	2150.37
438.72	2160.61
438.93	2275.29
439.13	2011.11
439.34	2220.00
439.54	1998.82
439.75	2056.16
439.95	1976.29
440.16	1894.37
440.36	1920.99
440.57	2105.31
440.77	1968.10
440.98	1933.28
441.18	2058.21
441.39	1894.37
441.59	2015.20
441.80	2158.56
442.00	1996.77
442.21	2090.98
442.41	1871.84
442.62	2039.78
442.82	1888.23
443.02	1949.67
443.23	1996.77
443.43	1941.47
443.64	2127.84
443.84	1937.38
444.05	2140.13
444.25	1939.43
444.46	2021.35
444.66	1908.71
444.87	2088.93
445.07	1873.89
445.28	1945.57
445.48	2101.22
445.69	2019.30
445.89	2187.23
446.09	2009.06
446.30	2287.58
446.50	2639.83
446.71	4120.51
446.91	5377.97
447.12	6205.35
447.32	6559.64
447.53	6045.60
447.73	4915.12
447.93	4366.27
448.14	3962.82
448.34	3766.21
448.55	3401.68
448.75	3381.20
448.96	3182.54
449.16	2861.01
449.36	2674.65
449.57	2381.79
449.77	2156.51
449.98	2113.50
450.18	1947.62
450.39	2084.83
450.59	2029.54
450.79	1964.00
451.00	2019.30
451.20	2021.35
451.41	1951.71
451.61	1964.00
451.81	1998.82
452.02	1904.61
452.22	1955.81
452.43	1918.95
452.63	1941.47
