SpectraSuite Data File
++++++++++++++++++++++++++++++++++++
Date: Wed May 04 22:45:25 CEST 2016
User: root
Dark Spectrum Present: No
Reference Spectrum Present: No
Number of Sampled Component Spectra: 1
Spectrometers: USB4C02835
Integration Time (usec): 100000 (USB4C02835)
Spectra Averaged: 1 (USB4C02835)
Boxcar Smoothing: 0 (USB4C02835)
Correct for Electrical Dark: No (USB4C02835)
Strobe/Lamp Enabled: No (USB4C02835)
Correct for Detector Non-linearity: No (USB4C02835)
Correct for Stray Light: No (USB4C02835)
Number of Pixels in Processed Spectrum: 3648
>>>>>Begin Processed Spectral Data<<<<<
177.47	1619.94
177.69	1619.94
177.91	1619.94
178.13	1576.94
178.36	1621.99
178.58	1886.18
178.80	2023.39
179.02	1869.80
179.24	1863.65
179.46	1884.13
179.68	2033.63
179.90	1916.90
180.13	1959.91
180.35	1931.23
180.57	1933.28
180.79	1992.67
181.01	1980.39
181.23	2023.39
181.45	2050.02
181.67	1953.76
181.90	2027.49
182.12	1841.12
182.34	1920.99
182.56	1974.24
182.78	1966.05
183.00	1925.09
183.22	1970.15
183.44	1908.71
183.66	2111.46
183.89	2058.21
184.11	1982.43
184.33	2007.01
184.55	1984.48
184.77	1976.29
184.99	1996.77
185.21	1914.85
185.43	2150.37
185.65	1916.90
185.87	1912.80
186.10	2144.22
186.32	2107.36
186.54	1949.67
186.76	1976.29
186.98	2111.46
187.20	1923.04
187.42	2002.91
187.64	1886.18
187.86	1978.34
188.08	1947.62
188.30	1832.93
188.52	1875.94
188.75	1990.63
188.97	2074.59
189.19	1888.23
189.41	1918.95
189.63	1951.71
189.85	1986.53
190.07	1832.93
190.29	1886.18
190.51	1996.77
190.73	1812.45
190.95	2039.78
191.17	1929.19
191.39	1918.95
191.61	1914.85
191.84	1984.48
192.06	1869.80
192.28	1769.44
192.50	2179.04
192.72	2027.49
192.94	1951.71
193.16	2041.82
193.38	1966.05
193.60	1890.28
193.82	1937.38
194.04	1949.67
194.26	1949.67
194.48	1916.90
194.70	1853.41
194.92	1953.76
195.14	2009.06
195.36	1931.23
195.58	1925.09
195.80	1949.67
196.02	1884.13
196.24	1857.51
196.46	1894.37
196.69	1898.47
196.91	2142.18
197.13	1931.23
197.35	1886.18
197.57	2076.64
197.79	2011.11
198.01	1964.00
198.23	1916.90
198.45	1925.09
198.67	1853.41
198.89	1855.46
199.11	1937.38
199.33	1859.56
199.55	1785.83
199.77	1906.66
199.99	1992.67
200.21	1974.24
200.43	2029.54
200.65	1851.36
200.87	1775.59
201.09	1978.34
201.31	1920.99
201.53	1966.05
201.75	1943.52
201.97	1957.86
202.19	2002.91
202.41	1955.81
202.63	2066.40
202.85	1959.91
203.07	1970.15
203.29	1970.15
203.51	1822.69
203.73	1869.80
203.95	2144.22
204.17	1966.05
204.39	1920.99
204.61	1972.19
204.83	1920.99
205.05	2056.16
205.27	1966.05
205.49	2166.75
205.71	1884.13
205.93	1857.51
206.15	1949.67
206.37	1908.71
206.59	1966.05
206.81	1865.70
207.03	1894.37
207.25	1906.66
207.47	1986.53
207.69	1961.95
207.91	2041.82
208.13	2019.30
208.34	1888.23
208.56	1902.56
208.78	1976.29
209.00	1939.43
209.22	1865.70
209.44	1945.57
209.66	1904.61
209.88	1992.67
210.10	1968.10
210.32	1951.71
210.54	2056.16
210.76	1982.43
210.98	1976.29
211.20	1814.50
211.42	1998.82
211.64	2078.69
211.86	1990.63
212.08	1923.04
212.30	1972.19
212.52	1980.39
212.74	1994.72
212.96	1951.71
213.17	2023.39
213.39	1925.09
213.61	2033.63
213.83	1970.15
214.05	1914.85
214.27	2025.44
214.49	1890.28
214.71	1865.70
214.93	2037.73
215.15	2029.54
215.37	1992.67
215.59	1847.27
215.81	2004.96
216.03	2070.50
216.24	1964.00
216.46	1986.53
216.68	1972.19
216.90	2011.11
217.12	2013.15
217.34	1984.48
217.56	1982.43
217.78	1982.43
218.00	1998.82
218.22	1988.58
218.44	2041.82
218.66	2056.16
218.87	2088.93
219.09	1914.85
219.31	2017.25
219.53	1996.77
219.75	1898.47
219.97	1931.23
220.19	1937.38
220.41	1984.48
220.63	2027.49
220.85	1974.24
221.06	1968.10
221.28	2115.55
221.50	2015.20
221.72	2004.96
221.94	1890.28
222.16	1902.56
222.38	1996.77
222.60	2023.39
222.82	1877.99
223.03	2002.91
223.25	1888.23
223.47	1927.14
223.69	2111.46
223.91	1974.24
224.13	1986.53
224.35	1943.52
224.57	2015.20
224.78	2004.96
225.00	1873.89
225.22	1908.71
225.44	1933.28
225.66	1996.77
225.88	1920.99
226.10	2000.87
226.32	1931.23
226.53	2095.07
226.75	1914.85
226.97	1923.04
227.19	1916.90
227.41	1943.52
227.63	1947.62
227.85	1841.12
228.06	1959.91
228.28	1949.67
228.50	2056.16
228.72	1869.80
228.94	1871.84
229.16	1812.45
229.37	1843.17
229.59	1923.04
229.81	2080.74
230.03	1875.94
230.25	1867.75
230.47	1869.80
230.69	1845.22
230.90	2115.55
231.12	1927.14
231.34	1964.00
231.56	2035.68
231.78	1771.49
232.00	1916.90
232.21	1974.24
232.43	1898.47
232.65	1859.56
232.87	1966.05
233.09	1914.85
233.30	1896.42
233.52	1966.05
233.74	2052.06
233.96	1867.75
234.18	1947.62
234.40	1951.71
234.61	2129.89
234.83	1873.89
235.05	1867.75
235.27	2099.17
235.49	2062.30
235.70	1966.05
235.92	1964.00
236.14	2047.97
236.36	2244.57
236.58	1902.56
236.79	1904.61
237.01	1925.09
237.23	1994.72
237.45	2064.35
237.67	1888.23
237.88	1982.43
238.10	2015.20
238.32	1908.71
238.54	1916.90
238.76	1959.91
238.97	1849.32
239.19	1845.22
239.41	2007.01
239.63	1990.63
239.85	1839.08
240.06	1908.71
240.28	1951.71
240.50	2064.35
240.72	1910.75
240.93	1898.47
241.15	2029.54
241.37	1955.81
241.59	2070.50
241.81	1964.00
242.02	1900.52
242.24	1966.05
242.46	1955.81
242.68	1877.99
242.89	1914.85
243.11	1994.72
243.33	1920.99
243.55	1910.75
243.76	1865.70
243.98	1945.57
244.20	1980.39
244.42	1957.86
244.64	1937.38
244.85	1853.41
245.07	1912.80
245.29	1976.29
245.51	1877.99
245.72	1961.95
245.94	2058.21
246.16	1896.42
246.38	1964.00
246.59	1863.65
246.81	1859.56
247.03	1896.42
247.24	1816.55
247.46	1931.23
247.68	2043.87
247.90	1957.86
248.11	1869.80
248.33	2015.20
248.55	1916.90
248.77	2002.91
248.98	2054.11
249.20	2093.02
249.42	1994.72
249.64	1976.29
249.85	1890.28
250.07	1863.65
250.29	1992.67
250.50	2050.02
250.72	1824.74
250.94	1972.19
251.16	2099.17
251.37	1949.67
251.59	1966.05
251.81	2052.06
252.02	2035.68
252.24	1933.28
252.46	2099.17
252.68	1916.90
252.89	1925.09
253.11	1863.65
253.33	1994.72
253.54	1998.82
253.76	1912.80
253.98	1947.62
254.20	1998.82
254.41	1816.55
254.63	1918.95
254.85	1810.40
255.06	1918.95
255.28	2015.20
255.50	2017.25
255.71	1822.69
255.93	1818.60
256.15	1898.47
256.36	2011.11
256.58	1929.19
256.80	1888.23
257.02	1869.80
257.23	1939.43
257.45	1990.63
257.67	1966.05
257.88	1978.34
258.10	1947.62
258.32	1933.28
258.53	1990.63
258.75	2031.58
258.97	1914.85
259.18	1949.67
259.40	2000.87
259.62	2115.55
259.83	2086.88
260.05	1943.52
260.27	2234.33
260.48	2039.78
260.70	1808.36
260.92	1949.67
261.13	1941.47
261.35	1996.77
261.57	1925.09
261.78	1826.79
262.00	1871.84
262.22	1974.24
262.43	1972.19
262.65	1873.89
262.86	1916.90
263.08	2127.84
263.30	1898.47
263.51	1904.61
263.73	1929.19
263.95	2113.50
264.16	1898.47
264.38	1898.47
264.60	1957.86
264.81	1935.33
265.03	2035.68
265.25	1982.43
265.46	1863.65
265.68	2015.20
265.89	2015.20
266.11	1763.30
266.33	1992.67
266.54	2045.92
266.76	1939.43
266.98	2033.63
267.19	2054.11
267.41	2009.06
267.62	1949.67
267.84	1828.84
268.06	1994.72
268.27	1933.28
268.49	2068.45
268.70	2029.54
268.92	1931.23
269.14	1888.23
269.35	1853.41
269.57	1949.67
269.79	1949.67
270.00	1902.56
270.22	2043.87
270.43	1886.18
270.65	1853.41
270.87	1937.38
271.08	2037.73
271.30	1957.86
271.51	1896.42
271.73	2007.01
271.95	2054.11
272.16	1929.19
272.38	1929.19
272.59	1832.93
272.81	1984.48
273.02	1902.56
273.24	1910.75
273.46	2045.92
273.67	1908.71
273.89	1949.67
274.10	1968.10
274.32	1964.00
274.54	1939.43
274.75	1996.77
274.97	1951.71
275.18	2074.59
275.40	2105.31
275.61	1970.15
275.83	1941.47
276.05	1865.70
276.26	1939.43
276.48	1951.71
276.69	1857.51
276.91	2002.91
277.12	2031.58
277.34	2090.98
277.55	2033.63
277.77	1902.56
277.99	1916.90
278.20	1875.94
278.42	1816.55
278.63	1855.46
278.85	1982.43
279.06	1841.12
279.28	2023.39
279.49	1984.48
279.71	1961.95
279.93	1871.84
280.14	1935.33
280.36	1912.80
280.57	1966.05
280.79	2043.87
281.00	1929.19
281.22	1824.74
281.43	2052.06
281.65	1779.68
281.86	1945.57
282.08	1996.77
282.29	2101.22
282.51	1834.98
282.73	1873.89
282.94	1920.99
283.16	2035.68
283.37	2107.36
283.59	1961.95
283.80	1941.47
284.02	2009.06
284.23	1941.47
284.45	1947.62
284.66	1826.79
284.88	1896.42
285.09	1980.39
285.31	1996.77
285.52	1966.05
285.74	1875.94
285.95	1974.24
286.17	2058.21
286.38	2009.06
286.60	1859.56
286.81	1873.89
287.03	1882.08
287.24	1966.05
287.46	1945.57
287.67	1949.67
287.89	2054.11
288.10	1957.86
288.32	1916.90
288.53	2119.65
288.75	1914.85
288.96	1978.34
289.18	1927.14
289.39	1990.63
289.61	1994.72
289.82	2111.46
290.04	2041.82
290.25	1851.36
290.47	1910.75
290.68	2023.39
290.90	2029.54
291.11	1841.12
291.33	1990.63
291.54	1898.47
291.76	1931.23
291.97	1933.28
292.18	2007.01
292.40	1918.95
292.61	1910.75
292.83	2142.18
293.04	1959.91
293.26	1953.76
293.47	1906.66
293.69	1875.94
293.90	1904.61
294.12	2009.06
294.33	2054.11
294.55	1910.75
294.76	2090.98
294.97	2093.02
295.19	2084.83
295.40	1873.89
295.62	1976.29
295.83	2060.26
296.05	1910.75
296.26	1984.48
296.48	1953.76
296.69	1968.10
296.90	1964.00
297.12	2058.21
297.33	2007.01
297.55	1943.52
297.76	1984.48
297.98	2099.17
298.19	1947.62
298.41	1966.05
298.62	1875.94
298.83	2000.87
299.05	1986.53
299.26	1908.71
299.48	1859.56
299.69	2002.91
299.90	1933.28
300.12	1865.70
300.33	2009.06
300.55	2013.15
300.76	2043.87
300.98	1837.03
301.19	1902.56
301.40	1953.76
301.62	1937.38
301.83	2039.78
302.05	1951.71
302.26	1914.85
302.47	2060.26
302.69	1916.90
302.90	2058.21
303.12	1832.93
303.33	2062.30
303.54	2138.08
303.76	1945.57
303.97	1937.38
304.19	2084.83
304.40	1890.28
304.61	1984.48
304.83	2099.17
305.04	1966.05
305.26	2039.78
305.47	1898.47
305.68	1947.62
305.90	1900.52
306.11	2004.96
306.33	1959.91
306.54	1929.19
306.75	1908.71
306.97	1865.70
307.18	1882.08
307.39	1925.09
307.61	1980.39
307.82	1890.28
308.04	1994.72
308.25	1912.80
308.46	1986.53
308.68	1937.38
308.89	1959.91
309.10	2013.15
309.32	1970.15
309.53	1941.47
309.74	2045.92
309.96	1871.84
310.17	2054.11
310.39	1875.94
310.60	1992.67
310.81	1923.04
311.03	1898.47
311.24	2052.06
311.45	1943.52
311.67	2062.30
311.88	1976.29
312.09	1937.38
312.31	1875.94
312.52	1984.48
312.73	1898.47
312.95	1853.41
313.16	1865.70
313.37	2058.21
313.59	2002.91
313.80	2050.02
314.01	2082.78
314.23	1935.33
314.44	1968.10
314.65	1898.47
314.87	1855.46
315.08	1994.72
315.29	1849.32
315.51	1910.75
315.72	1865.70
315.93	2119.65
316.15	2031.58
316.36	1935.33
316.57	1947.62
316.79	2031.58
317.00	1914.85
317.21	2017.25
317.43	1910.75
317.64	1957.86
317.85	1894.37
318.07	1941.47
318.28	2039.78
318.49	2117.60
318.70	2258.91
318.92	2115.55
319.13	2144.22
319.34	2187.23
319.56	2099.17
319.77	2093.02
319.98	2035.68
320.20	2004.96
320.41	2060.26
320.62	2093.02
320.83	1841.12
321.05	2160.61
321.26	1945.57
321.47	1972.19
321.69	2007.01
321.90	1890.28
322.11	1882.08
322.32	2007.01
322.54	2035.68
322.75	1957.86
322.96	2172.89
323.18	1845.22
323.39	1822.69
323.60	1892.32
323.81	2050.02
324.03	1929.19
324.24	1935.33
324.45	1918.95
324.66	2004.96
324.88	2058.21
325.09	2090.98
325.30	1925.09
325.52	1966.05
325.73	2000.87
325.94	1880.04
326.15	1802.21
326.37	1966.05
326.58	2019.30
326.79	1986.53
327.00	1798.12
327.22	2035.68
327.43	1933.28
327.64	1920.99
327.85	2078.69
328.07	1984.48
328.28	2062.30
328.49	1886.18
328.70	1904.61
328.92	1972.19
329.13	1935.33
329.34	1984.48
329.55	2119.65
329.76	1968.10
329.98	1945.57
330.19	2064.35
330.40	1959.91
330.61	2013.15
330.83	1955.81
331.04	1892.32
331.25	1970.15
331.46	1896.42
331.68	1814.50
331.89	2109.41
332.10	1884.13
332.31	1834.98
332.52	1996.77
332.74	2039.78
332.95	1867.75
333.16	1900.52
333.37	2021.35
333.58	1925.09
333.80	1996.77
334.01	1877.99
334.22	1888.23
334.43	1970.15
334.64	1882.08
334.86	1859.56
335.07	1996.77
335.28	2101.22
335.49	1814.50
335.70	2002.91
335.92	1990.63
336.13	2117.60
336.34	2050.02
336.55	1970.15
336.76	1931.23
336.98	1884.13
337.19	1935.33
337.40	2050.02
337.61	2105.31
337.82	1914.85
338.04	1955.81
338.25	1822.69
338.46	1886.18
338.67	1920.99
338.88	1880.04
339.09	1861.60
339.31	1974.24
339.52	1859.56
339.73	1841.12
339.94	1988.58
340.15	1943.52
340.36	1859.56
340.58	1933.28
340.79	1951.71
341.00	1943.52
341.21	1898.47
341.42	2056.16
341.63	1931.23
341.85	2064.35
342.06	1914.85
342.27	1882.08
342.48	2007.01
342.69	1875.94
342.90	1966.05
343.12	2011.11
343.33	1882.08
343.54	2017.25
343.75	2047.97
343.96	1935.33
344.17	1945.57
344.38	1951.71
344.60	1933.28
344.81	1884.13
345.02	1912.80
345.23	2062.30
345.44	2062.30
345.65	2070.50
345.86	1994.72
346.07	1955.81
346.29	1957.86
346.50	2037.73
346.71	1935.33
346.92	2023.39
347.13	2125.79
347.34	1964.00
347.55	1906.66
347.76	1988.58
347.98	1902.56
348.19	1943.52
348.40	2025.44
348.61	1966.05
348.82	2117.60
349.03	2013.15
349.24	1855.46
349.45	2179.04
349.66	1812.45
349.88	1957.86
350.09	1953.76
350.30	2058.21
350.51	2017.25
350.72	1947.62
350.93	1978.34
351.14	1966.05
351.35	2052.06
351.56	1923.04
351.77	1894.37
351.99	1929.19
352.20	2127.84
352.41	1974.24
352.62	1847.27
352.83	1923.04
353.04	1955.81
353.25	1839.08
353.46	2019.30
353.67	2060.26
353.88	1873.89
354.09	1990.63
354.30	1955.81
354.52	1945.57
354.73	1941.47
354.94	1900.52
355.15	1959.91
355.36	2050.02
355.57	1943.52
355.78	1953.76
355.99	1902.56
356.20	1976.29
356.41	1990.63
356.62	1988.58
356.83	1990.63
357.04	1994.72
357.25	1853.41
357.46	1935.33
357.68	1875.94
357.89	1898.47
358.10	1966.05
358.31	2015.20
358.52	1898.47
358.73	1867.75
358.94	1859.56
359.15	1929.19
359.36	2068.45
359.57	1880.04
359.78	1875.94
359.99	1982.43
360.20	1847.27
360.41	1945.57
360.62	1982.43
360.83	1908.71
361.04	1947.62
361.25	2007.01
361.46	2095.07
361.67	2068.45
361.88	1900.52
362.09	2052.06
362.30	2052.06
362.51	1908.71
362.72	1959.91
362.93	2041.82
363.14	1984.48
363.35	1988.58
363.56	1843.17
363.78	2029.54
363.99	2007.01
364.20	1845.22
364.41	1982.43
364.62	2107.36
364.83	1970.15
365.04	1824.74
365.25	1966.05
365.46	2103.26
365.67	1947.62
365.88	1959.91
366.09	1900.52
366.30	1925.09
366.51	2013.15
366.72	1834.98
366.93	1968.10
367.14	1964.00
367.35	1978.34
367.56	1929.19
367.77	2007.01
367.98	1953.76
368.18	1992.67
368.39	2000.87
368.60	1888.23
368.81	2035.68
369.02	1982.43
369.23	1931.23
369.44	1851.36
369.65	1974.24
369.86	2013.15
370.07	1929.19
370.28	1861.60
370.49	2029.54
370.70	1966.05
370.91	1802.21
371.12	1857.51
371.33	2031.58
371.54	1941.47
371.75	2090.98
371.96	1839.08
372.17	1947.62
372.38	1980.39
372.59	1970.15
372.80	1906.66
373.01	1908.71
373.22	1902.56
373.43	1920.99
373.64	1851.36
373.85	2070.50
374.06	2025.44
374.26	1982.43
374.47	1984.48
374.68	2011.11
374.89	1931.23
375.10	1918.95
375.31	1959.91
375.52	1939.43
375.73	1994.72
375.94	1814.50
376.15	2093.02
376.36	1912.80
376.57	1886.18
376.78	1902.56
376.99	2054.11
377.20	1982.43
377.40	1839.08
377.61	2127.84
377.82	1920.99
378.03	2074.59
378.24	2052.06
378.45	1896.42
378.66	1984.48
378.87	1822.69
379.08	1884.13
379.29	1988.58
379.50	1998.82
379.71	1961.95
379.91	2066.40
380.12	1972.19
380.33	1978.34
380.54	1914.85
380.75	1959.91
380.96	1890.28
381.17	1988.58
381.38	2029.54
381.59	1990.63
381.80	2023.39
382.00	2144.22
382.21	2039.78
382.42	2119.65
382.63	2211.81
382.84	2017.25
383.05	2056.16
383.26	2107.36
383.47	1978.34
383.68	2074.59
383.88	1996.77
384.09	1972.19
384.30	2066.40
384.51	2035.68
384.72	1869.80
384.93	1865.70
385.14	2037.73
385.35	2056.16
385.55	1812.45
385.76	2039.78
385.97	1978.34
386.18	1839.08
386.39	1869.80
386.60	1953.76
386.81	1925.09
387.02	1951.71
387.22	1839.08
387.43	2027.49
387.64	2021.35
387.85	2209.76
388.06	2240.48
388.27	4026.31
388.48	8572.80
388.68	12107.59
388.89	14513.95
389.10	15554.32
389.31	14229.29
389.52	11337.56
389.73	9662.32
389.93	8822.65
390.14	8021.89
390.35	7196.56
390.56	6453.15
390.77	5330.86
390.98	4122.56
391.18	3272.65
391.39	2588.63
391.60	2197.47
391.81	2144.22
392.02	1927.14
392.23	2105.31
392.43	1953.76
392.64	2076.64
392.85	1961.95
393.06	2002.91
393.27	2000.87
393.47	1959.91
393.68	2013.15
393.89	1900.52
394.10	2045.92
394.31	1880.04
394.52	1918.95
394.72	1880.04
394.93	2080.74
395.14	1906.66
395.35	2033.63
395.56	1951.71
395.76	1966.05
395.97	2021.35
396.18	2150.37
396.39	2119.65
396.60	2408.41
396.80	2117.60
397.01	2185.18
397.22	2217.95
397.43	2150.37
397.64	1890.28
397.84	2107.36
398.05	2193.37
398.26	2009.06
398.47	2088.93
398.67	1986.53
398.88	1988.58
399.09	2013.15
399.30	1931.23
399.51	1994.72
399.71	1837.03
399.92	1888.23
400.13	1957.86
400.34	1957.86
400.54	1914.85
400.75	2072.54
400.96	2017.25
401.17	2084.83
401.37	1935.33
401.58	2013.15
401.79	1933.28
402.00	2144.22
402.21	2318.30
402.41	2375.64
402.62	2322.40
402.83	2451.42
403.04	2398.17
403.24	2445.27
403.45	2176.99
403.66	2224.09
403.87	2166.75
404.07	2267.10
404.28	2236.38
404.49	2168.80
404.70	2105.31
404.90	2045.92
405.11	1974.24
405.32	2027.49
405.52	1914.85
405.73	1908.71
405.94	1964.00
406.15	2009.06
406.35	1970.15
406.56	2056.16
406.77	1929.19
406.98	1980.39
407.18	1959.91
407.39	2047.97
407.60	1906.66
407.80	2019.30
408.01	1873.89
408.22	1992.67
408.43	1941.47
408.63	2064.35
408.84	2033.63
409.05	2090.98
409.25	1912.80
409.46	1869.80
409.67	1925.09
409.88	1902.56
410.08	1982.43
410.29	1941.47
410.50	2000.87
410.70	1984.48
410.91	1875.94
411.12	1939.43
411.32	2031.58
411.53	1955.81
411.74	2101.22
411.95	2097.12
412.15	2078.69
412.36	2162.66
412.57	2029.54
412.77	2209.76
412.98	1920.99
413.19	1894.37
413.39	2029.54
413.60	2011.11
413.81	2039.78
414.01	1949.67
414.22	1949.67
414.43	1998.82
414.63	1970.15
414.84	1957.86
415.05	1931.23
415.25	1841.12
415.46	2056.16
415.67	1947.62
415.87	1992.67
416.08	1974.24
416.29	1912.80
416.49	2037.73
416.70	1929.19
416.91	1906.66
417.11	1933.28
417.32	2013.15
417.53	1984.48
417.73	2019.30
417.94	1892.32
418.15	1992.67
418.35	1914.85
418.56	2023.39
418.77	2150.37
418.97	2013.15
419.18	1976.29
419.38	1759.21
419.59	1957.86
419.80	2039.78
420.00	1910.75
420.21	2054.11
420.42	2090.98
420.62	1970.15
420.83	1959.91
421.04	1961.95
421.24	1976.29
421.45	2086.88
421.65	1978.34
421.86	1964.00
422.07	1988.58
422.27	1957.86
422.48	1929.19
422.69	1957.86
422.89	1896.42
423.10	1871.84
423.30	1916.90
423.51	1966.05
423.72	1949.67
423.92	2015.20
424.13	1943.52
424.33	1947.62
424.54	2007.01
424.75	1968.10
424.95	2117.60
425.16	1976.29
425.36	1900.52
425.57	2037.73
425.78	1972.19
425.98	2047.97
426.19	1943.52
426.39	1837.03
426.60	1968.10
426.81	2107.36
427.01	1955.81
427.22	1927.14
427.42	1841.12
427.63	1929.19
427.83	2076.64
428.04	2121.70
428.25	2064.35
428.45	2041.82
428.66	2021.35
428.86	1929.19
429.07	1927.14
429.28	1941.47
429.48	1955.81
429.69	1882.08
429.89	1931.23
430.10	1834.98
430.30	1998.82
430.51	2052.06
430.71	1896.42
430.92	1996.77
431.13	1953.76
431.33	1918.95
431.54	1951.71
431.74	2064.35
431.95	2084.83
432.15	1927.14
432.36	2009.06
432.56	2023.39
432.77	2074.59
432.98	2189.28
433.18	2000.87
433.39	1996.77
433.59	1964.00
433.80	2140.13
434.00	2123.74
434.21	1974.24
434.41	1931.23
434.62	2123.74
434.82	1943.52
435.03	1925.09
435.23	2004.96
435.44	1787.88
435.64	1933.28
435.85	1904.61
436.06	1978.34
436.26	2017.25
436.47	1925.09
436.67	1925.09
436.88	1933.28
437.08	2035.68
437.29	2113.50
437.49	1957.86
437.70	2060.26
437.90	2011.11
438.11	2123.74
438.31	2019.30
438.52	2097.12
438.72	2203.61
438.93	2258.91
439.13	2103.26
439.34	2056.16
439.54	2025.44
439.75	2088.93
439.95	2080.74
440.16	2007.01
440.36	2045.92
440.57	2021.35
440.77	1882.08
440.98	1961.95
441.18	1984.48
441.39	1908.71
441.59	1902.56
441.80	2074.59
442.00	2035.68
442.21	2043.87
442.41	1826.79
442.62	2074.59
442.82	1935.33
443.02	2004.96
443.23	1964.00
443.43	1880.04
443.64	2004.96
443.84	1970.15
444.05	2138.08
444.25	2027.49
444.46	1910.75
444.66	1986.53
444.87	2111.46
445.07	1851.36
445.28	2080.74
445.48	2111.46
445.69	2015.20
445.89	2101.22
446.09	1976.29
446.30	2222.05
446.50	2516.95
446.71	4276.16
446.91	5312.43
447.12	6145.95
447.32	6459.29
447.53	6047.65
447.73	4837.30
447.93	4243.39
448.14	3973.06
448.34	3796.93
448.55	3426.25
448.75	3407.82
448.96	3203.02
449.16	2908.12
449.36	2633.69
449.57	2392.03
449.77	2142.18
449.98	2013.15
450.18	2080.74
450.39	2119.65
450.59	2047.97
450.79	2041.82
451.00	2013.15
451.20	1964.00
451.41	1949.67
451.61	2052.06
451.81	1959.91
452.02	1939.43
452.22	1998.82
452.43	1949.67
452.63	1920.99
