SpectraSuite Data File
++++++++++++++++++++++++++++++++++++
Date: Wed May 04 22:45:28 CEST 2016
User: root
Dark Spectrum Present: No
Reference Spectrum Present: No
Number of Sampled Component Spectra: 1
Spectrometers: USB4C02835
Integration Time (usec): 100000 (USB4C02835)
Spectra Averaged: 1 (USB4C02835)
Boxcar Smoothing: 0 (USB4C02835)
Correct for Electrical Dark: No (USB4C02835)
Strobe/Lamp Enabled: No (USB4C02835)
Correct for Detector Non-linearity: No (USB4C02835)
Correct for Stray Light: No (USB4C02835)
Number of Pixels in Processed Spectrum: 3648
>>>>>Begin Processed Spectral Data<<<<<
177.47	1619.94
177.69	1619.94
177.91	1619.94
178.13	1656.81
178.36	1746.92
178.58	1796.07
178.80	1902.56
179.02	1865.70
179.24	1935.33
179.46	1945.57
179.68	1906.66
179.90	1976.29
180.13	2000.87
180.35	1826.79
180.57	1935.33
180.79	1994.72
181.01	1933.28
181.23	2031.58
181.45	2070.50
181.67	1992.67
181.90	2050.02
182.12	1943.52
182.34	1777.64
182.56	1990.63
182.78	1974.24
183.00	1957.86
183.22	1970.15
183.44	1781.73
183.66	2119.65
183.89	1964.00
184.11	1929.19
184.33	1986.53
184.55	2037.73
184.77	1916.90
184.99	1941.47
185.21	1873.89
185.43	2043.87
185.65	1933.28
185.87	1939.43
186.10	2054.11
186.32	2103.26
186.54	1904.61
186.76	1976.29
186.98	2031.58
187.20	1910.75
187.42	1941.47
187.64	1904.61
187.86	2033.63
188.08	2023.39
188.30	1884.13
188.52	1882.08
188.75	2095.07
188.97	1980.39
189.19	1927.14
189.41	1882.08
189.63	2074.59
189.85	1955.81
190.07	1826.79
190.29	1796.07
190.51	1964.00
190.73	1818.60
190.95	1970.15
191.17	1933.28
191.39	1914.85
191.61	1923.04
191.84	1918.95
192.06	2002.91
192.28	1828.84
192.50	2123.74
192.72	2017.25
192.94	1908.71
193.16	2031.58
193.38	2013.15
193.60	1918.95
193.82	1947.62
194.04	2043.87
194.26	2072.54
194.48	1931.23
194.70	1943.52
194.92	1824.74
195.14	2029.54
195.36	1923.04
195.58	1947.62
195.80	1957.86
196.02	1861.60
196.24	1925.09
196.46	2035.68
196.69	1908.71
196.91	2203.61
197.13	2000.87
197.35	1902.56
197.57	2074.59
197.79	2015.20
198.01	1986.53
198.23	2009.06
198.45	1943.52
198.67	1855.46
198.89	1974.24
199.11	1964.00
199.33	1875.94
199.55	1828.84
199.77	1935.33
199.99	2019.30
200.21	1910.75
200.43	1953.76
200.65	1849.32
200.87	1837.03
201.09	1955.81
201.31	1941.47
201.53	1978.34
201.75	2023.39
201.97	2084.83
202.19	1906.66
202.41	1953.76
202.63	2015.20
202.85	1982.43
203.07	1951.71
203.29	1908.71
203.51	1910.75
203.73	1861.60
203.95	2232.29
204.17	1912.80
204.39	1945.57
204.61	1986.53
204.83	1828.84
205.05	1959.91
205.27	1953.76
205.49	2078.69
205.71	1933.28
205.93	1894.37
206.15	1912.80
206.37	1992.67
206.59	1982.43
206.81	1927.14
207.03	1781.73
207.25	1812.45
207.47	1949.67
207.69	1941.47
207.91	2082.78
208.13	2056.16
208.34	1935.33
208.56	1861.60
208.78	1968.10
209.00	1964.00
209.22	1918.95
209.44	1933.28
209.66	1912.80
209.88	1959.91
210.10	1984.48
210.32	1968.10
210.54	2064.35
210.76	1939.43
210.98	2002.91
211.20	1802.21
211.42	1988.58
211.64	2095.07
211.86	2031.58
212.08	1945.57
212.30	1974.24
212.52	1912.80
212.74	1943.52
212.96	1925.09
213.17	1994.72
213.39	1988.58
213.61	2033.63
213.83	1970.15
214.05	1900.52
214.27	2039.78
214.49	1804.26
214.71	1826.79
214.93	2103.26
215.15	1923.04
215.37	2009.06
215.59	1816.55
215.81	1998.82
216.03	2050.02
216.24	1961.95
216.46	1996.77
216.68	1900.52
216.90	1986.53
217.12	1955.81
217.34	1947.62
217.56	2009.06
217.78	2054.11
218.00	1988.58
218.22	2017.25
218.44	1939.43
218.66	1966.05
218.87	2129.89
219.09	1863.65
219.31	1929.19
219.53	1929.19
219.75	1914.85
219.97	1961.95
220.19	1912.80
220.41	1880.04
220.63	2088.93
220.85	1931.23
221.06	1894.37
221.28	2023.39
221.50	1978.34
221.72	1943.52
221.94	1904.61
222.16	1951.71
222.38	1994.72
222.60	1994.72
222.82	1890.28
223.03	1964.00
223.25	1812.45
223.47	1912.80
223.69	2045.92
223.91	2011.11
224.13	1968.10
224.35	1898.47
224.57	1990.63
224.78	1961.95
225.00	1925.09
225.22	1941.47
225.44	1970.15
225.66	2017.25
225.88	1941.47
226.10	1933.28
226.32	1992.67
226.53	2093.02
226.75	1951.71
226.97	2019.30
227.19	2017.25
227.41	1916.90
227.63	2007.01
227.85	1902.56
228.06	1953.76
228.28	1927.14
228.50	2045.92
228.72	1986.53
228.94	1951.71
229.16	1775.59
229.37	1869.80
229.59	1916.90
229.81	1927.14
230.03	1851.36
230.25	1808.36
230.47	1888.23
230.69	1867.75
230.90	2066.40
231.12	1882.08
231.34	1929.19
231.56	2017.25
231.78	1826.79
232.00	1955.81
232.21	1939.43
232.43	1966.05
232.65	1787.88
232.87	2013.15
233.09	1882.08
233.30	1884.13
233.52	1966.05
233.74	1923.04
233.96	1920.99
234.18	1990.63
234.40	1929.19
234.61	2125.79
234.83	1791.97
235.05	1853.41
235.27	2131.94
235.49	2004.96
235.70	1896.42
235.92	2013.15
236.14	2000.87
236.36	2168.80
236.58	1826.79
236.79	1912.80
237.01	1972.19
237.23	1951.71
237.45	2086.88
237.67	1851.36
237.88	1957.86
238.10	2070.50
238.32	1861.60
238.54	1941.47
238.76	1998.82
238.97	1814.50
239.19	1957.86
239.41	2007.01
239.63	2039.78
239.85	1925.09
240.06	1968.10
240.28	1947.62
240.50	2013.15
240.72	2047.97
240.93	1884.13
241.15	1966.05
241.37	1953.76
241.59	2054.11
241.81	1908.71
242.02	1988.58
242.24	2011.11
242.46	1982.43
242.68	1857.51
242.89	1933.28
243.11	2000.87
243.33	1961.95
243.55	1943.52
243.76	1970.15
243.98	1867.75
244.20	1937.38
244.42	2009.06
244.64	1992.67
244.85	1808.36
245.07	1880.04
245.29	1976.29
245.51	1980.39
245.72	1890.28
245.94	2045.92
246.16	2000.87
246.38	1990.63
246.59	1918.95
246.81	1853.41
247.03	1961.95
247.24	1880.04
247.46	1945.57
247.68	1951.71
247.90	1966.05
248.11	1986.53
248.33	2076.64
248.55	2009.06
248.77	2009.06
248.98	1964.00
249.20	2090.98
249.42	2017.25
249.64	2013.15
249.85	1970.15
250.07	2015.20
250.29	2002.91
250.50	2027.49
250.72	1884.13
250.94	2037.73
251.16	2115.55
251.37	1947.62
251.59	1933.28
251.81	1923.04
252.02	2043.87
252.24	1910.75
252.46	2095.07
252.68	1898.47
252.89	1888.23
253.11	1830.88
253.33	2029.54
253.54	2037.73
253.76	1910.75
253.98	1923.04
254.20	1964.00
254.41	1955.81
254.63	1961.95
254.85	1892.32
255.06	1920.99
255.28	2011.11
255.50	2017.25
255.71	1951.71
255.93	1830.88
256.15	1949.67
256.36	1998.82
256.58	1953.76
256.80	1966.05
257.02	1888.23
257.23	1933.28
257.45	1964.00
257.67	2066.40
257.88	1888.23
258.10	2035.68
258.32	1927.14
258.53	1951.71
258.75	2105.31
258.97	1951.71
259.18	1935.33
259.40	1978.34
259.62	2031.58
259.83	2103.26
260.05	2015.20
260.27	2287.58
260.48	2009.06
260.70	1931.23
260.92	2039.78
261.13	1937.38
261.35	2058.21
261.57	1992.67
261.78	1767.40
262.00	1863.65
262.22	1959.91
262.43	1839.08
262.65	1914.85
262.86	1904.61
263.08	2119.65
263.30	1949.67
263.51	1865.70
263.73	1847.27
263.95	1970.15
264.16	1994.72
264.38	1832.93
264.60	1910.75
264.81	1900.52
265.03	2015.20
265.25	2031.58
265.46	1964.00
265.68	2078.69
265.89	2029.54
266.11	1892.32
266.33	1976.29
266.54	2109.41
266.76	2019.30
266.98	1970.15
267.19	1978.34
267.41	2017.25
267.62	1884.13
267.84	1873.89
268.06	2047.97
268.27	1914.85
268.49	2066.40
268.70	1957.86
268.92	1945.57
269.14	1888.23
269.35	1892.32
269.57	1984.48
269.79	2045.92
270.00	2002.91
270.22	1990.63
270.43	1898.47
270.65	1834.98
270.87	1986.53
271.08	2041.82
271.30	1918.95
271.51	1886.18
271.73	2015.20
271.95	2035.68
272.16	1904.61
272.38	2013.15
272.59	1933.28
272.81	1947.62
273.02	1912.80
273.24	1992.67
273.46	2068.45
273.67	1865.70
273.89	1888.23
274.10	1839.08
274.32	2052.06
274.54	2023.39
274.75	2004.96
274.97	1943.52
275.18	2000.87
275.40	1914.85
275.61	1906.66
275.83	1951.71
276.05	1923.04
276.26	1972.19
276.48	1994.72
276.69	1935.33
276.91	1880.04
277.12	2015.20
277.34	2027.49
277.55	2017.25
277.77	1941.47
277.99	1943.52
278.20	1820.64
278.42	1810.40
278.63	1865.70
278.85	1951.71
279.06	1923.04
279.28	2004.96
279.49	1984.48
279.71	2035.68
279.93	1955.81
280.14	1949.67
280.36	1857.51
280.57	2007.01
280.79	1968.10
281.00	1951.71
281.22	1828.84
281.43	1976.29
281.65	1802.21
281.86	1925.09
282.08	2058.21
282.29	2119.65
282.51	1873.89
282.73	1882.08
282.94	1834.98
283.16	2019.30
283.37	2033.63
283.59	1875.94
283.80	2052.06
284.02	1968.10
284.23	1949.67
284.45	1906.66
284.66	1906.66
284.88	1863.65
285.09	1974.24
285.31	2009.06
285.52	2039.78
285.74	1875.94
285.95	2011.11
286.17	1886.18
286.38	2074.59
286.60	1894.37
286.81	1923.04
287.03	1902.56
287.24	1953.76
287.46	1957.86
287.67	1937.38
287.89	2062.30
288.10	1933.28
288.32	1984.48
288.53	2023.39
288.75	1990.63
288.96	2047.97
289.18	1886.18
289.39	1945.57
289.61	1992.67
289.82	2086.88
290.04	2099.17
290.25	1855.46
290.47	1959.91
290.68	1955.81
290.90	2068.45
291.11	1791.97
291.33	1988.58
291.54	1826.79
291.76	1894.37
291.97	1972.19
292.18	1957.86
292.40	1904.61
292.61	1918.95
292.83	2084.83
293.04	2023.39
293.26	2025.44
293.47	1988.58
293.69	1820.64
293.90	1886.18
294.12	2111.46
294.33	2000.87
294.55	1933.28
294.76	2017.25
294.97	2041.82
295.19	2095.07
295.40	1943.52
295.62	1959.91
295.83	2045.92
296.05	1888.23
296.26	2009.06
296.48	1845.22
296.69	1931.23
296.90	2037.73
297.12	2000.87
297.33	1990.63
297.55	1959.91
297.76	2007.01
297.98	2031.58
298.19	1976.29
298.41	2002.91
298.62	1861.60
298.83	2015.20
299.05	2033.63
299.26	1912.80
299.48	1871.84
299.69	2015.20
299.90	1978.34
300.12	1886.18
300.33	2004.96
300.55	1980.39
300.76	2058.21
300.98	1890.28
301.19	1953.76
301.40	1896.42
301.62	1986.53
301.83	1927.14
302.05	1992.67
302.26	1931.23
302.47	1984.48
302.69	1824.74
302.90	1961.95
303.12	1761.25
303.33	2029.54
303.54	2183.13
303.76	1904.61
303.97	1966.05
304.19	2058.21
304.40	1927.14
304.61	2019.30
304.83	2060.26
305.04	2078.69
305.26	2015.20
305.47	1937.38
305.68	1994.72
305.90	1820.64
306.11	2031.58
306.33	1931.23
306.54	1888.23
306.75	1920.99
306.97	1845.22
307.18	1892.32
307.39	1931.23
307.61	1978.34
307.82	1916.90
308.04	1929.19
308.25	1908.71
308.46	1953.76
308.68	1974.24
308.89	1957.86
309.10	2146.27
309.32	1959.91
309.53	1910.75
309.74	1912.80
309.96	1966.05
310.17	2101.22
310.39	1949.67
310.60	1982.43
310.81	1910.75
311.03	1859.56
311.24	2035.68
311.45	1931.23
311.67	2117.60
311.88	1927.14
312.09	1865.70
312.31	1941.47
312.52	1982.43
312.73	1861.60
312.95	1779.68
313.16	1857.51
313.37	2127.84
313.59	2064.35
313.80	2070.50
314.01	1978.34
314.23	1923.04
314.44	2002.91
314.65	1873.89
314.87	1927.14
315.08	1990.63
315.29	1916.90
315.51	1945.57
315.72	1828.84
315.93	2041.82
316.15	1992.67
316.36	1951.71
316.57	1966.05
316.79	2019.30
317.00	1949.67
317.21	2013.15
317.43	1939.43
317.64	1941.47
317.85	1925.09
318.07	1906.66
318.28	2015.20
318.49	2076.64
318.70	2273.25
318.92	2164.70
319.13	2148.32
319.34	2211.81
319.56	2019.30
319.77	2084.83
319.98	2115.55
320.20	2168.80
320.41	2025.44
320.62	1996.77
320.83	1888.23
321.05	2115.55
321.26	1925.09
321.47	1951.71
321.69	2052.06
321.90	1882.08
322.11	1923.04
322.32	2011.11
322.54	2031.58
322.75	1957.86
322.96	2205.66
323.18	1847.27
323.39	1771.49
323.60	1824.74
323.81	1992.67
324.03	1892.32
324.24	1961.95
324.45	1933.28
324.66	1920.99
324.88	2066.40
325.09	2078.69
325.30	2025.44
325.52	1900.52
325.73	1945.57
325.94	1933.28
326.15	1845.22
326.37	1908.71
326.58	1910.75
326.79	2039.78
327.00	1910.75
327.22	1886.18
327.43	1861.60
327.64	1845.22
327.85	2027.49
328.07	1925.09
328.28	1998.82
328.49	1849.32
328.70	1986.53
328.92	1986.53
329.13	1851.36
329.34	2033.63
329.55	2142.18
329.76	2033.63
329.98	1949.67
330.19	1982.43
330.40	1943.52
330.61	1949.67
330.83	2000.87
331.04	1896.42
331.25	1990.63
331.46	1849.32
331.68	1920.99
331.89	2021.35
332.10	1972.19
332.31	1900.52
332.52	1935.33
332.74	2076.64
332.95	1882.08
333.16	1927.14
333.37	2031.58
333.58	1865.70
333.80	1990.63
334.01	1742.82
334.22	1980.39
334.43	1900.52
334.64	1978.34
334.86	1877.99
335.07	1869.80
335.28	2023.39
335.49	1892.32
335.70	1894.37
335.92	2009.06
336.13	2107.36
336.34	2007.01
336.55	1996.77
336.76	1894.37
336.98	1826.79
337.19	1974.24
337.40	2013.15
337.61	2084.83
337.82	1916.90
338.04	2002.91
338.25	1822.69
338.46	1920.99
338.67	1988.58
338.88	1847.27
339.09	1920.99
339.31	1908.71
339.52	1859.56
339.73	1941.47
339.94	1943.52
340.15	2021.35
340.36	1869.80
340.58	1949.67
340.79	1964.00
341.00	2050.02
341.21	1935.33
341.42	2109.41
341.63	1888.23
341.85	2023.39
342.06	1904.61
342.27	1849.32
342.48	1990.63
342.69	1861.60
342.90	1920.99
343.12	2052.06
343.33	1943.52
343.54	1986.53
343.75	2015.20
343.96	1978.34
344.17	1816.55
344.38	1884.13
344.60	1808.36
344.81	1888.23
345.02	1978.34
345.23	1964.00
345.44	2156.51
345.65	1984.48
345.86	1982.43
346.07	2007.01
346.29	1927.14
346.50	1990.63
346.71	2035.68
346.92	2056.16
347.13	2117.60
347.34	2031.58
347.55	1945.57
347.76	1955.81
347.98	1912.80
348.19	1976.29
348.40	2099.17
348.61	1961.95
348.82	2025.44
349.03	2000.87
349.24	1943.52
349.45	2023.39
349.66	1814.50
349.88	1920.99
350.09	1873.89
350.30	2095.07
350.51	2037.73
350.72	2017.25
350.93	2027.49
351.14	1943.52
351.35	2039.78
351.56	1955.81
351.77	1935.33
351.99	1910.75
352.20	2070.50
352.41	2031.58
352.62	1843.17
352.83	1931.23
353.04	1941.47
353.25	1935.33
353.46	1974.24
353.67	2056.16
353.88	1853.41
354.09	1943.52
354.30	1935.33
354.52	2095.07
354.73	1927.14
354.94	1865.70
355.15	1882.08
355.36	2113.50
355.57	1826.79
355.78	2090.98
355.99	1941.47
356.20	1935.33
356.41	2115.55
356.62	1925.09
356.83	1918.95
357.04	2058.21
357.25	1861.60
357.46	1875.94
357.68	1851.36
357.89	1898.47
358.10	1918.95
358.31	2029.54
358.52	1949.67
358.73	1910.75
358.94	1966.05
359.15	1875.94
359.36	2019.30
359.57	1976.29
359.78	1955.81
359.99	1920.99
360.20	1908.71
360.41	1945.57
360.62	2045.92
360.83	2047.97
361.04	2023.39
361.25	1992.67
361.46	2086.88
361.67	1990.63
361.88	2035.68
362.09	1966.05
362.30	2023.39
362.51	1929.19
362.72	1994.72
362.93	1992.67
363.14	2027.49
363.35	1931.23
363.56	1920.99
363.78	2004.96
363.99	2047.97
364.20	1966.05
364.41	1988.58
364.62	2240.48
364.83	1931.23
365.04	2000.87
365.25	1949.67
365.46	2117.60
365.67	1884.13
365.88	1904.61
366.09	1908.71
366.30	1937.38
366.51	1974.24
366.72	1859.56
366.93	1945.57
367.14	1941.47
367.35	2056.16
367.56	1955.81
367.77	2039.78
367.98	1923.04
368.18	2009.06
368.39	2058.21
368.60	1867.75
368.81	1980.39
369.02	1959.91
369.23	1943.52
369.44	1794.02
369.65	1937.38
369.86	1984.48
370.07	2109.41
370.28	1855.46
370.49	1957.86
370.70	1939.43
370.91	1853.41
371.12	1884.13
371.33	2066.40
371.54	1902.56
371.75	2011.11
371.96	1861.60
372.17	2019.30
372.38	1927.14
372.59	2000.87
372.80	2025.44
373.01	2011.11
373.22	1935.33
373.43	2011.11
373.64	1843.17
373.85	2041.82
374.06	2099.17
374.26	1982.43
374.47	1978.34
374.68	2054.11
374.89	2019.30
375.10	1806.31
375.31	1980.39
375.52	1978.34
375.73	1929.19
375.94	1949.67
376.15	2035.68
376.36	1910.75
376.57	1908.71
376.78	1898.47
376.99	1974.24
377.20	2121.70
377.40	1873.89
377.61	2074.59
377.82	1894.37
378.03	2115.55
378.24	2045.92
378.45	1916.90
378.66	1992.67
378.87	1863.65
379.08	1863.65
379.29	1931.23
379.50	2037.73
379.71	1974.24
379.91	2004.96
380.12	2004.96
380.33	2029.54
380.54	1935.33
380.75	1986.53
380.96	1875.94
381.17	1920.99
381.38	1986.53
381.59	1933.28
381.80	1951.71
382.00	2119.65
382.21	2019.30
382.42	2133.98
382.63	2260.96
382.84	2009.06
383.05	2035.68
383.26	2047.97
383.47	1933.28
383.68	1990.63
383.88	2037.73
384.09	1927.14
384.30	2070.50
384.51	1972.19
384.72	1974.24
384.93	1916.90
385.14	1920.99
385.35	2078.69
385.55	1880.04
385.76	2013.15
385.97	1906.66
386.18	1834.98
386.39	1896.42
386.60	1964.00
386.81	1877.99
387.02	1941.47
387.22	1914.85
387.43	2072.54
387.64	2078.69
387.85	2068.45
388.06	2332.64
388.27	4128.70
388.48	8767.35
388.68	12209.99
388.89	14825.25
389.10	15415.06
389.31	14370.60
389.52	11259.73
389.73	9949.03
389.93	8830.84
390.14	8150.92
390.35	7442.32
390.56	6705.05
390.77	5357.49
390.98	4122.56
391.18	3129.30
391.39	2580.44
391.60	2146.27
391.81	2158.56
392.02	1957.86
392.23	2162.66
392.43	1992.67
392.64	2035.68
392.85	1966.05
393.06	2045.92
393.27	1920.99
393.47	1931.23
393.68	1892.32
393.89	1951.71
394.10	2011.11
394.31	1908.71
394.52	1890.28
394.72	1927.14
394.93	2025.44
395.14	1871.84
395.35	2039.78
395.56	1980.39
395.76	1964.00
395.97	2027.49
396.18	2033.63
396.39	2185.18
396.60	2375.64
396.80	2250.72
397.01	2074.59
397.22	2082.78
397.43	2199.52
397.64	1843.17
397.84	2127.84
398.05	2222.05
398.26	2011.11
398.47	1998.82
398.67	2052.06
398.88	1945.57
399.09	2062.30
399.30	2002.91
399.51	1976.29
399.71	1947.62
399.92	1912.80
400.13	1920.99
400.34	1945.57
400.54	1976.29
400.75	2115.55
400.96	2025.44
401.17	2054.11
401.37	2033.63
401.58	1959.91
401.79	2035.68
402.00	2082.78
402.21	2320.35
402.41	2381.79
402.62	2351.07
402.83	2580.44
403.04	2420.70
403.24	2459.61
403.45	2164.70
403.66	2285.53
403.87	2275.29
404.07	2279.39
404.28	2197.47
404.49	2181.09
404.70	2150.37
404.90	2068.45
405.11	2033.63
405.32	2029.54
405.52	1982.43
405.73	1906.66
405.94	1898.47
406.15	1957.86
406.35	1947.62
406.56	2068.45
406.77	2011.11
406.98	1955.81
407.18	1918.95
407.39	2068.45
407.60	1853.41
407.80	2021.35
408.01	1916.90
408.22	2000.87
408.43	1916.90
408.63	2086.88
408.84	2047.97
409.05	2013.15
409.25	1918.95
409.46	1953.76
409.67	1857.51
409.88	1920.99
410.08	1994.72
410.29	1918.95
410.50	2000.87
410.70	1990.63
410.91	1929.19
411.12	1964.00
411.32	2011.11
411.53	1912.80
411.74	2074.59
411.95	2111.46
412.15	2060.26
412.36	2050.02
412.57	2047.97
412.77	2174.94
412.98	2013.15
413.19	1957.86
413.39	2041.82
413.60	1998.82
413.81	2050.02
414.01	1869.80
414.22	2009.06
414.43	2119.65
414.63	1931.23
414.84	2041.82
415.05	1972.19
415.25	1832.93
415.46	1955.81
415.67	1927.14
415.87	1966.05
416.08	1970.15
416.29	1988.58
416.49	2041.82
416.70	2017.25
416.91	1914.85
417.11	1890.28
417.32	2058.21
417.53	1986.53
417.73	1955.81
417.94	1898.47
418.15	2015.20
418.35	1916.90
418.56	2015.20
418.77	2146.27
418.97	1929.19
419.18	1964.00
419.38	1751.01
419.59	1955.81
419.80	2080.74
420.00	1896.42
420.21	1933.28
420.42	2041.82
420.62	2000.87
420.83	1943.52
421.04	1951.71
421.24	1986.53
421.45	2009.06
421.65	1990.63
421.86	1953.76
422.07	1968.10
422.27	2002.91
422.48	1972.19
422.69	1902.56
422.89	1894.37
423.10	1996.77
423.30	1867.75
423.51	1966.05
423.72	1966.05
423.92	1980.39
424.13	1822.69
424.33	1908.71
424.54	2078.69
424.75	2045.92
424.95	2111.46
425.16	1955.81
425.36	1914.85
425.57	2025.44
425.78	2023.39
425.98	2076.64
426.19	1947.62
426.39	1990.63
426.60	1984.48
426.81	2027.49
427.01	1986.53
427.22	1894.37
427.42	1959.91
427.63	1892.32
427.83	2037.73
428.04	2062.30
428.25	2109.41
428.45	2041.82
428.66	2062.30
428.86	1990.63
429.07	1861.60
429.28	1964.00
429.48	1888.23
429.69	1927.14
429.89	1974.24
430.10	1861.60
430.30	2047.97
430.51	2011.11
430.71	1908.71
430.92	1959.91
431.13	1875.94
431.33	2033.63
431.54	2031.58
431.74	2093.02
431.95	2148.32
432.15	1847.27
432.36	1972.19
432.56	2017.25
432.77	2119.65
432.98	2080.74
433.18	1970.15
433.39	1943.52
433.59	1937.38
433.80	2144.22
434.00	2142.18
434.21	1865.70
434.41	1888.23
434.62	2082.78
434.82	1945.57
435.03	1884.13
435.23	1910.75
435.44	1740.77
435.64	1970.15
435.85	2007.01
436.06	2103.26
436.26	2074.59
436.47	1996.77
436.67	1933.28
436.88	1978.34
437.08	2056.16
437.29	2127.84
437.49	1976.29
437.70	2050.02
437.90	2084.83
438.11	2093.02
438.31	2007.01
438.52	2183.13
438.72	2168.80
438.93	2207.71
439.13	1953.76
439.34	2107.36
439.54	2033.63
439.75	2047.97
439.95	2060.26
440.16	1972.19
440.36	2050.02
440.57	2033.63
440.77	2013.15
440.98	2029.54
441.18	1953.76
441.39	1902.56
441.59	1918.95
441.80	2193.37
442.00	1939.43
442.21	2133.98
442.41	1896.42
442.62	2027.49
442.82	1869.80
443.02	2031.58
443.23	2002.91
443.43	1974.24
443.64	2031.58
443.84	1968.10
444.05	2101.22
444.25	2015.20
444.46	2095.07
444.66	1968.10
444.87	2056.16
445.07	1916.90
445.28	2000.87
445.48	2029.54
445.69	2011.11
445.89	2166.75
446.09	2007.01
446.30	2250.72
446.50	2680.79
446.71	4202.43
446.91	5459.88
447.12	6195.11
447.32	6557.60
447.53	5939.11
447.73	4939.70
447.93	4245.44
448.14	3954.63
448.34	3905.48
448.55	3401.68
448.75	3344.33
448.96	3262.41
449.16	2920.40
449.36	2631.64
449.57	2326.49
449.77	2131.94
449.98	2002.91
450.18	2105.31
450.39	2109.41
450.59	1996.77
450.79	1900.52
451.00	1933.28
451.20	2068.45
451.41	2015.20
451.61	1994.72
451.81	1957.86
452.02	1888.23
452.22	1894.37
452.43	1890.28
452.63	1959.91
