SpectraSuite Data File
++++++++++++++++++++++++++++++++++++
Date: Wed May 04 22:45:52 CEST 2016
User: root
Dark Spectrum Present: No
Reference Spectrum Present: No
Number of Sampled Component Spectra: 1
Spectrometers: USB4C02835
Integration Time (usec): 100000 (USB4C02835)
Spectra Averaged: 1 (USB4C02835)
Boxcar Smoothing: 0 (USB4C02835)
Correct for Electrical Dark: No (USB4C02835)
Strobe/Lamp Enabled: No (USB4C02835)
Correct for Detector Non-linearity: No (USB4C02835)
Correct for Stray Light: No (USB4C02835)
Number of Pixels in Processed Spectrum: 3648
>>>>>Begin Processed Spectral Data<<<<<
177.47	1691.62
177.69	1691.62
177.91	1691.62
178.13	1644.52
178.36	1632.23
178.58	1947.62
178.80	1980.39
179.02	1859.56
179.24	1837.03
179.46	2002.91
179.68	1937.38
179.90	1949.67
180.13	1986.53
180.35	1943.52
180.57	1918.95
180.79	2021.35
181.01	1998.82
181.23	1984.48
181.45	2041.82
181.67	1959.91
181.90	2084.83
182.12	1910.75
182.34	1867.75
182.56	2017.25
182.78	1990.63
183.00	1937.38
183.22	1974.24
183.44	1912.80
183.66	2154.46
183.89	2039.78
184.11	1902.56
184.33	1990.63
184.55	2021.35
184.77	1929.19
184.99	1927.14
185.21	1886.18
185.43	2166.75
185.65	1918.95
185.87	1902.56
186.10	2138.08
186.32	2160.61
186.54	1966.05
186.76	1964.00
186.98	2052.06
187.20	1966.05
187.42	1920.99
187.64	1912.80
187.86	1976.29
188.08	2047.97
188.30	1898.47
188.52	1925.09
188.75	2062.30
188.97	2066.40
189.19	1918.95
189.41	1888.23
189.63	2047.97
189.85	1939.43
190.07	1857.51
190.29	1845.22
190.51	1978.34
190.73	1830.88
190.95	1984.48
191.17	1906.66
191.39	1851.36
191.61	1898.47
191.84	1882.08
192.06	1966.05
192.28	1908.71
192.50	2144.22
192.72	1943.52
192.94	1892.32
193.16	2050.02
193.38	2002.91
193.60	1884.13
193.82	1859.56
194.04	2058.21
194.26	1961.95
194.48	1949.67
194.70	1982.43
194.92	1939.43
195.14	1998.82
195.36	1896.42
195.58	2009.06
195.80	1933.28
196.02	1828.84
196.24	1902.56
196.46	1978.34
196.69	1906.66
196.91	2113.50
197.13	1961.95
197.35	1939.43
197.57	2121.70
197.79	1849.32
198.01	1937.38
198.23	2050.02
198.45	2019.30
198.67	1855.46
198.89	1996.77
199.11	1937.38
199.33	1890.28
199.55	1818.60
199.77	1863.65
199.99	2011.11
200.21	1984.48
200.43	1961.95
200.65	1847.27
200.87	1796.07
201.09	1982.43
201.31	1957.86
201.53	2031.58
201.75	1920.99
201.97	1929.19
202.19	2023.39
202.41	1990.63
202.63	2117.60
202.85	1970.15
203.07	1998.82
203.29	1943.52
203.51	1851.36
203.73	1931.23
203.95	2154.46
204.17	1886.18
204.39	1945.57
204.61	2015.20
204.83	1914.85
205.05	1945.57
205.27	2045.92
205.49	2119.65
205.71	1931.23
205.93	1859.56
206.15	1839.08
206.37	1920.99
206.59	1937.38
206.81	1832.93
207.03	1845.22
207.25	1871.84
207.47	2035.68
207.69	1908.71
207.91	2009.06
208.13	2084.83
208.34	1966.05
208.56	1847.27
208.78	1951.71
209.00	1920.99
209.22	1984.48
209.44	1853.41
209.66	1869.80
209.88	1968.10
210.10	2000.87
210.32	1918.95
210.54	2054.11
210.76	1918.95
210.98	2011.11
211.20	1802.21
211.42	1972.19
211.64	2080.74
211.86	2007.01
212.08	2002.91
212.30	1988.58
212.52	1953.76
212.74	2017.25
212.96	1970.15
213.17	1966.05
213.39	1972.19
213.61	2121.70
213.83	1955.81
214.05	1966.05
214.27	2074.59
214.49	1888.23
214.71	1918.95
214.93	1947.62
215.15	1980.39
215.37	2099.17
215.59	1861.60
215.81	1994.72
216.03	2015.20
216.24	1978.34
216.46	1949.67
216.68	1935.33
216.90	1978.34
217.12	1992.67
217.34	1937.38
217.56	1933.28
217.78	2004.96
218.00	2009.06
218.22	1978.34
218.44	1947.62
218.66	1996.77
218.87	2117.60
219.09	1886.18
219.31	1943.52
219.53	2084.83
219.75	1806.31
219.97	1943.52
220.19	1937.38
220.41	1914.85
220.63	2086.88
220.85	1974.24
221.06	1927.14
221.28	2103.26
221.50	2021.35
221.72	1970.15
221.94	1908.71
222.16	1941.47
222.38	1978.34
222.60	1966.05
222.82	1968.10
223.03	2068.45
223.25	1892.32
223.47	1908.71
223.69	2035.68
223.91	2039.78
224.13	1994.72
224.35	1869.80
224.57	1980.39
224.78	1986.53
225.00	1871.84
225.22	1902.56
225.44	1972.19
225.66	1980.39
225.88	1869.80
226.10	2025.44
226.32	1916.90
226.53	2097.12
226.75	1980.39
226.97	1943.52
227.19	2007.01
227.41	1820.64
227.63	1896.42
227.85	1822.69
228.06	1871.84
228.28	1908.71
228.50	1982.43
228.72	1859.56
228.94	1947.62
229.16	1916.90
229.37	1929.19
229.59	1961.95
229.81	2033.63
230.03	1923.04
230.25	1863.65
230.47	1822.69
230.69	1826.79
230.90	2027.49
231.12	1916.90
231.34	1986.53
231.56	2043.87
231.78	1816.55
232.00	1898.47
232.21	1957.86
232.43	1861.60
232.65	1763.30
232.87	1992.67
233.09	1851.36
233.30	1910.75
233.52	2058.21
233.74	1949.67
233.96	1886.18
234.18	1966.05
234.40	1920.99
234.61	2117.60
234.83	1871.84
235.05	1908.71
235.27	2234.33
235.49	2021.35
235.70	1916.90
235.92	2013.15
236.14	1918.95
236.36	2072.54
236.58	1916.90
236.79	2064.35
237.01	1904.61
237.23	1890.28
237.45	2115.55
237.67	2011.11
237.88	1898.47
238.10	2142.18
238.32	1863.65
238.54	1927.14
238.76	1959.91
238.97	1918.95
239.19	1880.04
239.41	1966.05
239.63	2027.49
239.85	1968.10
240.06	1937.38
240.28	1927.14
240.50	2019.30
240.72	1898.47
240.93	1884.13
241.15	1970.15
241.37	1974.24
241.59	2029.54
241.81	1896.42
242.02	1892.32
242.24	1982.43
242.46	2007.01
242.68	1882.08
242.89	1996.77
243.11	1976.29
243.33	1945.57
243.55	1953.76
243.76	1980.39
243.98	1888.23
244.20	2004.96
244.42	1857.51
244.64	1990.63
244.85	1873.89
245.07	1920.99
245.29	1941.47
245.51	1929.19
245.72	1990.63
245.94	2052.06
246.16	1998.82
246.38	1949.67
246.59	1861.60
246.81	1877.99
247.03	1855.46
247.24	1828.84
247.46	1964.00
247.68	1961.95
247.90	1910.75
248.11	1918.95
248.33	2054.11
248.55	1986.53
248.77	1894.37
248.98	2062.30
249.20	2090.98
249.42	1970.15
249.64	2011.11
249.85	1988.58
250.07	1906.66
250.29	2027.49
250.50	1982.43
250.72	1902.56
250.94	1982.43
251.16	2150.37
251.37	1992.67
251.59	1906.66
251.81	1968.10
252.02	2115.55
252.24	1894.37
252.46	1980.39
252.68	1816.55
252.89	1949.67
253.11	1847.27
253.33	2082.78
253.54	2035.68
253.76	1912.80
253.98	1937.38
254.20	1898.47
254.41	1845.22
254.63	1945.57
254.85	1900.52
255.06	2009.06
255.28	1974.24
255.50	1951.71
255.71	1855.46
255.93	1877.99
256.15	1931.23
256.36	1970.15
256.58	1951.71
256.80	1961.95
257.02	1937.38
257.23	1959.91
257.45	1939.43
257.67	1937.38
257.88	1900.52
258.10	1982.43
258.32	1945.57
258.53	1980.39
258.75	2031.58
258.97	1992.67
259.18	1841.12
259.40	1904.61
259.62	2080.74
259.83	2111.46
260.05	1974.24
260.27	2205.66
260.48	2029.54
260.70	1886.18
260.92	1906.66
261.13	1966.05
261.35	1970.15
261.57	1941.47
261.78	1763.30
262.00	1888.23
262.22	2029.54
262.43	1910.75
262.65	1925.09
262.86	1933.28
263.08	2117.60
263.30	1961.95
263.51	1724.39
263.73	1923.04
263.95	1990.63
264.16	1925.09
264.38	1914.85
264.60	1927.14
264.81	1892.32
265.03	1998.82
265.25	2015.20
265.46	1925.09
265.68	1994.72
265.89	1982.43
266.11	1884.13
266.33	1929.19
266.54	1984.48
266.76	1957.86
266.98	1912.80
267.19	1988.58
267.41	1966.05
267.62	1888.23
267.84	1861.60
268.06	1953.76
268.27	1951.71
268.49	2013.15
268.70	2015.20
268.92	1880.04
269.14	1861.60
269.35	1816.55
269.57	1986.53
269.79	2035.68
270.00	1851.36
270.22	2125.79
270.43	1841.12
270.65	1832.93
270.87	2002.91
271.08	1984.48
271.30	1992.67
271.51	1929.19
271.73	2019.30
271.95	2045.92
272.16	1951.71
272.38	1931.23
272.59	1937.38
272.81	2031.58
273.02	1984.48
273.24	1976.29
273.46	2009.06
273.67	1918.95
273.89	1923.04
274.10	1814.50
274.32	2086.88
274.54	1945.57
274.75	1939.43
274.97	1935.33
275.18	2070.50
275.40	1984.48
275.61	1931.23
275.83	1982.43
276.05	1927.14
276.26	1918.95
276.48	2076.64
276.69	1943.52
276.91	1896.42
277.12	1929.19
277.34	1982.43
277.55	1972.19
277.77	1980.39
277.99	1964.00
278.20	1908.71
278.42	1826.79
278.63	1910.75
278.85	1896.42
279.06	1849.32
279.28	2007.01
279.49	2017.25
279.71	1998.82
279.93	1925.09
280.14	1994.72
280.36	1849.32
280.57	2041.82
280.79	2021.35
281.00	1902.56
281.22	1900.52
281.43	2058.21
281.65	1800.16
281.86	1875.94
282.08	2009.06
282.29	2021.35
282.51	1853.41
282.73	1896.42
282.94	1826.79
283.16	1994.72
283.37	2070.50
283.59	1951.71
283.80	1968.10
284.02	1972.19
284.23	1970.15
284.45	1877.99
284.66	1931.23
284.88	1828.84
285.09	1908.71
285.31	1986.53
285.52	2023.39
285.74	1851.36
285.95	1976.29
286.17	1947.62
286.38	2033.63
286.60	1916.90
286.81	1884.13
287.03	1943.52
287.24	1920.99
287.46	2027.49
287.67	1964.00
287.89	2101.22
288.10	1920.99
288.32	1992.67
288.53	2068.45
288.75	1943.52
288.96	2025.44
289.18	1945.57
289.39	1875.94
289.61	1992.67
289.82	2107.36
290.04	2039.78
290.25	1859.56
290.47	1951.71
290.68	1961.95
290.90	1984.48
291.11	1882.08
291.33	2074.59
291.54	1875.94
291.76	1861.60
291.97	2023.39
292.18	1961.95
292.40	1968.10
292.61	1884.13
292.83	2097.12
293.04	1978.34
293.26	2082.78
293.47	1941.47
293.69	1888.23
293.90	1906.66
294.12	2060.26
294.33	2066.40
294.55	1898.47
294.76	1984.48
294.97	2004.96
295.19	2111.46
295.40	1935.33
295.62	2052.06
295.83	2082.78
296.05	1892.32
296.26	2097.12
296.48	1902.56
296.69	1902.56
296.90	1900.52
297.12	2058.21
297.33	2107.36
297.55	1978.34
297.76	2009.06
297.98	2095.07
298.19	1955.81
298.41	1935.33
298.62	1871.84
298.83	2027.49
299.05	1884.13
299.26	1914.85
299.48	1918.95
299.69	2084.83
299.90	1982.43
300.12	1912.80
300.33	1931.23
300.55	1957.86
300.76	2021.35
300.98	1873.89
301.19	1980.39
301.40	1939.43
301.62	1947.62
301.83	2013.15
302.05	1961.95
302.26	1951.71
302.47	1984.48
302.69	1873.89
302.90	2023.39
303.12	1736.68
303.33	2052.06
303.54	2080.74
303.76	1906.66
303.97	1910.75
304.19	2088.93
304.40	1929.19
304.61	1961.95
304.83	2123.74
305.04	2107.36
305.26	1961.95
305.47	1890.28
305.68	1953.76
305.90	1898.47
306.11	2037.73
306.33	1947.62
306.54	1959.91
306.75	1912.80
306.97	1845.22
307.18	1843.17
307.39	1861.60
307.61	2007.01
307.82	1949.67
308.04	1974.24
308.25	1925.09
308.46	2064.35
308.68	1888.23
308.89	2037.73
309.10	2072.54
309.32	1994.72
309.53	1949.67
309.74	1951.71
309.96	1955.81
310.17	2068.45
310.39	1923.04
310.60	1976.29
310.81	2009.06
311.03	1865.70
311.24	1988.58
311.45	1920.99
311.67	2099.17
311.88	1947.62
312.09	1949.67
312.31	1910.75
312.52	1920.99
312.73	2019.30
312.95	1888.23
313.16	1908.71
313.37	2090.98
313.59	1920.99
313.80	1996.77
314.01	2056.16
314.23	1939.43
314.44	1900.52
314.65	1898.47
314.87	1916.90
315.08	1959.91
315.29	1953.76
315.51	1912.80
315.72	1875.94
315.93	2033.63
316.15	1968.10
316.36	1929.19
316.57	1986.53
316.79	1964.00
317.00	1980.39
317.21	1992.67
317.43	1945.57
317.64	1966.05
317.85	1925.09
318.07	1910.75
318.28	2004.96
318.49	2086.88
318.70	2312.16
318.92	2109.41
319.13	2140.13
319.34	2152.42
319.56	2019.30
319.77	2066.40
319.98	2150.37
320.20	2090.98
320.41	2041.82
320.62	2072.54
320.83	1834.98
321.05	2131.94
321.26	1976.29
321.47	1996.77
321.69	1988.58
321.90	1808.36
322.11	1947.62
322.32	1953.76
322.54	2000.87
322.75	1884.13
322.96	2150.37
323.18	1918.95
323.39	1775.59
323.60	1933.28
323.81	2041.82
324.03	1925.09
324.24	1898.47
324.45	1970.15
324.66	1830.88
324.88	2025.44
325.09	2084.83
325.30	1906.66
325.52	1959.91
325.73	1953.76
325.94	1888.23
326.15	1832.93
326.37	1964.00
326.58	2035.68
326.79	1996.77
327.00	1785.83
327.22	1896.42
327.43	1953.76
327.64	1880.04
327.85	1927.14
328.07	1947.62
328.28	2117.60
328.49	1918.95
328.70	1951.71
328.92	1904.61
329.13	1955.81
329.34	1968.10
329.55	2095.07
329.76	1964.00
329.98	1955.81
330.19	2086.88
330.40	2052.06
330.61	2000.87
330.83	1929.19
331.04	1853.41
331.25	1949.67
331.46	1900.52
331.68	1769.44
331.89	2015.20
332.10	1837.03
332.31	1851.36
332.52	1904.61
332.74	2062.30
332.95	1871.84
333.16	1966.05
333.37	1994.72
333.58	1978.34
333.80	1988.58
334.01	1828.84
334.22	1939.43
334.43	1857.51
334.64	1902.56
334.86	1855.46
335.07	1908.71
335.28	2027.49
335.49	1808.36
335.70	1982.43
335.92	2058.21
336.13	2138.08
336.34	2004.96
336.55	1910.75
336.76	2037.73
336.98	1834.98
337.19	1914.85
337.40	2066.40
337.61	2199.52
337.82	1982.43
338.04	2062.30
338.25	1849.32
338.46	1875.94
338.67	1920.99
338.88	1865.70
339.09	1880.04
339.31	1857.51
339.52	1830.88
339.73	1820.64
339.94	1908.71
340.15	2037.73
340.36	1918.95
340.58	1945.57
340.79	1933.28
341.00	1957.86
341.21	1941.47
341.42	2082.78
341.63	1941.47
341.85	2103.26
342.06	1945.57
342.27	1873.89
342.48	1970.15
342.69	1826.79
342.90	1992.67
343.12	2043.87
343.33	1970.15
343.54	1996.77
343.75	1994.72
343.96	1918.95
344.17	1959.91
344.38	1892.32
344.60	1873.89
344.81	1882.08
345.02	1898.47
345.23	2054.11
345.44	2256.86
345.65	1990.63
345.86	2009.06
346.07	1908.71
346.29	1923.04
346.50	1974.24
346.71	1966.05
346.92	2076.64
347.13	2039.78
347.34	1968.10
347.55	1935.33
347.76	2029.54
347.98	1826.79
348.19	2004.96
348.40	2002.91
348.61	1916.90
348.82	1992.67
349.03	1980.39
349.24	1912.80
349.45	2058.21
349.66	1781.73
349.88	2004.96
350.09	1947.62
350.30	2070.50
350.51	2078.69
350.72	1925.09
350.93	2015.20
351.14	1949.67
351.35	2002.91
351.56	1982.43
351.77	1918.95
351.99	1961.95
352.20	2027.49
352.41	2066.40
352.62	1800.16
352.83	1949.67
353.04	1982.43
353.25	2029.54
353.46	2000.87
353.67	1984.48
353.88	1834.98
354.09	1925.09
354.30	1916.90
354.52	1992.67
354.73	2004.96
354.94	1937.38
355.15	1933.28
355.36	2068.45
355.57	1931.23
355.78	1898.47
355.99	1918.95
356.20	1945.57
356.41	2060.26
356.62	1959.91
356.83	1978.34
357.04	2041.82
357.25	1812.45
357.46	1943.52
357.68	1918.95
357.89	1937.38
358.10	1992.67
358.31	1943.52
358.52	1918.95
358.73	1875.94
358.94	1912.80
359.15	1896.42
359.36	2025.44
359.57	1953.76
359.78	1974.24
359.99	1933.28
360.20	1877.99
360.41	1980.39
360.62	1966.05
360.83	1945.57
361.04	1931.23
361.25	2011.11
361.46	2064.35
361.67	2066.40
361.88	2004.96
362.09	2068.45
362.30	2045.92
362.51	1927.14
362.72	1957.86
362.93	1982.43
363.14	2082.78
363.35	2007.01
363.56	1871.84
363.78	2095.07
363.99	2017.25
364.20	1923.04
364.41	2007.01
364.62	2074.59
364.83	1968.10
365.04	1949.67
365.25	1902.56
365.46	2170.85
365.67	1904.61
365.88	1923.04
366.09	1890.28
366.30	1935.33
366.51	1923.04
366.72	1914.85
366.93	1959.91
367.14	2054.11
367.35	2066.40
367.56	1914.85
367.77	1988.58
367.98	2015.20
368.18	2021.35
368.39	2000.87
368.60	1857.51
368.81	2013.15
369.02	1988.58
369.23	1941.47
369.44	1783.78
369.65	1867.75
369.86	1996.77
370.07	1994.72
370.28	1980.39
370.49	1972.19
370.70	2035.68
370.91	1830.88
371.12	1875.94
371.33	2015.20
371.54	1904.61
371.75	2090.98
371.96	1773.54
372.17	2076.64
372.38	1982.43
372.59	1945.57
372.80	1955.81
373.01	1980.39
373.22	1929.19
373.43	1931.23
373.64	1855.46
373.85	2097.12
374.06	2105.31
374.26	2031.58
374.47	1970.15
374.68	2103.26
374.89	2025.44
375.10	1916.90
375.31	2076.64
375.52	1961.95
375.73	2009.06
375.94	1904.61
376.15	2066.40
376.36	1968.10
376.57	1968.10
376.78	1935.33
376.99	1947.62
377.20	2068.45
377.40	1890.28
377.61	2107.36
377.82	1914.85
378.03	2107.36
378.24	2011.11
378.45	1920.99
378.66	1982.43
378.87	1800.16
379.08	1820.64
379.29	2011.11
379.50	2035.68
379.71	1867.75
379.91	1992.67
380.12	1931.23
380.33	1943.52
380.54	1966.05
380.75	1966.05
380.96	1896.42
381.17	1994.72
381.38	1925.09
381.59	2011.11
381.80	1974.24
382.00	2224.09
382.21	1957.86
382.42	2172.89
382.63	2234.33
382.84	2043.87
383.05	2037.73
383.26	2078.69
383.47	1955.81
383.68	1998.82
383.88	2062.30
384.09	1947.62
384.30	2099.17
384.51	1966.05
384.72	1998.82
384.93	1918.95
385.14	1998.82
385.35	2062.30
385.55	1892.32
385.76	2019.30
385.97	1931.23
386.18	1880.04
386.39	1916.90
386.60	1902.56
386.81	1945.57
387.02	1902.56
387.22	1888.23
387.43	2082.78
387.64	2019.30
387.85	2076.64
388.06	2154.46
388.27	3987.40
388.48	8601.47
388.68	11812.68
388.89	14137.13
389.10	15169.30
389.31	14016.30
389.52	10985.30
389.73	9506.67
389.93	8613.76
390.14	7937.93
390.35	7049.11
390.56	6404.00
390.77	5273.52
390.98	4124.61
391.18	3026.90
391.39	2578.39
391.60	2068.45
391.81	2127.84
392.02	1980.39
392.23	2174.94
392.43	1982.43
392.64	2086.88
392.85	2017.25
393.06	2017.25
393.27	1982.43
393.47	1941.47
393.68	1939.43
393.89	1941.47
394.10	1986.53
394.31	1914.85
394.52	1933.28
394.72	1943.52
394.93	2080.74
395.14	1880.04
395.35	1947.62
395.56	1939.43
395.76	1931.23
395.97	1923.04
396.18	2058.21
396.39	2144.22
396.60	2346.97
396.80	2279.39
397.01	2189.28
397.22	2152.42
397.43	2086.88
397.64	2054.11
397.84	2060.26
398.05	2240.48
398.26	2021.35
398.47	2052.06
398.67	2019.30
398.88	1976.29
399.09	2017.25
399.30	1894.37
399.51	2086.88
399.71	1904.61
399.92	1966.05
400.13	1984.48
400.34	1914.85
400.54	1949.67
400.75	2021.35
400.96	1996.77
401.17	2107.36
401.37	1974.24
401.58	2000.87
401.79	1974.24
402.00	2099.17
402.21	2285.53
402.41	2279.39
402.62	2320.35
402.83	2510.81
403.04	2428.89
403.24	2486.23
403.45	2228.19
403.66	2238.43
403.87	2150.37
404.07	2312.16
404.28	2246.62
404.49	2230.24
404.70	2011.11
404.90	2119.65
405.11	1970.15
405.32	2099.17
405.52	1906.66
405.73	1880.04
405.94	1986.53
406.15	1927.14
406.35	2015.20
406.56	2041.82
406.77	1949.67
406.98	1953.76
407.18	1916.90
407.39	2021.35
407.60	2027.49
407.80	2019.30
408.01	1949.67
408.22	1976.29
408.43	1880.04
408.63	1980.39
408.84	2082.78
409.05	2070.50
409.25	1912.80
409.46	1857.51
409.67	1875.94
409.88	1927.14
410.08	2017.25
410.29	1861.60
410.50	2033.63
410.70	2023.39
410.91	1871.84
411.12	2064.35
411.32	1955.81
411.53	1914.85
411.74	2107.36
411.95	2125.79
412.15	2072.54
412.36	2172.89
412.57	2054.11
412.77	2133.98
412.98	1980.39
413.19	2000.87
413.39	1970.15
413.60	2035.68
413.81	2045.92
414.01	1916.90
414.22	2019.30
414.43	2013.15
414.63	1964.00
414.84	1980.39
415.05	2013.15
415.25	1884.13
415.46	2013.15
415.67	1888.23
415.87	1847.27
416.08	1996.77
416.29	1976.29
416.49	2099.17
416.70	1968.10
416.91	1964.00
417.11	1927.14
417.32	2056.16
417.53	2062.30
417.73	2041.82
417.94	1916.90
418.15	1998.82
418.35	1980.39
418.56	1941.47
418.77	2097.12
418.97	1937.38
419.18	1923.04
419.38	1812.45
419.59	1961.95
419.80	2093.02
420.00	1951.71
420.21	1964.00
420.42	2029.54
420.62	1996.77
420.83	1884.13
421.04	1882.08
421.24	1984.48
421.45	2013.15
421.65	2021.35
421.86	1918.95
422.07	2062.30
422.27	2023.39
422.48	2000.87
422.69	1861.60
422.89	1927.14
423.10	1964.00
423.30	1925.09
423.51	1937.38
423.72	1980.39
423.92	2013.15
424.13	1873.89
424.33	2011.11
424.54	1994.72
424.75	1978.34
424.95	2109.41
425.16	1931.23
425.36	1941.47
425.57	2072.54
425.78	2086.88
425.98	2031.58
426.19	1920.99
426.39	1863.65
426.60	1968.10
426.81	2080.74
427.01	1955.81
427.22	1884.13
427.42	1910.75
427.63	1927.14
427.83	1974.24
428.04	2105.31
428.25	2023.39
428.45	2058.21
428.66	2033.63
428.86	1939.43
429.07	1935.33
429.28	2039.78
429.48	2000.87
429.69	1886.18
429.89	1941.47
430.10	1931.23
430.30	2035.68
430.51	2035.68
430.71	1955.81
430.92	1920.99
431.13	1918.95
431.33	1961.95
431.54	2082.78
431.74	2047.97
431.95	2123.74
432.15	1853.41
432.36	1974.24
432.56	2007.01
432.77	2131.94
432.98	2121.70
433.18	2013.15
433.39	1941.47
433.59	1935.33
433.80	2082.78
434.00	2123.74
434.21	1916.90
434.41	1847.27
434.62	2064.35
434.82	1896.42
435.03	1873.89
435.23	2019.30
435.44	1824.74
435.64	1931.23
435.85	1959.91
436.06	2058.21
436.26	2035.68
436.47	1968.10
436.67	1855.46
436.88	1916.90
437.08	2058.21
437.29	2086.88
437.49	1984.48
437.70	1947.62
437.90	2007.01
438.11	2156.51
438.31	2025.44
438.52	2129.89
438.72	2181.09
438.93	2215.90
439.13	2119.65
439.34	2062.30
439.54	2031.58
439.75	2084.83
439.95	2009.06
440.16	1931.23
440.36	2009.06
440.57	2009.06
440.77	1994.72
440.98	1974.24
441.18	2084.83
441.39	1918.95
441.59	1912.80
441.80	2105.31
442.00	1949.67
442.21	2062.30
442.41	1927.14
442.62	2076.64
442.82	2035.68
443.02	2009.06
443.23	2031.58
443.43	1914.85
443.64	2052.06
443.84	1980.39
444.05	2097.12
444.25	1992.67
444.46	1933.28
444.66	2017.25
444.87	2084.83
445.07	1890.28
445.28	1920.99
445.48	2064.35
445.69	2058.21
445.89	2258.91
446.09	1996.77
446.30	2195.42
446.50	2611.16
446.71	4208.58
446.91	5167.03
447.12	6201.25
447.32	6430.62
447.53	6139.81
447.73	4886.45
447.93	4267.97
448.14	3913.67
448.34	3846.09
448.55	3379.15
448.75	3289.04
448.96	3223.50
449.16	2867.16
449.36	2562.01
449.57	2365.40
449.77	2220.00
449.98	2056.16
450.18	2050.02
450.39	2033.63
450.59	2033.63
450.79	2004.96
451.00	1941.47
451.20	2062.30
451.41	2027.49
451.61	1984.48
451.81	1972.19
452.02	1974.24
452.22	1980.39
452.43	1951.71
452.63	1898.47
