SpectraSuite Data File
++++++++++++++++++++++++++++++++++++
Date: Wed May 04 22:45:32 CEST 2016
User: root
Dark Spectrum Present: No
Reference Spectrum Present: No
Number of Sampled Component Spectra: 1
Spectrometers: USB4C02835
Integration Time (usec): 100000 (USB4C02835)
Spectra Averaged: 1 (USB4C02835)
Boxcar Smoothing: 0 (USB4C02835)
Correct for Electrical Dark: No (USB4C02835)
Strobe/Lamp Enabled: No (USB4C02835)
Correct for Detector Non-linearity: No (USB4C02835)
Correct for Stray Light: No (USB4C02835)
Number of Pixels in Processed Spectrum: 3648
>>>>>Begin Processed Spectral Data<<<<<
177.47	1595.37
177.69	1595.37
177.91	1595.37
178.13	1642.47
178.36	1667.05
178.58	1880.04
178.80	1937.38
179.02	1916.90
179.24	1877.99
179.46	1988.58
179.68	1961.95
179.90	1961.95
180.13	1959.91
180.35	1925.09
180.57	1929.19
180.79	1990.63
181.01	2025.44
181.23	2058.21
181.45	2045.92
181.67	1996.77
181.90	2021.35
182.12	1888.23
182.34	1865.70
182.56	1955.81
182.78	2105.31
183.00	1884.13
183.22	1976.29
183.44	1916.90
183.66	2185.18
183.89	2033.63
184.11	1996.77
184.33	2043.87
184.55	2039.78
184.77	1933.28
184.99	1894.37
185.21	1902.56
185.43	2136.03
185.65	1808.36
185.87	1984.48
186.10	2076.64
186.32	2203.61
186.54	2029.54
186.76	2039.78
186.98	2082.78
187.20	1939.43
187.42	1912.80
187.64	1988.58
187.86	1947.62
188.08	2009.06
188.30	1933.28
188.52	1980.39
188.75	1990.63
188.97	2011.11
189.19	1947.62
189.41	1896.42
189.63	1970.15
189.85	1953.76
190.07	1875.94
190.29	1853.41
190.51	1988.58
190.73	1816.55
190.95	2027.49
191.17	1972.19
191.39	1791.97
191.61	1931.23
191.84	1824.74
192.06	2027.49
192.28	1855.46
192.50	2283.49
192.72	1964.00
192.94	1920.99
193.16	2060.26
193.38	1982.43
193.60	1875.94
193.82	1916.90
194.04	2035.68
194.26	1986.53
194.48	1945.57
194.70	1896.42
194.92	1892.32
195.14	2047.97
195.36	1873.89
195.58	1976.29
195.80	2023.39
196.02	1923.04
196.24	1943.52
196.46	1927.14
196.69	1908.71
196.91	2093.02
197.13	1935.33
197.35	1869.80
197.57	2013.15
197.79	2107.36
198.01	1920.99
198.23	1974.24
198.45	1982.43
198.67	1861.60
198.89	1941.47
199.11	1951.71
199.33	1880.04
199.55	1775.59
199.77	1994.72
199.99	1978.34
200.21	1961.95
200.43	1953.76
200.65	1882.08
200.87	1746.92
201.09	1933.28
201.31	1929.19
201.53	1939.43
201.75	2033.63
201.97	1939.43
202.19	1990.63
202.41	1974.24
202.63	2058.21
202.85	2004.96
203.07	1961.95
203.29	1908.71
203.51	1843.17
203.73	1982.43
203.95	2179.04
204.17	1941.47
204.39	1927.14
204.61	2002.91
204.83	1980.39
205.05	2050.02
205.27	1990.63
205.49	2103.26
205.71	1916.90
205.93	1974.24
206.15	1900.52
206.37	2023.39
206.59	1955.81
206.81	1798.12
207.03	1789.92
207.25	2007.01
207.47	1984.48
207.69	1914.85
207.91	2052.06
208.13	2072.54
208.34	1976.29
208.56	1904.61
208.78	1941.47
209.00	1953.76
209.22	1910.75
209.44	1923.04
209.66	1933.28
209.88	1988.58
210.10	1933.28
210.32	2002.91
210.54	2021.35
210.76	1959.91
210.98	2050.02
211.20	1783.78
211.42	1953.76
211.64	2056.16
211.86	1976.29
212.08	2011.11
212.30	1939.43
212.52	2009.06
212.74	2015.20
212.96	1955.81
213.17	2047.97
213.39	2027.49
213.61	2062.30
213.83	1908.71
214.05	1945.57
214.27	2066.40
214.49	1886.18
214.71	1957.86
214.93	1990.63
215.15	1974.24
215.37	2007.01
215.59	1931.23
215.81	1918.95
216.03	2043.87
216.24	1966.05
216.46	1941.47
216.68	2004.96
216.90	2011.11
217.12	2064.35
217.34	1908.71
217.56	2027.49
217.78	2080.74
218.00	1968.10
218.22	1978.34
218.44	2019.30
218.66	2013.15
218.87	2047.97
219.09	1843.17
219.31	1978.34
219.53	1978.34
219.75	1906.66
219.97	1904.61
220.19	1968.10
220.41	1972.19
220.63	2088.93
220.85	1918.95
221.06	1949.67
221.28	2086.88
221.50	1972.19
221.72	1871.84
221.94	1916.90
222.16	1984.48
222.38	1992.67
222.60	2000.87
222.82	1951.71
223.03	2078.69
223.25	1869.80
223.47	1943.52
223.69	2031.58
223.91	2060.26
224.13	1972.19
224.35	1925.09
224.57	1994.72
224.78	1961.95
225.00	1882.08
225.22	1906.66
225.44	1947.62
225.66	2056.16
225.88	1892.32
226.10	2058.21
226.32	1961.95
226.53	2050.02
226.75	1882.08
226.97	1914.85
227.19	1951.71
227.41	1884.13
227.63	1918.95
227.85	1810.40
228.06	1902.56
228.28	2023.39
228.50	2011.11
228.72	1843.17
228.94	1937.38
229.16	1826.79
229.37	1912.80
229.59	1834.98
229.81	2080.74
230.03	1908.71
230.25	1900.52
230.47	1834.98
230.69	1804.26
230.90	2015.20
231.12	1834.98
231.34	1923.04
231.56	2004.96
231.78	1908.71
232.00	1931.23
232.21	1880.04
232.43	1863.65
232.65	1810.40
232.87	1988.58
233.09	1818.60
233.30	1984.48
233.52	2009.06
233.74	1918.95
233.96	1949.67
234.18	1933.28
234.40	1964.00
234.61	2062.30
234.83	1865.70
235.05	1898.47
235.27	2095.07
235.49	2123.74
235.70	1902.56
235.92	1968.10
236.14	1959.91
236.36	2086.88
236.58	1812.45
236.79	2035.68
237.01	1937.38
237.23	1859.56
237.45	2000.87
237.67	1875.94
237.88	1998.82
238.10	2133.98
238.32	1884.13
238.54	1935.33
238.76	1941.47
238.97	1894.37
239.19	1912.80
239.41	1978.34
239.63	2086.88
239.85	1847.27
240.06	1894.37
240.28	1947.62
240.50	2039.78
240.72	1937.38
240.93	1949.67
241.15	2013.15
241.37	2017.25
241.59	2039.78
241.81	1986.53
242.02	1927.14
242.24	1998.82
242.46	1996.77
242.68	1847.27
242.89	1886.18
243.11	2019.30
243.33	2017.25
243.55	1970.15
243.76	1980.39
243.98	1949.67
244.20	1986.53
244.42	1941.47
244.64	1949.67
244.85	1845.22
245.07	1861.60
245.29	2004.96
245.51	1949.67
245.72	2011.11
245.94	2021.35
246.16	1961.95
246.38	1982.43
246.59	1898.47
246.81	1941.47
247.03	1923.04
247.24	1857.51
247.46	1980.39
247.68	1964.00
247.90	1900.52
248.11	1826.79
248.33	2035.68
248.55	1849.32
248.77	1945.57
248.98	2058.21
249.20	2043.87
249.42	1988.58
249.64	1964.00
249.85	1923.04
250.07	1892.32
250.29	2004.96
250.50	2041.82
250.72	1851.36
250.94	2062.30
251.16	2060.26
251.37	2025.44
251.59	1974.24
251.81	1972.19
252.02	2045.92
252.24	1918.95
252.46	2041.82
252.68	1886.18
252.89	1869.80
253.11	1781.73
253.33	2078.69
253.54	2039.78
253.76	1861.60
253.98	1941.47
254.20	1943.52
254.41	1849.32
254.63	1957.86
254.85	1882.08
255.06	1933.28
255.28	1980.39
255.50	1996.77
255.71	1931.23
255.93	1834.98
256.15	2047.97
256.36	1951.71
256.58	1941.47
256.80	1955.81
257.02	1902.56
257.23	1992.67
257.45	1964.00
257.67	1986.53
257.88	1904.61
258.10	1931.23
258.32	1941.47
258.53	1896.42
258.75	2082.78
258.97	1914.85
259.18	1939.43
259.40	1955.81
259.62	2099.17
259.83	2109.41
260.05	1996.77
260.27	2277.34
260.48	2054.11
260.70	1886.18
260.92	1869.80
261.13	1880.04
261.35	1988.58
261.57	2002.91
261.78	1806.31
262.00	1783.78
262.22	1992.67
262.43	1859.56
262.65	1888.23
262.86	1955.81
263.08	2066.40
263.30	2017.25
263.51	1843.17
263.73	1892.32
263.95	2023.39
264.16	1984.48
264.38	1880.04
264.60	1976.29
264.81	1906.66
265.03	1980.39
265.25	2037.73
265.46	1886.18
265.68	2090.98
265.89	1984.48
266.11	1808.36
266.33	1970.15
266.54	2035.68
266.76	1953.76
266.98	1939.43
267.19	2025.44
267.41	1927.14
267.62	1908.71
267.84	1857.51
268.06	2009.06
268.27	1931.23
268.49	2029.54
268.70	2082.78
268.92	1933.28
269.14	1812.45
269.35	1957.86
269.57	2021.35
269.79	1972.19
270.00	1906.66
270.22	2062.30
270.43	1814.50
270.65	1781.73
270.87	1986.53
271.08	2025.44
271.30	1945.57
271.51	1914.85
271.73	1972.19
271.95	2050.02
272.16	1951.71
272.38	1943.52
272.59	1900.52
272.81	1988.58
273.02	1955.81
273.24	2064.35
273.46	2074.59
273.67	1849.32
273.89	1847.27
274.10	1886.18
274.32	1988.58
274.54	1933.28
274.75	1968.10
274.97	1927.14
275.18	1943.52
275.40	2007.01
275.61	1964.00
275.83	1984.48
276.05	1892.32
276.26	1886.18
276.48	2019.30
276.69	1869.80
276.91	2009.06
277.12	2101.22
277.34	2023.39
277.55	2045.92
277.77	1990.63
277.99	1918.95
278.20	1953.76
278.42	1839.08
278.63	1904.61
278.85	1869.80
279.06	1841.12
279.28	1980.39
279.49	2019.30
279.71	2050.02
279.93	1953.76
280.14	2011.11
280.36	1863.65
280.57	2054.11
280.79	1970.15
281.00	1976.29
281.22	1978.34
281.43	2011.11
281.65	1834.98
281.86	1888.23
282.08	1982.43
282.29	2052.06
282.51	1902.56
282.73	1857.51
282.94	1841.12
283.16	1990.63
283.37	2041.82
283.59	1990.63
283.80	1959.91
284.02	1908.71
284.23	1920.99
284.45	1886.18
284.66	1875.94
284.88	1941.47
285.09	1964.00
285.31	2017.25
285.52	1986.53
285.74	1839.08
285.95	2043.87
286.17	1974.24
286.38	2037.73
286.60	1865.70
286.81	1861.60
287.03	1945.57
287.24	1931.23
287.46	2029.54
287.67	1882.08
287.89	2097.12
288.10	1947.62
288.32	1953.76
288.53	2013.15
288.75	1927.14
288.96	2002.91
289.18	1970.15
289.39	1869.80
289.61	1966.05
289.82	2138.08
290.04	2097.12
290.25	1857.51
290.47	1896.42
290.68	1904.61
290.90	2000.87
291.11	1849.32
291.33	2072.54
291.54	1826.79
291.76	1916.90
291.97	1986.53
292.18	1929.19
292.40	1949.67
292.61	1894.37
292.83	2119.65
293.04	2021.35
293.26	1982.43
293.47	1943.52
293.69	1847.27
293.90	1970.15
294.12	2060.26
294.33	1964.00
294.55	1918.95
294.76	1992.67
294.97	2062.30
295.19	2109.41
295.40	1927.14
295.62	1925.09
295.83	2052.06
296.05	1918.95
296.26	1961.95
296.48	1902.56
296.69	2029.54
296.90	1894.37
297.12	2082.78
297.33	2107.36
297.55	2035.68
297.76	1957.86
297.98	2013.15
298.19	1957.86
298.41	2074.59
298.62	1898.47
298.83	2064.35
299.05	1990.63
299.26	1974.24
299.48	1937.38
299.69	1994.72
299.90	1984.48
300.12	1898.47
300.33	2009.06
300.55	1943.52
300.76	2041.82
300.98	1925.09
301.19	2009.06
301.40	1865.70
301.62	1890.28
301.83	2039.78
302.05	2025.44
302.26	1949.67
302.47	1966.05
302.69	1853.41
302.90	1972.19
303.12	1834.98
303.33	2041.82
303.54	2084.83
303.76	1970.15
303.97	2029.54
304.19	2111.46
304.40	1873.89
304.61	1974.24
304.83	2066.40
305.04	2007.01
305.26	2033.63
305.47	1898.47
305.68	1937.38
305.90	1890.28
306.11	2050.02
306.33	1925.09
306.54	1929.19
306.75	1937.38
306.97	1916.90
307.18	1875.94
307.39	1904.61
307.61	1933.28
307.82	1920.99
308.04	1976.29
308.25	1880.04
308.46	2007.01
308.68	1988.58
308.89	1941.47
309.10	2068.45
309.32	1982.43
309.53	1972.19
309.74	1970.15
309.96	1884.13
310.17	2060.26
310.39	1986.53
310.60	1992.67
310.81	1925.09
311.03	1843.17
311.24	1974.24
311.45	1957.86
311.67	2138.08
311.88	1953.76
312.09	1914.85
312.31	1912.80
312.52	2031.58
312.73	1996.77
312.95	1818.60
313.16	1886.18
313.37	2074.59
313.59	2093.02
313.80	2015.20
314.01	2078.69
314.23	1923.04
314.44	1867.75
314.65	1914.85
314.87	1941.47
315.08	1931.23
315.29	1880.04
315.51	1871.84
315.72	1806.31
315.93	2056.16
316.15	2015.20
316.36	1918.95
316.57	1968.10
316.79	2058.21
317.00	1910.75
317.21	2025.44
317.43	1832.93
317.64	1957.86
317.85	1968.10
318.07	1990.63
318.28	1992.67
318.49	2084.83
318.70	2316.25
318.92	2146.27
319.13	2129.89
319.34	2189.28
319.56	2070.50
319.77	2160.61
319.98	2099.17
320.20	2121.70
320.41	2123.74
320.62	2025.44
320.83	1867.75
321.05	2138.08
321.26	2029.54
321.47	1978.34
321.69	2066.40
321.90	1877.99
322.11	1943.52
322.32	1953.76
322.54	2052.06
322.75	1953.76
322.96	2123.74
323.18	1806.31
323.39	1783.78
323.60	1933.28
323.81	2041.82
324.03	1849.32
324.24	1953.76
324.45	1994.72
324.66	1968.10
324.88	2025.44
325.09	2035.68
325.30	1912.80
325.52	1990.63
325.73	1972.19
325.94	1906.66
326.15	1890.28
326.37	1912.80
326.58	1992.67
326.79	2068.45
327.00	1927.14
327.22	1986.53
327.43	1923.04
327.64	1830.88
327.85	1931.23
328.07	2041.82
328.28	2133.98
328.49	1937.38
328.70	1945.57
328.92	1937.38
329.13	1923.04
329.34	1904.61
329.55	2170.85
329.76	1953.76
329.98	1972.19
330.19	2090.98
330.40	1906.66
330.61	1964.00
330.83	2054.11
331.04	1904.61
331.25	1974.24
331.46	1957.86
331.68	1834.98
331.89	2027.49
332.10	1941.47
332.31	1822.69
332.52	2017.25
332.74	2035.68
332.95	1834.98
333.16	1935.33
333.37	2066.40
333.58	1939.43
333.80	1982.43
334.01	1886.18
334.22	1927.14
334.43	1855.46
334.64	1949.67
334.86	1802.21
335.07	1923.04
335.28	2088.93
335.49	1869.80
335.70	1918.95
335.92	2070.50
336.13	2142.18
336.34	2060.26
336.55	1953.76
336.76	1976.29
336.98	1814.50
337.19	1974.24
337.40	2043.87
337.61	2123.74
337.82	1865.70
338.04	2037.73
338.25	1816.55
338.46	1937.38
338.67	1937.38
338.88	1925.09
339.09	1826.79
339.31	1964.00
339.52	1953.76
339.73	1863.65
339.94	1935.33
340.15	1984.48
340.36	1912.80
340.58	1968.10
340.79	1871.84
341.00	2002.91
341.21	1925.09
341.42	2127.84
341.63	1939.43
341.85	2019.30
342.06	1882.08
342.27	1964.00
342.48	2070.50
342.69	1832.93
342.90	1970.15
343.12	2054.11
343.33	1867.75
343.54	2025.44
343.75	2078.69
343.96	1894.37
344.17	1959.91
344.38	1974.24
344.60	1935.33
344.81	1945.57
345.02	1886.18
345.23	2103.26
345.44	2179.04
345.65	2004.96
345.86	2086.88
346.07	1945.57
346.29	1896.42
346.50	2037.73
346.71	1986.53
346.92	2037.73
347.13	2123.74
347.34	1923.04
347.55	1935.33
347.76	2037.73
347.98	1869.80
348.19	1918.95
348.40	2004.96
348.61	1933.28
348.82	2146.27
349.03	2070.50
349.24	1894.37
349.45	2133.98
349.66	1808.36
349.88	1959.91
350.09	1912.80
350.30	2002.91
350.51	2027.49
350.72	2037.73
350.93	1994.72
351.14	1984.48
351.35	1964.00
351.56	1947.62
351.77	1980.39
351.99	2052.06
352.20	2095.07
352.41	2017.25
352.62	1798.12
352.83	1966.05
353.04	1902.56
353.25	1912.80
353.46	1992.67
353.67	2011.11
353.88	1767.40
354.09	1990.63
354.30	1914.85
354.52	2029.54
354.73	1964.00
354.94	1943.52
355.15	1925.09
355.36	2072.54
355.57	2023.39
355.78	1955.81
355.99	1920.99
356.20	1927.14
356.41	2062.30
356.62	2015.20
356.83	1935.33
357.04	2029.54
357.25	1920.99
357.46	1951.71
357.68	1820.64
357.89	1859.56
358.10	1933.28
358.31	1961.95
358.52	2031.58
358.73	1904.61
358.94	1904.61
359.15	1863.65
359.36	2045.92
359.57	1939.43
359.78	1984.48
359.99	2056.16
360.20	1847.27
360.41	1880.04
360.62	1949.67
360.83	1970.15
361.04	2041.82
361.25	1920.99
361.46	2113.50
361.67	1990.63
361.88	2007.01
362.09	2017.25
362.30	2002.91
362.51	1910.75
362.72	1908.71
362.93	2039.78
363.14	1947.62
363.35	1961.95
363.56	1871.84
363.78	1992.67
363.99	2009.06
364.20	1845.22
364.41	1970.15
364.62	2052.06
364.83	1966.05
365.04	1845.22
365.25	1992.67
365.46	2099.17
365.67	1851.36
365.88	1951.71
366.09	1931.23
366.30	1951.71
366.51	1964.00
366.72	1884.13
366.93	1894.37
367.14	1957.86
367.35	2011.11
367.56	1986.53
367.77	2009.06
367.98	1949.67
368.18	1972.19
368.39	1966.05
368.60	1882.08
368.81	2019.30
369.02	2017.25
369.23	1998.82
369.44	1873.89
369.65	1964.00
369.86	2017.25
370.07	1941.47
370.28	1964.00
370.49	1976.29
370.70	1986.53
370.91	1871.84
371.12	1886.18
371.33	2056.16
371.54	1912.80
371.75	2027.49
371.96	1742.82
372.17	2031.58
372.38	2009.06
372.59	1988.58
372.80	1902.56
373.01	1951.71
373.22	1947.62
373.43	1959.91
373.64	1914.85
373.85	2054.11
374.06	2052.06
374.26	1947.62
374.47	1994.72
374.68	2097.12
374.89	1994.72
375.10	1931.23
375.31	2031.58
375.52	1955.81
375.73	2000.87
375.94	1900.52
376.15	2052.06
376.36	1855.46
376.57	1918.95
376.78	1957.86
376.99	2017.25
377.20	2043.87
377.40	1970.15
377.61	2056.16
377.82	1890.28
378.03	2123.74
378.24	2103.26
378.45	1937.38
378.66	1966.05
378.87	1845.22
379.08	1896.42
379.29	1955.81
379.50	2031.58
379.71	1949.67
379.91	2007.01
380.12	1914.85
380.33	1908.71
380.54	1916.90
380.75	1968.10
380.96	2025.44
381.17	2082.78
381.38	2025.44
381.59	1953.76
381.80	2017.25
382.00	2121.70
382.21	1961.95
382.42	2138.08
382.63	2189.28
382.84	2090.98
383.05	2082.78
383.26	2068.45
383.47	1941.47
383.68	2023.39
383.88	1994.72
384.09	2002.91
384.30	2170.85
384.51	2004.96
384.72	1941.47
384.93	1875.94
385.14	2015.20
385.35	2164.70
385.55	1898.47
385.76	2086.88
385.97	1961.95
386.18	1832.93
386.39	1972.19
386.60	1869.80
386.81	1900.52
387.02	1863.65
387.22	1939.43
387.43	2127.84
387.64	2105.31
387.85	2140.13
388.06	2310.11
388.27	3880.90
388.48	8654.72
388.68	12277.57
388.89	14362.40
389.10	15533.84
389.31	14139.18
389.52	11009.88
389.73	9600.88
389.93	8716.16
390.14	8019.85
390.35	7247.76
390.56	6502.30
390.77	5361.58
390.98	4038.59
391.18	3143.63
391.39	2609.11
391.60	2154.46
391.81	2119.65
392.02	1994.72
392.23	2109.41
392.43	2074.59
392.64	2117.60
392.85	1961.95
393.06	2156.51
393.27	1964.00
393.47	1933.28
393.68	1986.53
393.89	1916.90
394.10	2138.08
394.31	1961.95
394.52	1914.85
394.72	1914.85
394.93	2115.55
395.14	2007.01
395.35	1984.48
395.56	1865.70
395.76	2011.11
395.97	2047.97
396.18	2103.26
396.39	2154.46
396.60	2363.36
396.80	2226.14
397.01	2183.13
397.22	2152.42
397.43	2160.61
397.64	1998.82
397.84	2070.50
398.05	2183.13
398.26	2097.12
398.47	2052.06
398.67	2060.26
398.88	1923.04
399.09	2000.87
399.30	1834.98
399.51	2029.54
399.71	1892.32
399.92	1920.99
400.13	2056.16
400.34	1998.82
400.54	1998.82
400.75	2117.60
400.96	1966.05
401.17	2170.85
401.37	1957.86
401.58	1959.91
401.79	1918.95
402.00	2078.69
402.21	2293.72
402.41	2248.67
402.62	2379.74
402.83	2396.12
403.04	2439.13
403.24	2453.47
403.45	2045.92
403.66	2256.86
403.87	2201.57
404.07	2183.13
404.28	2258.91
404.49	2242.53
404.70	2052.06
404.90	2068.45
405.11	1920.99
405.32	2027.49
405.52	1865.70
405.73	1996.77
405.94	1869.80
406.15	1933.28
406.35	1966.05
406.56	2025.44
406.77	1988.58
406.98	2050.02
407.18	1949.67
407.39	1992.67
407.60	1927.14
407.80	1949.67
408.01	1992.67
408.22	2017.25
408.43	1861.60
408.63	2023.39
408.84	2062.30
409.05	2031.58
409.25	1935.33
409.46	1914.85
409.67	1896.42
409.88	1920.99
410.08	2033.63
410.29	2013.15
410.50	2058.21
410.70	1941.47
410.91	1898.47
411.12	2000.87
411.32	1992.67
411.53	1902.56
411.74	2093.02
411.95	2033.63
412.15	2035.68
412.36	2062.30
412.57	2047.97
412.77	2047.97
412.98	1957.86
413.19	1968.10
413.39	2047.97
413.60	2011.11
413.81	2019.30
414.01	1974.24
414.22	2066.40
414.43	2088.93
414.63	1994.72
414.84	2019.30
415.05	1959.91
415.25	1759.21
415.46	2009.06
415.67	1966.05
415.87	2015.20
416.08	1937.38
416.29	1933.28
416.49	2033.63
416.70	1964.00
416.91	1908.71
417.11	1955.81
417.32	2007.01
417.53	2041.82
417.73	2023.39
417.94	1992.67
418.15	2004.96
418.35	1935.33
418.56	1931.23
418.77	2213.85
418.97	1961.95
419.18	1964.00
419.38	1826.79
419.59	1894.37
419.80	2052.06
420.00	1798.12
420.21	1951.71
420.42	2078.69
420.62	2002.91
420.83	1918.95
421.04	1976.29
421.24	1937.38
421.45	2000.87
421.65	1957.86
421.86	1880.04
422.07	1955.81
422.27	1998.82
422.48	1949.67
422.69	2007.01
422.89	2039.78
423.10	2045.92
423.30	1857.51
423.51	1898.47
423.72	1957.86
423.92	2062.30
424.13	1847.27
424.33	1918.95
424.54	2023.39
424.75	2050.02
424.95	2187.23
425.16	1961.95
425.36	1961.95
425.57	2109.41
425.78	1988.58
425.98	1992.67
426.19	1918.95
426.39	1818.60
426.60	2029.54
426.81	2052.06
427.01	2000.87
427.22	1869.80
427.42	1794.02
427.63	1884.13
427.83	1998.82
428.04	2054.11
428.25	2037.73
428.45	2056.16
428.66	2093.02
428.86	1984.48
429.07	1859.56
429.28	1992.67
429.48	1886.18
429.69	1834.98
429.89	1920.99
430.10	1904.61
430.30	2000.87
430.51	1951.71
430.71	1964.00
430.92	1937.38
431.13	1906.66
431.33	2050.02
431.54	1966.05
431.74	2074.59
431.95	2138.08
432.15	1892.32
432.36	2033.63
432.56	2025.44
432.77	2039.78
432.98	2146.27
433.18	1974.24
433.39	1914.85
433.59	1933.28
433.80	2090.98
434.00	2152.42
434.21	1857.51
434.41	1951.71
434.62	2125.79
434.82	1916.90
435.03	1945.57
435.23	1943.52
435.44	1806.31
435.64	1892.32
435.85	2009.06
436.06	1984.48
436.26	2000.87
436.47	1892.32
436.67	1984.48
436.88	1918.95
437.08	2056.16
437.29	2133.98
437.49	2023.39
437.70	2129.89
437.90	1980.39
438.11	2109.41
438.31	2074.59
438.52	2156.51
438.72	2164.70
438.93	2252.77
439.13	2009.06
439.34	2269.15
439.54	1986.53
439.75	2002.91
439.95	2107.36
440.16	1994.72
440.36	1959.91
440.57	1957.86
440.77	2004.96
440.98	1951.71
441.18	2066.40
441.39	1968.10
441.59	1888.23
441.80	2230.24
442.00	1888.23
442.21	2039.78
442.41	1880.04
442.62	2000.87
442.82	1990.63
443.02	1980.39
443.23	2015.20
443.43	1996.77
443.64	2123.74
443.84	1888.23
444.05	2138.08
444.25	2002.91
444.46	1988.58
444.66	2009.06
444.87	2052.06
445.07	1871.84
445.28	2002.91
445.48	2025.44
445.69	2011.11
445.89	2119.65
446.09	2009.06
446.30	2195.42
446.50	2633.69
446.71	4267.97
446.91	5318.57
447.12	6215.59
447.32	6614.94
447.53	5969.83
447.73	4913.08
447.93	4472.76
448.14	3950.53
448.34	3717.06
448.55	3446.73
448.75	3342.28
448.96	3143.63
449.16	2879.44
449.36	2658.26
449.57	2314.20
449.77	2119.65
449.98	2045.92
450.18	2068.45
450.39	2056.16
450.59	2058.21
450.79	1959.91
451.00	1947.62
451.20	2050.02
451.41	1947.62
451.61	2019.30
451.81	1980.39
452.02	2047.97
452.22	2015.20
452.43	1953.76
452.63	1959.91
