SpectraSuite Data File
++++++++++++++++++++++++++++++++++++
Date: Wed May 04 22:45:21 CEST 2016
User: root
Dark Spectrum Present: No
Reference Spectrum Present: No
Number of Sampled Component Spectra: 1
Spectrometers: USB4C02835
Integration Time (usec): 100000 (USB4C02835)
Spectra Averaged: 1 (USB4C02835)
Boxcar Smoothing: 0 (USB4C02835)
Correct for Electrical Dark: No (USB4C02835)
Strobe/Lamp Enabled: No (USB4C02835)
Correct for Detector Non-linearity: No (USB4C02835)
Correct for Stray Light: No (USB4C02835)
Number of Pixels in Processed Spectrum: 3648
>>>>>Begin Processed Spectral Data<<<<<
177.47	1621.99
177.69	1621.99
177.91	1621.99
178.13	1613.80
178.36	1656.81
178.58	1945.57
178.80	1939.43
179.02	1890.28
179.24	1886.18
179.46	1898.47
179.68	2013.15
179.90	1877.99
180.13	1916.90
180.35	1855.46
180.57	1933.28
180.79	2004.96
181.01	1947.62
181.23	1961.95
181.45	1941.47
181.67	2029.54
181.90	2007.01
182.12	1953.76
182.34	1849.32
182.56	1964.00
182.78	1943.52
183.00	1970.15
183.22	1996.77
183.44	1802.21
183.66	2179.04
183.89	2019.30
184.11	1912.80
184.33	2060.26
184.55	2080.74
184.77	1884.13
184.99	1990.63
185.21	1951.71
185.43	2236.38
185.65	1841.12
185.87	1916.90
186.10	2078.69
186.32	2140.13
186.54	1943.52
186.76	2004.96
186.98	2084.83
187.20	1984.48
187.42	1970.15
187.64	1841.12
187.86	1988.58
188.08	1976.29
188.30	1884.13
188.52	1914.85
188.75	2021.35
188.97	2004.96
189.19	1970.15
189.41	1959.91
189.63	1951.71
189.85	1939.43
190.07	1818.60
190.29	1865.70
190.51	1974.24
190.73	1894.37
190.95	2000.87
191.17	1890.28
191.39	1826.79
191.61	1941.47
191.84	1923.04
192.06	1931.23
192.28	1791.97
192.50	2115.55
192.72	1945.57
192.94	1908.71
193.16	2029.54
193.38	1996.77
193.60	1882.08
193.82	1941.47
194.04	2047.97
194.26	1961.95
194.48	1933.28
194.70	1894.37
194.92	1908.71
195.14	1966.05
195.36	1894.37
195.58	1914.85
195.80	1970.15
196.02	1943.52
196.24	1935.33
196.46	1933.28
196.69	1867.75
196.91	2074.59
197.13	1884.13
197.35	1953.76
197.57	2090.98
197.79	2009.06
198.01	1978.34
198.23	2031.58
198.45	1970.15
198.67	1863.65
198.89	1970.15
199.11	1986.53
199.33	1886.18
199.55	1837.03
199.77	1937.38
199.99	1980.39
200.21	1873.89
200.43	1980.39
200.65	1822.69
200.87	1804.26
201.09	1982.43
201.31	2021.35
201.53	1986.53
201.75	1902.56
201.97	1970.15
202.19	1966.05
202.41	1955.81
202.63	2093.02
202.85	1953.76
203.07	2043.87
203.29	1957.86
203.51	1918.95
203.73	1875.94
203.95	2066.40
204.17	1982.43
204.39	1931.23
204.61	1998.82
204.83	1894.37
205.05	1992.67
205.27	2013.15
205.49	2080.74
205.71	1931.23
205.93	1892.32
206.15	1822.69
206.37	2021.35
206.59	1884.13
206.81	1826.79
207.03	1830.88
207.25	1894.37
207.47	2023.39
207.69	1988.58
207.91	2105.31
208.13	2039.78
208.34	1916.90
208.56	1867.75
208.78	1949.67
209.00	1914.85
209.22	1955.81
209.44	1902.56
209.66	1912.80
209.88	1923.04
210.10	1968.10
210.32	1941.47
210.54	2009.06
210.76	1996.77
210.98	1976.29
211.20	1867.75
211.42	1947.62
211.64	1972.19
211.86	1996.77
212.08	2054.11
212.30	1886.18
212.52	1957.86
212.74	1964.00
212.96	1925.09
213.17	2027.49
213.39	2000.87
213.61	2146.27
213.83	1873.89
214.05	1929.19
214.27	2056.16
214.49	1896.42
214.71	1867.75
214.93	2004.96
215.15	1939.43
215.37	2029.54
215.59	1845.22
215.81	1947.62
216.03	2058.21
216.24	2009.06
216.46	1990.63
216.68	1925.09
216.90	1961.95
217.12	2023.39
217.34	1830.88
217.56	2045.92
217.78	2002.91
218.00	1904.61
218.22	1839.08
218.44	1964.00
218.66	1955.81
218.87	2015.20
219.09	1927.14
219.31	1945.57
219.53	1943.52
219.75	1884.13
219.97	1908.71
220.19	1970.15
220.41	1880.04
220.63	2000.87
220.85	1933.28
221.06	1822.69
221.28	2054.11
221.50	2023.39
221.72	1886.18
221.94	1974.24
222.16	1945.57
222.38	2002.91
222.60	1990.63
222.82	1931.23
223.03	2066.40
223.25	1900.52
223.47	1880.04
223.69	2099.17
223.91	1968.10
224.13	1961.95
224.35	1937.38
224.57	2029.54
224.78	2015.20
225.00	1845.22
225.22	1888.23
225.44	1943.52
225.66	1935.33
225.88	1914.85
226.10	1994.72
226.32	1910.75
226.53	2045.92
226.75	1925.09
226.97	1990.63
227.19	1935.33
227.41	1939.43
227.63	1914.85
227.85	1837.03
228.06	1890.28
228.28	1964.00
228.50	1984.48
228.72	1896.42
228.94	1927.14
229.16	1777.64
229.37	1841.12
229.59	1873.89
229.81	2039.78
230.03	1933.28
230.25	1847.27
230.47	1927.14
230.69	1857.51
230.90	2015.20
231.12	1982.43
231.34	1957.86
231.56	2004.96
231.78	1865.70
232.00	1976.29
232.21	2017.25
232.43	1904.61
232.65	1789.92
232.87	2000.87
233.09	1877.99
233.30	1955.81
233.52	2039.78
233.74	1861.60
233.96	1984.48
234.18	1941.47
234.40	1990.63
234.61	2107.36
234.83	1865.70
235.05	1925.09
235.27	2107.36
235.49	2047.97
235.70	1914.85
235.92	2013.15
236.14	2017.25
236.36	2113.50
236.58	1826.79
236.79	1966.05
237.01	2033.63
237.23	1916.90
237.45	2080.74
237.67	1937.38
237.88	1957.86
238.10	2095.07
238.32	1961.95
238.54	1916.90
238.76	1931.23
238.97	1896.42
239.19	1955.81
239.41	2035.68
239.63	1996.77
239.85	1984.48
240.06	1873.89
240.28	1902.56
240.50	2045.92
240.72	1875.94
240.93	1861.60
241.15	2000.87
241.37	2037.73
241.59	2041.82
241.81	1972.19
242.02	1968.10
242.24	1994.72
242.46	1972.19
242.68	1771.49
242.89	1957.86
243.11	2025.44
243.33	1931.23
243.55	1994.72
243.76	1929.19
243.98	1867.75
244.20	1959.91
244.42	1933.28
244.64	2019.30
244.85	1861.60
245.07	1916.90
245.29	1890.28
245.51	1863.65
245.72	1943.52
245.94	2103.26
246.16	1904.61
246.38	1910.75
246.59	1912.80
246.81	1920.99
247.03	1927.14
247.24	1781.73
247.46	1898.47
247.68	1945.57
247.90	1910.75
248.11	1947.62
248.33	2043.87
248.55	2064.35
248.77	1931.23
248.98	1998.82
249.20	2023.39
249.42	1978.34
249.64	1941.47
249.85	1918.95
250.07	1918.95
250.29	1984.48
250.50	1964.00
250.72	1830.88
250.94	1961.95
251.16	2101.22
251.37	2011.11
251.59	1918.95
251.81	1986.53
252.02	2035.68
252.24	1943.52
252.46	1945.57
252.68	1908.71
252.89	1902.56
253.11	1843.17
253.33	2058.21
253.54	2060.26
253.76	1834.98
253.98	1849.32
254.20	2000.87
254.41	1834.98
254.63	1925.09
254.85	1851.36
255.06	1947.62
255.28	1990.63
255.50	1957.86
255.71	1867.75
255.93	1880.04
256.15	1914.85
256.36	2013.15
256.58	1892.32
256.80	2064.35
257.02	1923.04
257.23	1959.91
257.45	1949.67
257.67	1988.58
257.88	1900.52
258.10	1931.23
258.32	1941.47
258.53	1943.52
258.75	2101.22
258.97	1970.15
259.18	1880.04
259.40	1927.14
259.62	2099.17
259.83	2045.92
260.05	1978.34
260.27	2283.49
260.48	1982.43
260.70	1957.86
260.92	1888.23
261.13	1916.90
261.35	1923.04
261.57	1904.61
261.78	1791.97
262.00	1886.18
262.22	2009.06
262.43	1927.14
262.65	1939.43
262.86	1976.29
263.08	2129.89
263.30	1984.48
263.51	1843.17
263.73	1898.47
263.95	2064.35
264.16	1939.43
264.38	1882.08
264.60	1898.47
264.81	1984.48
265.03	2000.87
265.25	2050.02
265.46	1920.99
265.68	2009.06
265.89	2060.26
266.11	1781.73
266.33	1906.66
266.54	2013.15
266.76	2007.01
266.98	2011.11
267.19	2035.68
267.41	2033.63
267.62	2011.11
267.84	1904.61
268.06	1966.05
268.27	1955.81
268.49	2074.59
268.70	1988.58
268.92	1882.08
269.14	1902.56
269.35	1865.70
269.57	1880.04
269.79	1959.91
270.00	1906.66
270.22	2084.83
270.43	1886.18
270.65	1867.75
270.87	1980.39
271.08	2039.78
271.30	2017.25
271.51	1943.52
271.73	1937.38
271.95	1996.77
272.16	1984.48
272.38	1933.28
272.59	1918.95
272.81	1972.19
273.02	1945.57
273.24	1961.95
273.46	2082.78
273.67	1908.71
273.89	1857.51
274.10	1857.51
274.32	2002.91
274.54	1978.34
274.75	1957.86
274.97	1955.81
275.18	2050.02
275.40	1953.76
275.61	1957.86
275.83	1935.33
276.05	1843.17
276.26	1943.52
276.48	2007.01
276.69	1982.43
276.91	1888.23
277.12	2033.63
277.34	2025.44
277.55	1974.24
277.77	1988.58
277.99	1961.95
278.20	1949.67
278.42	1867.75
278.63	1824.74
278.85	1912.80
279.06	1896.42
279.28	1996.77
279.49	1990.63
279.71	1986.53
279.93	1939.43
280.14	1902.56
280.36	1900.52
280.57	2070.50
280.79	2021.35
281.00	1851.36
281.22	1898.47
281.43	2123.74
281.65	1808.36
281.86	1880.04
282.08	1974.24
282.29	2131.94
282.51	1873.89
282.73	1882.08
282.94	1832.93
283.16	1994.72
283.37	2070.50
283.59	1949.67
283.80	1966.05
284.02	1970.15
284.23	1959.91
284.45	1861.60
284.66	1880.04
284.88	1861.60
285.09	1918.95
285.31	1984.48
285.52	1968.10
285.74	1877.99
285.95	1988.58
286.17	1916.90
286.38	2066.40
286.60	1925.09
286.81	1953.76
287.03	1974.24
287.24	1996.77
287.46	1951.71
287.67	1861.60
287.89	2025.44
288.10	1916.90
288.32	1918.95
288.53	2080.74
288.75	1941.47
288.96	1961.95
289.18	1910.75
289.39	1935.33
289.61	1994.72
289.82	2136.03
290.04	2086.88
290.25	1933.28
290.47	2021.35
290.68	1990.63
290.90	2015.20
291.11	1888.23
291.33	2000.87
291.54	1900.52
291.76	1880.04
291.97	1964.00
292.18	1920.99
292.40	1877.99
292.61	1984.48
292.83	2103.26
293.04	1902.56
293.26	1937.38
293.47	1970.15
293.69	1873.89
293.90	1867.75
294.12	2029.54
294.33	1951.71
294.55	1902.56
294.76	1976.29
294.97	2054.11
295.19	2191.33
295.40	1877.99
295.62	2004.96
295.83	2025.44
296.05	1841.12
296.26	2103.26
296.48	1875.94
296.69	1968.10
296.90	1951.71
297.12	1957.86
297.33	2033.63
297.55	1978.34
297.76	2002.91
297.98	2054.11
298.19	1976.29
298.41	1974.24
298.62	1851.36
298.83	2080.74
299.05	1929.19
299.26	1949.67
299.48	1927.14
299.69	1998.82
299.90	1931.23
300.12	1923.04
300.33	2045.92
300.55	1974.24
300.76	2029.54
300.98	1859.56
301.19	1990.63
301.40	1920.99
301.62	1957.86
301.83	1927.14
302.05	1972.19
302.26	1984.48
302.47	2025.44
302.69	1861.60
302.90	1978.34
303.12	1751.01
303.33	2045.92
303.54	2058.21
303.76	1871.84
303.97	2019.30
304.19	2037.73
304.40	1929.19
304.61	1966.05
304.83	2101.22
305.04	2072.54
305.26	1974.24
305.47	2025.44
305.68	2011.11
305.90	1902.56
306.11	1996.77
306.33	2027.49
306.54	1939.43
306.75	1900.52
306.97	1810.40
307.18	1929.19
307.39	1869.80
307.61	1980.39
307.82	1898.47
308.04	1970.15
308.25	1902.56
308.46	1947.62
308.68	1990.63
308.89	1986.53
309.10	2109.41
309.32	1988.58
309.53	1890.28
309.74	1998.82
309.96	1931.23
310.17	1976.29
310.39	1892.32
310.60	2019.30
310.81	1918.95
311.03	1918.95
311.24	2043.87
311.45	1935.33
311.67	2095.07
311.88	2037.73
312.09	1951.71
312.31	1888.23
312.52	1910.75
312.73	1939.43
312.95	1802.21
313.16	1896.42
313.37	1990.63
313.59	2017.25
313.80	2068.45
314.01	2011.11
314.23	1896.42
314.44	1957.86
314.65	1861.60
314.87	1847.27
315.08	1916.90
315.29	1900.52
315.51	1875.94
315.72	1830.88
315.93	2070.50
316.15	2039.78
316.36	1910.75
316.57	1941.47
316.79	1998.82
317.00	1955.81
317.21	2011.11
317.43	1871.84
317.64	1916.90
317.85	1937.38
318.07	1863.65
318.28	2017.25
318.49	2176.99
318.70	2193.37
318.92	2154.46
319.13	2150.37
319.34	2201.57
319.56	2054.11
319.77	2072.54
319.98	2099.17
320.20	2082.78
320.41	2078.69
320.62	2082.78
320.83	1980.39
321.05	2142.18
321.26	2007.01
321.47	1988.58
321.69	2068.45
321.90	1849.32
322.11	1910.75
322.32	1939.43
322.54	2084.83
322.75	1980.39
322.96	2203.61
323.18	1849.32
323.39	1859.56
323.60	1857.51
323.81	2041.82
324.03	1964.00
324.24	1849.32
324.45	1935.33
324.66	1968.10
324.88	2023.39
325.09	2047.97
325.30	1923.04
325.52	2035.68
325.73	1933.28
325.94	1964.00
326.15	1867.75
326.37	1886.18
326.58	1986.53
326.79	2117.60
327.00	1880.04
327.22	1974.24
327.43	1914.85
327.64	1931.23
327.85	1974.24
328.07	1945.57
328.28	2019.30
328.49	1855.46
328.70	1972.19
328.92	1929.19
329.13	1863.65
329.34	1978.34
329.55	2076.64
329.76	2019.30
329.98	1900.52
330.19	2084.83
330.40	1918.95
330.61	1888.23
330.83	2050.02
331.04	1906.66
331.25	1941.47
331.46	1945.57
331.68	1957.86
331.89	2035.68
332.10	1904.61
332.31	1894.37
332.52	1855.46
332.74	2072.54
332.95	1873.89
333.16	1980.39
333.37	2045.92
333.58	1875.94
333.80	2000.87
334.01	1804.26
334.22	1933.28
334.43	1869.80
334.64	1933.28
334.86	1857.51
335.07	1843.17
335.28	2045.92
335.49	1851.36
335.70	2045.92
335.92	2015.20
336.13	2101.22
336.34	1982.43
336.55	1929.19
336.76	1886.18
336.98	1775.59
337.19	1951.71
337.40	2107.36
337.61	2185.18
337.82	1945.57
338.04	2021.35
338.25	1908.71
338.46	1912.80
338.67	1877.99
338.88	1845.22
339.09	1853.41
339.31	1949.67
339.52	1820.64
339.73	1918.95
339.94	1894.37
340.15	2043.87
340.36	1906.66
340.58	1939.43
340.79	1918.95
341.00	2033.63
341.21	1941.47
341.42	2093.02
341.63	1931.23
341.85	2082.78
342.06	1941.47
342.27	1892.32
342.48	2054.11
342.69	1892.32
342.90	1992.67
343.12	2035.68
343.33	2019.30
343.54	2066.40
343.75	2123.74
343.96	1961.95
344.17	1863.65
344.38	1947.62
344.60	1927.14
344.81	1914.85
345.02	1900.52
345.23	1992.67
345.44	2125.79
345.65	2084.83
345.86	2047.97
346.07	1970.15
346.29	1929.19
346.50	2054.11
346.71	1953.76
346.92	2131.94
347.13	2156.51
347.34	1841.12
347.55	1865.70
347.76	2050.02
347.98	1867.75
348.19	1980.39
348.40	2064.35
348.61	1959.91
348.82	2115.55
349.03	2093.02
349.24	1927.14
349.45	2103.26
349.66	1783.78
349.88	1998.82
350.09	1894.37
350.30	2082.78
350.51	2023.39
350.72	1972.19
350.93	1966.05
351.14	1884.13
351.35	1990.63
351.56	1964.00
351.77	1933.28
351.99	2068.45
352.20	2117.60
352.41	2035.68
352.62	1865.70
352.83	1916.90
353.04	1949.67
353.25	1906.66
353.46	2039.78
353.67	2033.63
353.88	1779.68
354.09	1931.23
354.30	2037.73
354.52	1982.43
354.73	1970.15
354.94	1937.38
355.15	1888.23
355.36	2174.94
355.57	1845.22
355.78	2009.06
355.99	1851.36
356.20	2039.78
356.41	2045.92
356.62	1933.28
356.83	1968.10
357.04	2125.79
357.25	1794.02
357.46	1982.43
357.68	1843.17
357.89	1984.48
358.10	1920.99
358.31	1882.08
358.52	1947.62
358.73	1904.61
358.94	1896.42
359.15	1927.14
359.36	2039.78
359.57	1980.39
359.78	1931.23
359.99	2035.68
360.20	1927.14
360.41	1961.95
360.62	1966.05
360.83	2039.78
361.04	2004.96
361.25	1990.63
361.46	2035.68
361.67	2019.30
361.88	2062.30
362.09	1986.53
362.30	2002.91
362.51	1855.46
362.72	2004.96
362.93	2078.69
363.14	2050.02
363.35	2011.11
363.56	1898.47
363.78	1966.05
363.99	1974.24
364.20	1826.79
364.41	2076.64
364.62	2131.94
364.83	1927.14
365.04	1908.71
365.25	1986.53
365.46	2113.50
365.67	1931.23
365.88	1972.19
366.09	1959.91
366.30	1916.90
366.51	1943.52
366.72	1832.93
366.93	2011.11
367.14	1978.34
367.35	2039.78
367.56	1931.23
367.77	2084.83
367.98	1992.67
368.18	1976.29
368.39	1939.43
368.60	1810.40
368.81	1992.67
369.02	2007.01
369.23	1931.23
369.44	1880.04
369.65	1955.81
369.86	1986.53
370.07	1988.58
370.28	1929.19
370.49	2019.30
370.70	2021.35
370.91	1892.32
371.12	1873.89
371.33	1984.48
371.54	1959.91
371.75	2101.22
371.96	1802.21
372.17	1929.19
372.38	1941.47
372.59	2045.92
372.80	1918.95
373.01	1994.72
373.22	1966.05
373.43	1947.62
373.64	1863.65
373.85	2058.21
374.06	2019.30
374.26	1957.86
374.47	1994.72
374.68	2045.92
374.89	1918.95
375.10	1851.36
375.31	2017.25
375.52	1959.91
375.73	2033.63
375.94	1904.61
376.15	2013.15
376.36	1880.04
376.57	1894.37
376.78	1884.13
376.99	1933.28
377.20	2045.92
377.40	1890.28
377.61	2121.70
377.82	1877.99
378.03	2068.45
378.24	2035.68
378.45	1900.52
378.66	1986.53
378.87	1892.32
379.08	1869.80
379.29	1961.95
379.50	2072.54
379.71	1896.42
379.91	2017.25
380.12	1935.33
380.33	1996.77
380.54	1890.28
380.75	1943.52
380.96	1957.86
381.17	1994.72
381.38	2082.78
381.59	1974.24
381.80	2062.30
382.00	2080.74
382.21	2080.74
382.42	2086.88
382.63	2160.61
382.84	2125.79
383.05	2127.84
383.26	2029.54
383.47	2009.06
383.68	1970.15
383.88	2125.79
384.09	1980.39
384.30	2158.56
384.51	2037.73
384.72	1970.15
384.93	1904.61
385.14	2045.92
385.35	2045.92
385.55	1900.52
385.76	2050.02
385.97	1959.91
386.18	1837.03
386.39	1964.00
386.60	1951.71
386.81	1964.00
387.02	1859.56
387.22	1927.14
387.43	2052.06
387.64	2041.82
387.85	2144.22
388.06	2258.91
388.27	3962.82
388.48	8793.98
388.68	12040.01
388.89	14495.52
389.10	15611.67
389.31	14141.22
389.52	11218.77
389.73	9783.15
389.93	8753.02
390.14	8054.66
390.35	7356.30
390.56	6475.68
390.77	5287.86
390.98	3954.63
391.18	3151.82
391.39	2521.05
391.60	2207.71
391.81	2164.70
392.02	1988.58
392.23	2125.79
392.43	1976.29
392.64	2090.98
392.85	1941.47
393.06	2062.30
393.27	1918.95
393.47	1834.98
393.68	1927.14
393.89	1933.28
394.10	2043.87
394.31	1886.18
394.52	1961.95
394.72	1851.36
394.93	2033.63
395.14	1916.90
395.35	1906.66
395.56	1980.39
395.76	1929.19
395.97	2015.20
396.18	2082.78
396.39	2121.70
396.60	2420.70
396.80	2287.58
397.01	2117.60
397.22	2115.55
397.43	2164.70
397.64	2019.30
397.84	2086.88
398.05	2197.47
398.26	1947.62
398.47	2015.20
398.67	2043.87
398.88	2009.06
399.09	1953.76
399.30	1978.34
399.51	1970.15
399.71	1927.14
399.92	1974.24
400.13	2080.74
400.34	1941.47
400.54	1888.23
400.75	2058.21
400.96	1927.14
401.17	2111.46
401.37	2037.73
401.58	1929.19
401.79	2013.15
402.00	2131.94
402.21	2299.87
402.41	2344.92
402.62	2346.97
402.83	2389.98
403.04	2342.88
403.24	2461.66
403.45	2162.66
403.66	2316.25
403.87	2125.79
404.07	2226.14
404.28	2213.85
404.49	2281.44
404.70	2029.54
404.90	2031.58
405.11	1984.48
405.32	2021.35
405.52	1935.33
405.73	1970.15
405.94	1906.66
406.15	1939.43
406.35	2011.11
406.56	2023.39
406.77	2031.58
406.98	1927.14
407.18	1904.61
407.39	2047.97
407.60	1871.84
407.80	1957.86
408.01	1894.37
408.22	2025.44
408.43	1898.47
408.63	1998.82
408.84	2017.25
409.05	1998.82
409.25	1877.99
409.46	1935.33
409.67	1898.47
409.88	1849.32
410.08	2037.73
410.29	1935.33
410.50	2103.26
410.70	2041.82
410.91	1908.71
411.12	2000.87
411.32	1968.10
411.53	1935.33
411.74	2056.16
411.95	2076.64
412.15	2033.63
412.36	2088.93
412.57	2045.92
412.77	2080.74
412.98	2074.59
413.19	1925.09
413.39	2033.63
413.60	1939.43
413.81	2025.44
414.01	1918.95
414.22	2101.22
414.43	2004.96
414.63	1972.19
414.84	2078.69
415.05	2027.49
415.25	1906.66
415.46	1982.43
415.67	1992.67
415.87	1994.72
416.08	1955.81
416.29	1902.56
416.49	1986.53
416.70	2004.96
416.91	1916.90
417.11	1957.86
417.32	2127.84
417.53	2000.87
417.73	2023.39
417.94	2021.35
418.15	1939.43
418.35	1892.32
418.56	1992.67
418.77	2125.79
418.97	1908.71
419.18	1941.47
419.38	1857.51
419.59	2004.96
419.80	2009.06
420.00	1908.71
420.21	2013.15
420.42	2080.74
420.62	1996.77
420.83	1888.23
421.04	2002.91
421.24	1894.37
421.45	1974.24
421.65	1990.63
421.86	1916.90
422.07	2080.74
422.27	2025.44
422.48	2031.58
422.69	1818.60
422.89	1949.67
423.10	2000.87
423.30	1953.76
423.51	1970.15
423.72	2031.58
423.92	1943.52
424.13	1904.61
424.33	2004.96
424.54	1988.58
424.75	2000.87
424.95	2070.50
425.16	1943.52
425.36	1939.43
425.57	1918.95
425.78	1927.14
425.98	1994.72
426.19	2045.92
426.39	1882.08
426.60	1947.62
426.81	1943.52
427.01	1978.34
427.22	1910.75
427.42	1816.55
427.63	1869.80
427.83	1996.77
428.04	2021.35
428.25	2029.54
428.45	1980.39
428.66	2070.50
428.86	1896.42
429.07	1906.66
429.28	1972.19
429.48	1902.56
429.69	1888.23
429.89	2047.97
430.10	1992.67
430.30	2029.54
430.51	2068.45
430.71	1959.91
430.92	1890.28
431.13	1937.38
431.33	1996.77
431.54	1972.19
431.74	2105.31
431.95	2131.94
432.15	1888.23
432.36	1978.34
432.56	2029.54
432.77	2082.78
432.98	2021.35
433.18	2013.15
433.39	1970.15
433.59	1939.43
433.80	2105.31
434.00	2113.50
434.21	1902.56
434.41	1929.19
434.62	2136.03
434.82	1918.95
435.03	1927.14
435.23	1976.29
435.44	1794.02
435.64	1937.38
435.85	1968.10
436.06	2035.68
436.26	2066.40
436.47	1904.61
436.67	1886.18
436.88	1949.67
437.08	2062.30
437.29	2076.64
437.49	1910.75
437.70	2068.45
437.90	1988.58
438.11	2076.64
438.31	2045.92
438.52	2123.74
438.72	2176.99
438.93	2291.68
439.13	2097.12
439.34	2121.70
439.54	2002.91
439.75	2109.41
439.95	2009.06
440.16	1998.82
440.36	2050.02
440.57	2070.50
440.77	2002.91
440.98	2019.30
441.18	2056.16
441.39	1931.23
441.59	1918.95
441.80	2123.74
442.00	1951.71
442.21	2054.11
442.41	1966.05
442.62	1984.48
442.82	1941.47
443.02	1964.00
443.23	1957.86
443.43	1945.57
443.64	2136.03
443.84	1898.47
444.05	2068.45
444.25	1894.37
444.46	1925.09
444.66	1982.43
444.87	2125.79
445.07	1884.13
445.28	1929.19
445.48	2148.32
445.69	2002.91
445.89	2187.23
446.09	2004.96
446.30	2254.81
446.50	2605.02
446.71	4184.00
446.91	5337.01
447.12	6338.46
447.32	6510.49
447.53	5961.64
447.73	4868.02
447.93	4431.80
448.14	4048.83
448.34	3880.90
448.55	3430.35
448.75	3338.19
448.96	3209.17
449.16	2914.26
449.36	2643.93
449.57	2349.02
449.77	2140.13
449.98	1998.82
450.18	2113.50
450.39	2090.98
450.59	2027.49
450.79	2050.02
451.00	1923.04
451.20	2062.30
451.41	2027.49
451.61	1974.24
451.81	1972.19
452.02	1861.60
452.22	1939.43
452.43	1929.19
452.63	1888.23
