SpectraSuite Data File
++++++++++++++++++++++++++++++++++++
Date: Wed May 04 22:45:53 CEST 2016
User: root
Dark Spectrum Present: No
Reference Spectrum Present: No
Number of Sampled Component Spectra: 1
Spectrometers: USB4C02835
Integration Time (usec): 100000 (USB4C02835)
Spectra Averaged: 1 (USB4C02835)
Boxcar Smoothing: 0 (USB4C02835)
Correct for Electrical Dark: No (USB4C02835)
Strobe/Lamp Enabled: No (USB4C02835)
Correct for Detector Non-linearity: No (USB4C02835)
Correct for Stray Light: No (USB4C02835)
Number of Pixels in Processed Spectrum: 3648
>>>>>Begin Processed Spectral Data<<<<<
177.47	1593.32
177.69	1593.32
177.91	1593.32
178.13	1630.18
178.36	1658.85
178.58	1923.04
178.80	2019.30
179.02	1828.84
179.24	1947.62
179.46	1931.23
179.68	1968.10
179.90	2025.44
180.13	1947.62
180.35	1888.23
180.57	1988.58
180.79	2045.92
181.01	1812.45
181.23	2002.91
181.45	2017.25
181.67	2007.01
181.90	1968.10
182.12	1869.80
182.34	1783.78
182.56	2019.30
182.78	1970.15
183.00	1972.19
183.22	1902.56
183.44	1834.98
183.66	2162.66
183.89	2004.96
184.11	2029.54
184.33	2050.02
184.55	1984.48
184.77	2037.73
184.99	1976.29
185.21	1923.04
185.43	2107.36
185.65	1908.71
185.87	1951.71
186.10	2119.65
186.32	2095.07
186.54	1951.71
186.76	1992.67
186.98	2009.06
187.20	1968.10
187.42	1894.37
187.64	1972.19
187.86	1964.00
188.08	2054.11
188.30	1890.28
188.52	1945.57
188.75	2027.49
188.97	2039.78
189.19	1886.18
189.41	1923.04
189.63	1988.58
189.85	1951.71
190.07	1832.93
190.29	1785.83
190.51	1978.34
190.73	1898.47
190.95	1890.28
191.17	1912.80
191.39	1814.50
191.61	1957.86
191.84	1865.70
192.06	1994.72
192.28	1847.27
192.50	2187.23
192.72	2000.87
192.94	1961.95
193.16	2088.93
193.38	1933.28
193.60	1855.46
193.82	1904.61
194.04	2009.06
194.26	1966.05
194.48	1896.42
194.70	1925.09
194.92	1906.66
195.14	1984.48
195.36	1851.36
195.58	1925.09
195.80	1945.57
196.02	1861.60
196.24	1931.23
196.46	1951.71
196.69	1847.27
196.91	2179.04
197.13	1957.86
197.35	1916.90
197.57	2093.02
197.79	1964.00
198.01	1941.47
198.23	1951.71
198.45	1976.29
198.67	1937.38
198.89	1923.04
199.11	1951.71
199.33	1871.84
199.55	1839.08
199.77	1894.37
199.99	2103.26
200.21	1910.75
200.43	1953.76
200.65	1855.46
200.87	1834.98
201.09	2007.01
201.31	1845.22
201.53	2002.91
201.75	1951.71
201.97	2039.78
202.19	1935.33
202.41	1943.52
202.63	2090.98
202.85	1951.71
203.07	1998.82
203.29	1873.89
203.51	1890.28
203.73	1910.75
203.95	2193.37
204.17	1978.34
204.39	1974.24
204.61	2031.58
204.83	1812.45
205.05	1986.53
205.27	1966.05
205.49	2213.85
205.71	1867.75
205.93	1888.23
206.15	1900.52
206.37	1988.58
206.59	1941.47
206.81	1830.88
207.03	1898.47
207.25	1859.56
207.47	2037.73
207.69	1959.91
207.91	2068.45
208.13	2109.41
208.34	1806.31
208.56	1894.37
208.78	1949.67
209.00	1925.09
209.22	1957.86
209.44	1900.52
209.66	1914.85
209.88	1935.33
210.10	1884.13
210.32	1894.37
210.54	2015.20
210.76	1869.80
210.98	2041.82
211.20	1904.61
211.42	1986.53
211.64	1996.77
211.86	1923.04
212.08	2000.87
212.30	1947.62
212.52	1898.47
212.74	1994.72
212.96	1961.95
213.17	1953.76
213.39	1984.48
213.61	2050.02
213.83	1904.61
214.05	2011.11
214.27	1990.63
214.49	1875.94
214.71	1873.89
214.93	2023.39
215.15	1890.28
215.37	1939.43
215.59	1798.12
215.81	1945.57
216.03	2021.35
216.24	2013.15
216.46	1951.71
216.68	1935.33
216.90	2099.17
217.12	2021.35
217.34	1908.71
217.56	1996.77
217.78	1998.82
218.00	2031.58
218.22	1943.52
218.44	1945.57
218.66	1918.95
218.87	2101.22
219.09	1923.04
219.31	1990.63
219.53	1964.00
219.75	1910.75
219.97	1945.57
220.19	1990.63
220.41	1937.38
220.63	2082.78
220.85	1933.28
221.06	1839.08
221.28	2066.40
221.50	1996.77
221.72	1914.85
221.94	1918.95
222.16	1937.38
222.38	2074.59
222.60	1974.24
222.82	1908.71
223.03	1982.43
223.25	1890.28
223.47	1980.39
223.69	2136.03
223.91	2037.73
224.13	2011.11
224.35	1906.66
224.57	1964.00
224.78	1984.48
225.00	1908.71
225.22	1908.71
225.44	1912.80
225.66	1992.67
225.88	1964.00
226.10	1947.62
226.32	1988.58
226.53	2076.64
226.75	1888.23
226.97	1890.28
227.19	1927.14
227.41	1959.91
227.63	1918.95
227.85	1859.56
228.06	1888.23
228.28	1882.08
228.50	2060.26
228.72	1781.73
228.94	1865.70
229.16	1812.45
229.37	1816.55
229.59	1923.04
229.81	2072.54
230.03	1920.99
230.25	1834.98
230.47	1847.27
230.69	1841.12
230.90	2072.54
231.12	1894.37
231.34	1927.14
231.56	1916.90
231.78	1841.12
232.00	1984.48
232.21	1964.00
232.43	1918.95
232.65	1796.07
232.87	2045.92
233.09	1908.71
233.30	1904.61
233.52	2007.01
233.74	1871.84
233.96	1902.56
234.18	1972.19
234.40	1912.80
234.61	2148.32
234.83	1888.23
235.05	1888.23
235.27	2183.13
235.49	2107.36
235.70	2013.15
235.92	2027.49
236.14	1945.57
236.36	2170.85
236.58	1818.60
236.79	2084.83
237.01	2004.96
237.23	2013.15
237.45	2050.02
237.67	1896.42
237.88	1976.29
238.10	1996.77
238.32	1826.79
238.54	1908.71
238.76	1927.14
238.97	1826.79
239.19	1906.66
239.41	1976.29
239.63	2052.06
239.85	1931.23
240.06	1964.00
240.28	1882.08
240.50	2017.25
240.72	1949.67
240.93	1875.94
241.15	2017.25
241.37	1990.63
241.59	1978.34
241.81	1898.47
242.02	1914.85
242.24	2017.25
242.46	2060.26
242.68	1867.75
242.89	1964.00
243.11	1974.24
243.33	1923.04
243.55	1882.08
243.76	1986.53
243.98	1892.32
244.20	1966.05
244.42	1886.18
244.64	2027.49
244.85	1867.75
245.07	1826.79
245.29	1931.23
245.51	1886.18
245.72	1998.82
245.94	2027.49
246.16	1880.04
246.38	1984.48
246.59	1957.86
246.81	1855.46
247.03	1966.05
247.24	1828.84
247.46	2007.01
247.68	1871.84
247.90	1906.66
248.11	1873.89
248.33	2023.39
248.55	1955.81
248.77	1941.47
248.98	1970.15
249.20	2144.22
249.42	1832.93
249.64	1943.52
249.85	2013.15
250.07	1824.74
250.29	2068.45
250.50	2017.25
250.72	1912.80
250.94	1972.19
251.16	2004.96
251.37	1994.72
251.59	2035.68
251.81	2021.35
252.02	2027.49
252.24	1939.43
252.46	1990.63
252.68	1847.27
252.89	1939.43
253.11	1873.89
253.33	1918.95
253.54	2072.54
253.76	1875.94
253.98	1855.46
254.20	1894.37
254.41	1820.64
254.63	1986.53
254.85	1785.83
255.06	1904.61
255.28	1933.28
255.50	1939.43
255.71	1964.00
255.93	1839.08
256.15	1892.32
256.36	2009.06
256.58	1902.56
256.80	1951.71
257.02	1978.34
257.23	1912.80
257.45	1935.33
257.67	1943.52
257.88	1837.03
258.10	2011.11
258.32	1908.71
258.53	1931.23
258.75	2109.41
258.97	1939.43
259.18	1970.15
259.40	1931.23
259.62	2131.94
259.83	2078.69
260.05	1918.95
260.27	2336.73
260.48	2133.98
260.70	1900.52
260.92	1873.89
261.13	1937.38
261.35	1980.39
261.57	1925.09
261.78	1865.70
262.00	1920.99
262.22	2060.26
262.43	1830.88
262.65	1900.52
262.86	1937.38
263.08	2136.03
263.30	1923.04
263.51	1820.64
263.73	1902.56
263.95	2047.97
264.16	1945.57
264.38	1873.89
264.60	1970.15
264.81	1943.52
265.03	2033.63
265.25	2017.25
265.46	1839.08
265.68	2084.83
265.89	2011.11
266.11	1849.32
266.33	1988.58
266.54	2029.54
266.76	2004.96
266.98	1959.91
267.19	2027.49
267.41	2060.26
267.62	2021.35
267.84	1843.17
268.06	1927.14
268.27	1988.58
268.49	2076.64
268.70	2035.68
268.92	1929.19
269.14	1941.47
269.35	1882.08
269.57	1902.56
269.79	1957.86
270.00	1861.60
270.22	2082.78
270.43	1918.95
270.65	1818.60
270.87	1955.81
271.08	2060.26
271.30	1935.33
271.51	1980.39
271.73	2068.45
271.95	2097.12
272.16	1933.28
272.38	2000.87
272.59	1886.18
272.81	1964.00
273.02	2019.30
273.24	1984.48
273.46	2019.30
273.67	1834.98
273.89	1832.93
274.10	1910.75
274.32	1974.24
274.54	1978.34
274.75	1957.86
274.97	1894.37
275.18	1941.47
275.40	1964.00
275.61	1970.15
275.83	1964.00
276.05	1820.64
276.26	1920.99
276.48	1980.39
276.69	1855.46
276.91	1892.32
277.12	2080.74
277.34	1970.15
277.55	2050.02
277.77	1955.81
277.99	1884.13
278.20	1925.09
278.42	1898.47
278.63	1900.52
278.85	1882.08
279.06	1918.95
279.28	2054.11
279.49	2084.83
279.71	2004.96
279.93	1927.14
280.14	1964.00
280.36	1955.81
280.57	2017.25
280.79	2009.06
281.00	1912.80
281.22	1908.71
281.43	2121.70
281.65	1794.02
281.86	1927.14
282.08	1953.76
282.29	2164.70
282.51	1882.08
282.73	1959.91
282.94	1884.13
283.16	2056.16
283.37	2123.74
283.59	1980.39
283.80	1976.29
284.02	1961.95
284.23	2047.97
284.45	1916.90
284.66	1863.65
284.88	1847.27
285.09	1877.99
285.31	1986.53
285.52	1990.63
285.74	1873.89
285.95	2000.87
286.17	1920.99
286.38	2017.25
286.60	1931.23
286.81	1890.28
287.03	1910.75
287.24	1939.43
287.46	2009.06
287.67	2015.20
287.89	2115.55
288.10	1920.99
288.32	1992.67
288.53	2115.55
288.75	1916.90
288.96	2095.07
289.18	1843.17
289.39	1970.15
289.61	2037.73
289.82	2084.83
290.04	2109.41
290.25	1855.46
290.47	1951.71
290.68	1898.47
290.90	1998.82
291.11	1867.75
291.33	1978.34
291.54	1880.04
291.76	1986.53
291.97	2021.35
292.18	1966.05
292.40	1882.08
292.61	1908.71
292.83	2000.87
293.04	1990.63
293.26	2050.02
293.47	1966.05
293.69	1886.18
293.90	1982.43
294.12	2056.16
294.33	1941.47
294.55	1939.43
294.76	2078.69
294.97	2029.54
295.19	2093.02
295.40	1974.24
295.62	1951.71
295.83	1970.15
296.05	1941.47
296.26	1986.53
296.48	1984.48
296.69	1984.48
296.90	2033.63
297.12	1990.63
297.33	2107.36
297.55	1966.05
297.76	2047.97
297.98	1968.10
298.19	1957.86
298.41	1886.18
298.62	1826.79
298.83	2095.07
299.05	1994.72
299.26	1959.91
299.48	1937.38
299.69	2064.35
299.90	1910.75
300.12	1953.76
300.33	1984.48
300.55	1994.72
300.76	1996.77
300.98	1830.88
301.19	1927.14
301.40	1867.75
301.62	1837.03
301.83	2004.96
302.05	1947.62
302.26	1972.19
302.47	1937.38
302.69	1892.32
302.90	1996.77
303.12	1816.55
303.33	1937.38
303.54	2138.08
303.76	1871.84
303.97	2035.68
304.19	2054.11
304.40	1857.51
304.61	2027.49
304.83	2111.46
305.04	2002.91
305.26	2015.20
305.47	1959.91
305.68	2035.68
305.90	1912.80
306.11	1990.63
306.33	1865.70
306.54	1933.28
306.75	1892.32
306.97	1834.98
307.18	1834.98
307.39	1959.91
307.61	2013.15
307.82	1824.74
308.04	1978.34
308.25	1880.04
308.46	1976.29
308.68	1920.99
308.89	2013.15
309.10	2103.26
309.32	2025.44
309.53	2031.58
309.74	2041.82
309.96	1892.32
310.17	2103.26
310.39	1933.28
310.60	2039.78
310.81	1894.37
311.03	1880.04
311.24	2068.45
311.45	1964.00
311.67	2105.31
311.88	1959.91
312.09	1976.29
312.31	1996.77
312.52	1923.04
312.73	1964.00
312.95	1949.67
313.16	1912.80
313.37	2013.15
313.59	1941.47
313.80	2035.68
314.01	2144.22
314.23	1875.94
314.44	1894.37
314.65	1861.60
314.87	1859.56
315.08	1886.18
315.29	1910.75
315.51	1861.60
315.72	1845.22
315.93	2045.92
316.15	2017.25
316.36	1837.03
316.57	1939.43
316.79	1996.77
317.00	1943.52
317.21	2050.02
317.43	1851.36
317.64	1873.89
317.85	1912.80
318.07	1949.67
318.28	1992.67
318.49	2185.18
318.70	2277.34
318.92	2199.52
319.13	2125.79
319.34	2230.24
319.56	2080.74
319.77	2213.85
319.98	2052.06
320.20	2017.25
320.41	2027.49
320.62	2009.06
320.83	1904.61
321.05	2125.79
321.26	1896.42
321.47	1941.47
321.69	1986.53
321.90	1875.94
322.11	1920.99
322.32	1943.52
322.54	2029.54
322.75	1910.75
322.96	2144.22
323.18	1873.89
323.39	1861.60
323.60	1861.60
323.81	2076.64
324.03	1941.47
324.24	1898.47
324.45	1974.24
324.66	1910.75
324.88	2013.15
325.09	2050.02
325.30	1859.56
325.52	2054.11
325.73	1978.34
325.94	1927.14
326.15	1837.03
326.37	1867.75
326.58	1990.63
326.79	2099.17
327.00	1834.98
327.22	1892.32
327.43	1884.13
327.64	1869.80
327.85	1892.32
328.07	1949.67
328.28	1982.43
328.49	1910.75
328.70	1937.38
328.92	1929.19
329.13	1943.52
329.34	2004.96
329.55	2058.21
329.76	2031.58
329.98	1906.66
330.19	2109.41
330.40	1910.75
330.61	1992.67
330.83	1980.39
331.04	1955.81
331.25	2009.06
331.46	1906.66
331.68	1841.12
331.89	2029.54
332.10	1990.63
332.31	1904.61
332.52	1986.53
332.74	2033.63
332.95	1824.74
333.16	1908.71
333.37	2037.73
333.58	1988.58
333.80	1974.24
334.01	1843.17
334.22	1976.29
334.43	1849.32
334.64	1914.85
334.86	1888.23
335.07	1884.13
335.28	2000.87
335.49	1818.60
335.70	2037.73
335.92	2004.96
336.13	2183.13
336.34	2002.91
336.55	1939.43
336.76	1990.63
336.98	1826.79
337.19	1892.32
337.40	2101.22
337.61	2129.89
337.82	1974.24
338.04	1941.47
338.25	1755.11
338.46	1908.71
338.67	1914.85
338.88	1906.66
339.09	1894.37
339.31	1918.95
339.52	1931.23
339.73	1849.32
339.94	1970.15
340.15	2076.64
340.36	1910.75
340.58	1992.67
340.79	1902.56
341.00	1982.43
341.21	1910.75
341.42	2119.65
341.63	1943.52
341.85	2033.63
342.06	2007.01
342.27	1957.86
342.48	2035.68
342.69	1841.12
342.90	2021.35
343.12	1986.53
343.33	1914.85
343.54	2025.44
343.75	2035.68
343.96	1986.53
344.17	1880.04
344.38	1937.38
344.60	1863.65
344.81	1892.32
345.02	1961.95
345.23	2058.21
345.44	2117.60
345.65	2045.92
345.86	2027.49
346.07	1980.39
346.29	1990.63
346.50	1990.63
346.71	2052.06
346.92	2043.87
347.13	2111.46
347.34	1992.67
347.55	1925.09
347.76	1976.29
347.98	1920.99
348.19	1955.81
348.40	2064.35
348.61	1978.34
348.82	1996.77
349.03	2060.26
349.24	1896.42
349.45	2076.64
349.66	1806.31
349.88	2033.63
350.09	1900.52
350.30	2060.26
350.51	2072.54
350.72	2004.96
350.93	1931.23
351.14	1865.70
351.35	2025.44
351.56	1974.24
351.77	1900.52
351.99	2041.82
352.20	2121.70
352.41	2039.78
352.62	1834.98
352.83	1904.61
353.04	2011.11
353.25	1867.75
353.46	2054.11
353.67	2066.40
353.88	1886.18
354.09	1955.81
354.30	1904.61
354.52	2029.54
354.73	1947.62
354.94	1871.84
355.15	1886.18
355.36	2082.78
355.57	1920.99
355.78	2052.06
355.99	1949.67
356.20	1982.43
356.41	2129.89
356.62	2007.01
356.83	1980.39
357.04	2093.02
357.25	1847.27
357.46	1949.67
357.68	1867.75
357.89	1937.38
358.10	1998.82
358.31	1957.86
358.52	1959.91
358.73	1935.33
358.94	1882.08
359.15	1896.42
359.36	1982.43
359.57	2013.15
359.78	1920.99
359.99	2019.30
360.20	1918.95
360.41	1970.15
360.62	2041.82
360.83	1927.14
361.04	1966.05
361.25	1982.43
361.46	2123.74
361.67	2021.35
361.88	1976.29
362.09	2019.30
362.30	2050.02
362.51	1949.67
362.72	1925.09
362.93	2045.92
363.14	1976.29
363.35	1933.28
363.56	1898.47
363.78	2015.20
363.99	2025.44
364.20	1900.52
364.41	2019.30
364.62	2123.74
364.83	1980.39
365.04	1908.71
365.25	1943.52
365.46	2095.07
365.67	1851.36
365.88	1953.76
366.09	1945.57
366.30	1986.53
366.51	2011.11
366.72	1875.94
366.93	1970.15
367.14	1941.47
367.35	2023.39
367.56	1953.76
367.77	2078.69
367.98	1828.84
368.18	1937.38
368.39	2021.35
368.60	1882.08
368.81	1976.29
369.02	1990.63
369.23	1873.89
369.44	1896.42
369.65	1982.43
369.86	1935.33
370.07	2002.91
370.28	1861.60
370.49	1937.38
370.70	2037.73
370.91	1920.99
371.12	1849.32
371.33	2109.41
371.54	1908.71
371.75	2009.06
371.96	1914.85
372.17	1970.15
372.38	1908.71
372.59	1988.58
372.80	1920.99
373.01	1900.52
373.22	1959.91
373.43	2035.68
373.64	1927.14
373.85	2066.40
374.06	2111.46
374.26	2041.82
374.47	2037.73
374.68	2138.08
374.89	1970.15
375.10	1992.67
375.31	2035.68
375.52	2019.30
375.73	2004.96
375.94	1877.99
376.15	2080.74
376.36	1912.80
376.57	1943.52
376.78	1841.12
376.99	1884.13
377.20	2084.83
377.40	1937.38
377.61	2113.50
377.82	1877.99
378.03	1994.72
378.24	2027.49
378.45	1943.52
378.66	1968.10
378.87	1898.47
379.08	1837.03
379.29	1961.95
379.50	2002.91
379.71	1980.39
379.91	2054.11
380.12	1949.67
380.33	1957.86
380.54	2000.87
380.75	1980.39
380.96	1988.58
381.17	2060.26
381.38	1935.33
381.59	2002.91
381.80	2045.92
382.00	2142.18
382.21	1970.15
382.42	2115.55
382.63	2121.70
382.84	1980.39
383.05	2066.40
383.26	2136.03
383.47	1904.61
383.68	1976.29
383.88	1990.63
384.09	2004.96
384.30	2113.50
384.51	1957.86
384.72	2009.06
384.93	1861.60
385.14	2033.63
385.35	2023.39
385.55	1785.83
385.76	2004.96
385.97	1939.43
386.18	1865.70
386.39	1929.19
386.60	1890.28
386.81	1984.48
387.02	1957.86
387.22	1972.19
387.43	2019.30
387.64	2158.56
387.85	2125.79
388.06	2244.57
388.27	4059.07
388.48	8572.80
388.68	12089.16
388.89	14470.95
389.10	15464.21
389.31	14133.03
389.52	11102.04
389.73	9727.85
389.93	8656.76
390.14	8009.61
390.35	7085.97
390.56	6485.92
390.77	5224.37
390.98	4134.85
391.18	3229.65
391.39	2574.30
391.60	2211.81
391.81	2086.88
392.02	1900.52
392.23	2146.27
392.43	2013.15
392.64	2074.59
392.85	1894.37
393.06	2080.74
393.27	1910.75
393.47	2004.96
393.68	2011.11
393.89	1949.67
394.10	2068.45
394.31	1937.38
394.52	1892.32
394.72	1964.00
394.93	2027.49
395.14	1880.04
395.35	1933.28
395.56	1828.84
395.76	2019.30
395.97	2058.21
396.18	2121.70
396.39	2140.13
396.60	2414.56
396.80	2187.23
397.01	2095.07
397.22	2074.59
397.43	2125.79
397.64	1945.57
397.84	2029.54
398.05	2176.99
398.26	1998.82
398.47	2021.35
398.67	1992.67
398.88	1986.53
399.09	2007.01
399.30	1906.66
399.51	1986.53
399.71	1902.56
399.92	1943.52
400.13	1984.48
400.34	1949.67
400.54	1974.24
400.75	2140.13
400.96	1933.28
401.17	2170.85
401.37	2019.30
401.58	1894.37
401.79	1980.39
402.00	2082.78
402.21	2371.55
402.41	2308.06
402.62	2398.17
402.83	2488.28
403.04	2451.42
403.24	2506.71
403.45	2168.80
403.66	2310.11
403.87	2131.94
404.07	2215.90
404.28	2213.85
404.49	2222.05
404.70	2082.78
404.90	2054.11
405.11	1994.72
405.32	1986.53
405.52	1964.00
405.73	1908.71
405.94	1902.56
406.15	1939.43
406.35	2068.45
406.56	1957.86
406.77	1923.04
406.98	1970.15
407.18	1880.04
407.39	2064.35
407.60	1898.47
407.80	1935.33
408.01	1888.23
408.22	1994.72
408.43	1855.46
408.63	1949.67
408.84	1990.63
409.05	2017.25
409.25	1867.75
409.46	1986.53
409.67	1945.57
409.88	1953.76
410.08	1988.58
410.29	1880.04
410.50	1980.39
410.70	2039.78
410.91	1822.69
411.12	1974.24
411.32	1957.86
411.53	1857.51
411.74	2074.59
411.95	2082.78
412.15	2056.16
412.36	2142.18
412.57	2052.06
412.77	2054.11
412.98	2009.06
413.19	1937.38
413.39	2062.30
413.60	1972.19
413.81	2113.50
414.01	1920.99
414.22	2115.55
414.43	2025.44
414.63	1982.43
414.84	2086.88
415.05	2021.35
415.25	1861.60
415.46	2004.96
415.67	1884.13
415.87	2039.78
416.08	1955.81
416.29	1918.95
416.49	1964.00
416.70	2009.06
416.91	1886.18
417.11	2039.78
417.32	2074.59
417.53	1968.10
417.73	1886.18
417.94	1931.23
418.15	2013.15
418.35	1978.34
418.56	1947.62
418.77	2146.27
418.97	2009.06
419.18	1929.19
419.38	1857.51
419.59	1927.14
419.80	2054.11
420.00	1888.23
420.21	1902.56
420.42	2033.63
420.62	2052.06
420.83	1914.85
421.04	1886.18
421.24	1849.32
421.45	2019.30
421.65	1964.00
421.86	1900.52
422.07	2019.30
422.27	1941.47
422.48	1949.67
422.69	1855.46
422.89	2002.91
423.10	1933.28
423.30	1912.80
423.51	1984.48
423.72	2000.87
423.92	2052.06
424.13	1886.18
424.33	1980.39
424.54	2002.91
424.75	1959.91
424.95	2086.88
425.16	1984.48
425.36	1941.47
425.57	1988.58
425.78	2080.74
425.98	2101.22
426.19	1806.31
426.39	1918.95
426.60	1943.52
426.81	1976.29
427.01	1980.39
427.22	1943.52
427.42	1849.32
427.63	1892.32
427.83	2070.50
428.04	2084.83
428.25	2045.92
428.45	2121.70
428.66	2025.44
428.86	1931.23
429.07	2015.20
429.28	1931.23
429.48	1974.24
429.69	1896.42
429.89	1988.58
430.10	1906.66
430.30	1951.71
430.51	2043.87
430.71	1953.76
430.92	2023.39
431.13	1908.71
431.33	1978.34
431.54	1982.43
431.74	2035.68
431.95	2136.03
432.15	1853.41
432.36	1923.04
432.56	2019.30
432.77	2086.88
432.98	2060.26
433.18	1984.48
433.39	1890.28
433.59	1968.10
433.80	2068.45
434.00	2140.13
434.21	1923.04
434.41	1925.09
434.62	2138.08
434.82	1929.19
435.03	1884.13
435.23	1986.53
435.44	1765.35
435.64	1910.75
435.85	1943.52
436.06	2072.54
436.26	2054.11
436.47	2025.44
436.67	1931.23
436.88	1933.28
437.08	2074.59
437.29	2058.21
437.49	1943.52
437.70	2129.89
437.90	1943.52
438.11	2103.26
438.31	1998.82
438.52	2115.55
438.72	2166.75
438.93	2293.72
439.13	2064.35
439.34	2162.66
439.54	1984.48
439.75	2045.92
439.95	2084.83
440.16	2002.91
440.36	1912.80
440.57	1955.81
440.77	2037.73
440.98	1972.19
441.18	1966.05
441.39	1939.43
441.59	1886.18
441.80	2105.31
442.00	1957.86
442.21	2054.11
442.41	1906.66
442.62	2050.02
442.82	1900.52
443.02	2068.45
443.23	1978.34
443.43	1912.80
443.64	2070.50
443.84	1894.37
444.05	2103.26
444.25	1953.76
444.46	1947.62
444.66	1955.81
444.87	2045.92
445.07	1818.60
445.28	2070.50
445.48	2068.45
445.69	2084.83
445.89	2164.70
446.09	2078.69
446.30	2254.81
446.50	2643.93
446.71	4251.58
446.91	5322.67
447.12	6166.43
447.32	6490.01
447.53	5941.16
447.73	5009.33
447.93	4360.13
448.14	4001.73
448.34	3743.69
448.55	3313.61
448.75	3327.95
448.96	3213.26
449.16	2815.96
449.36	2631.64
449.57	2355.16
449.77	2158.56
449.98	2088.93
450.18	2152.42
450.39	2052.06
450.59	2060.26
450.79	1970.15
451.00	1871.84
451.20	1984.48
451.41	1984.48
451.61	2062.30
451.81	1959.91
452.02	1925.09
452.22	1910.75
452.43	1920.99
452.63	1923.04
