SpectraSuite Data File
++++++++++++++++++++++++++++++++++++
Date: Wed May 04 22:45:20 CEST 2016
User: root
Dark Spectrum Present: No
Reference Spectrum Present: No
Number of Sampled Component Spectra: 1
Spectrometers: USB4C02835
Integration Time (usec): 100000 (USB4C02835)
Spectra Averaged: 1 (USB4C02835)
Boxcar Smoothing: 0 (USB4C02835)
Correct for Electrical Dark: No (USB4C02835)
Strobe/Lamp Enabled: No (USB4C02835)
Correct for Detector Non-linearity: No (USB4C02835)
Correct for Stray Light: No (USB4C02835)
Number of Pixels in Processed Spectrum: 3648
>>>>>Begin Processed Spectral Data<<<<<
177.47	1656.81
177.69	1656.81
177.91	1656.81
178.13	1718.25
178.36	1617.90
178.58	1900.52
178.80	1953.76
179.02	1820.64
179.24	1865.70
179.46	1966.05
179.68	1916.90
179.90	1939.43
180.13	1976.29
180.35	1908.71
180.57	1955.81
180.79	2064.35
181.01	1925.09
181.23	2068.45
181.45	2017.25
181.67	1986.53
181.90	1974.24
182.12	1925.09
182.34	1783.78
182.56	1947.62
182.78	1998.82
183.00	2002.91
183.22	2015.20
183.44	1798.12
183.66	2138.08
183.89	1998.82
184.11	2015.20
184.33	1968.10
184.55	2074.59
184.77	2080.74
184.99	1920.99
185.21	1857.51
185.43	2131.94
185.65	1849.32
185.87	1937.38
186.10	2086.88
186.32	2043.87
186.54	1986.53
186.76	1984.48
186.98	2031.58
187.20	1910.75
187.42	1959.91
187.64	1951.71
187.86	1996.77
188.08	2000.87
188.30	1839.08
188.52	1953.76
188.75	2015.20
188.97	2093.02
189.19	1882.08
189.41	1916.90
189.63	1966.05
189.85	1959.91
190.07	1857.51
190.29	1849.32
190.51	1996.77
190.73	1892.32
190.95	2072.54
191.17	1992.67
191.39	1824.74
191.61	1867.75
191.84	1941.47
192.06	1953.76
192.28	1777.64
192.50	2099.17
192.72	1914.85
192.94	1974.24
193.16	2054.11
193.38	2043.87
193.60	1949.67
193.82	1886.18
194.04	2074.59
194.26	1951.71
194.48	1937.38
194.70	1925.09
194.92	1810.40
195.14	2002.91
195.36	1861.60
195.58	1914.85
195.80	1920.99
196.02	1939.43
196.24	1908.71
196.46	1980.39
196.69	1880.04
196.91	2117.60
197.13	1953.76
197.35	1914.85
197.57	2064.35
197.79	2015.20
198.01	1904.61
198.23	2009.06
198.45	1992.67
198.67	1947.62
198.89	1920.99
199.11	1949.67
199.33	1898.47
199.55	1759.21
199.77	1865.70
199.99	2000.87
200.21	1955.81
200.43	2033.63
200.65	1839.08
200.87	1751.01
201.09	1900.52
201.31	1935.33
201.53	2009.06
201.75	2019.30
201.97	1941.47
202.19	1945.57
202.41	2013.15
202.63	2039.78
202.85	2004.96
203.07	1888.23
203.29	1904.61
203.51	1847.27
203.73	1910.75
203.95	2181.09
204.17	1898.47
204.39	1992.67
204.61	1916.90
204.83	1982.43
205.05	2076.64
205.27	2033.63
205.49	2133.98
205.71	1988.58
205.93	1826.79
206.15	1914.85
206.37	1890.28
206.59	1929.19
206.81	1898.47
207.03	1912.80
207.25	1890.28
207.47	2000.87
207.69	1908.71
207.91	2019.30
208.13	2062.30
208.34	1918.95
208.56	1888.23
208.78	2007.01
209.00	1939.43
209.22	1880.04
209.44	1886.18
209.66	1904.61
209.88	1978.34
210.10	1875.94
210.32	1853.41
210.54	2072.54
210.76	1951.71
210.98	2047.97
211.20	1871.84
211.42	1929.19
211.64	2035.68
211.86	1906.66
212.08	2062.30
212.30	1918.95
212.52	1904.61
212.74	1927.14
212.96	1968.10
213.17	2013.15
213.39	1935.33
213.61	2078.69
213.83	1902.56
214.05	1869.80
214.27	2023.39
214.49	1859.56
214.71	1857.51
214.93	1992.67
215.15	1992.67
215.37	2062.30
215.59	1857.51
215.81	1984.48
216.03	2017.25
216.24	1992.67
216.46	2002.91
216.68	1949.67
216.90	1990.63
217.12	2039.78
217.34	1964.00
217.56	1935.33
217.78	2070.50
218.00	1923.04
218.22	1882.08
218.44	1978.34
218.66	2029.54
218.87	2103.26
219.09	1886.18
219.31	1939.43
219.53	2027.49
219.75	1953.76
219.97	1877.99
220.19	1925.09
220.41	1978.34
220.63	2097.12
220.85	2009.06
221.06	1851.36
221.28	2047.97
221.50	1982.43
221.72	1976.29
221.94	1935.33
222.16	1994.72
222.38	2050.02
222.60	1925.09
222.82	1945.57
223.03	1964.00
223.25	1873.89
223.47	1980.39
223.69	2072.54
223.91	2023.39
224.13	1982.43
224.35	1843.17
224.57	2029.54
224.78	1978.34
225.00	1900.52
225.22	1966.05
225.44	2013.15
225.66	2029.54
225.88	1937.38
226.10	1992.67
226.32	1982.43
226.53	2113.50
226.75	1929.19
226.97	1933.28
227.19	1984.48
227.41	1884.13
227.63	1943.52
227.85	1843.17
228.06	1896.42
228.28	1949.67
228.50	1966.05
228.72	1933.28
228.94	1894.37
229.16	1773.54
229.37	1937.38
229.59	1871.84
229.81	2031.58
230.03	1955.81
230.25	1908.71
230.47	1873.89
230.69	1906.66
230.90	1988.58
231.12	1959.91
231.34	1970.15
231.56	1998.82
231.78	1863.65
232.00	1902.56
232.21	1845.22
232.43	1925.09
232.65	1818.60
232.87	2002.91
233.09	1884.13
233.30	1867.75
233.52	1970.15
233.74	1920.99
233.96	1941.47
234.18	1929.19
234.40	1943.52
234.61	2039.78
234.83	1857.51
235.05	1845.22
235.27	2220.00
235.49	2070.50
235.70	1949.67
235.92	1980.39
236.14	1982.43
236.36	2121.70
236.58	1853.41
236.79	2017.25
237.01	1914.85
237.23	1970.15
237.45	2047.97
237.67	1931.23
237.88	2004.96
238.10	2086.88
238.32	1841.12
238.54	1970.15
238.76	1961.95
238.97	1896.42
239.19	1931.23
239.41	1927.14
239.63	2017.25
239.85	1834.98
240.06	1959.91
240.28	1994.72
240.50	2023.39
240.72	1996.77
240.93	1890.28
241.15	2004.96
241.37	2041.82
241.59	2037.73
241.81	1875.94
242.02	1982.43
242.24	2054.11
242.46	1994.72
242.68	1898.47
242.89	1896.42
243.11	2025.44
243.33	1959.91
243.55	1941.47
243.76	1980.39
243.98	1894.37
244.20	1949.67
244.42	1849.32
244.64	1939.43
244.85	1898.47
245.07	1894.37
245.29	2007.01
245.51	1980.39
245.72	1968.10
245.94	1990.63
246.16	1986.53
246.38	1996.77
246.59	1900.52
246.81	1904.61
247.03	1869.80
247.24	1841.12
247.46	1912.80
247.68	1984.48
247.90	1888.23
248.11	1978.34
248.33	2004.96
248.55	2019.30
248.77	1990.63
248.98	1959.91
249.20	2107.36
249.42	1935.33
249.64	1912.80
249.85	1849.32
250.07	1857.51
250.29	2029.54
250.50	2064.35
250.72	1789.92
250.94	1994.72
251.16	2168.80
251.37	2004.96
251.59	1982.43
251.81	1953.76
252.02	2002.91
252.24	1894.37
252.46	2066.40
252.68	1906.66
252.89	1896.42
253.11	1941.47
253.33	2023.39
253.54	2144.22
253.76	1820.64
253.98	1951.71
254.20	1951.71
254.41	1896.42
254.63	1920.99
254.85	1841.12
255.06	1837.03
255.28	1998.82
255.50	1943.52
255.71	1925.09
255.93	1847.27
256.15	1970.15
256.36	2013.15
256.58	1845.22
256.80	2000.87
257.02	1939.43
257.23	1976.29
257.45	1961.95
257.67	1994.72
257.88	1886.18
258.10	2025.44
258.32	2013.15
258.53	1980.39
258.75	2043.87
258.97	1994.72
259.18	1920.99
259.40	1992.67
259.62	2099.17
259.83	2097.12
260.05	1947.62
260.27	2273.25
260.48	2060.26
260.70	1894.37
260.92	1949.67
261.13	1871.84
261.35	1980.39
261.57	2033.63
261.78	1834.98
262.00	1822.69
262.22	1935.33
262.43	2033.63
262.65	1923.04
262.86	1939.43
263.08	2150.37
263.30	1947.62
263.51	1826.79
263.73	1875.94
263.95	2019.30
264.16	1914.85
264.38	1888.23
264.60	1980.39
264.81	1880.04
265.03	2078.69
265.25	2115.55
265.46	1865.70
265.68	1996.77
265.89	1970.15
266.11	1837.03
266.33	1949.67
266.54	2015.20
266.76	1931.23
266.98	1966.05
267.19	1982.43
267.41	2045.92
267.62	1914.85
267.84	1746.92
268.06	2039.78
268.27	2009.06
268.49	2058.21
268.70	1951.71
268.92	1970.15
269.14	1884.13
269.35	1898.47
269.57	1941.47
269.79	1892.32
270.00	1884.13
270.22	2054.11
270.43	1859.56
270.65	1877.99
270.87	1925.09
271.08	2080.74
271.30	1966.05
271.51	1882.08
271.73	2041.82
271.95	2009.06
272.16	1927.14
272.38	1943.52
272.59	1904.61
272.81	2035.68
273.02	1957.86
273.24	1931.23
273.46	2021.35
273.67	1845.22
273.89	1890.28
274.10	1898.47
274.32	2093.02
274.54	1947.62
274.75	2025.44
274.97	2033.63
275.18	1980.39
275.40	1982.43
275.61	1931.23
275.83	1957.86
276.05	1871.84
276.26	1875.94
276.48	2007.01
276.69	1945.57
276.91	1920.99
277.12	1998.82
277.34	1996.77
277.55	1986.53
277.77	1902.56
277.99	1912.80
278.20	1912.80
278.42	1759.21
278.63	1933.28
278.85	1861.60
279.06	1892.32
279.28	1939.43
279.49	2090.98
279.71	1980.39
279.93	2002.91
280.14	1949.67
280.36	1892.32
280.57	1961.95
280.79	2013.15
281.00	1865.70
281.22	1892.32
281.43	2025.44
281.65	1814.50
281.86	1875.94
282.08	1972.19
282.29	2109.41
282.51	1935.33
282.73	1894.37
282.94	1851.36
283.16	2086.88
283.37	2025.44
283.59	2041.82
283.80	1933.28
284.02	1986.53
284.23	1988.58
284.45	1933.28
284.66	1839.08
284.88	2029.54
285.09	1910.75
285.31	2045.92
285.52	1927.14
285.74	1904.61
285.95	1945.57
286.17	2011.11
286.38	1957.86
286.60	1949.67
286.81	1861.60
287.03	1837.03
287.24	1978.34
287.46	1980.39
287.67	1953.76
287.89	1992.67
288.10	1974.24
288.32	1902.56
288.53	2009.06
288.75	1966.05
288.96	1980.39
289.18	1884.13
289.39	1953.76
289.61	1978.34
289.82	2109.41
290.04	2131.94
290.25	1871.84
290.47	1974.24
290.68	1990.63
290.90	2039.78
291.11	1824.74
291.33	2007.01
291.54	1877.99
291.76	1867.75
291.97	1920.99
292.18	2011.11
292.40	1961.95
292.61	1898.47
292.83	2103.26
293.04	1951.71
293.26	1945.57
293.47	1888.23
293.69	1882.08
293.90	1859.56
294.12	2000.87
294.33	1984.48
294.55	1937.38
294.76	2015.20
294.97	2080.74
295.19	2074.59
295.40	1951.71
295.62	1970.15
295.83	1984.48
296.05	1902.56
296.26	2050.02
296.48	1937.38
296.69	1945.57
296.90	1923.04
297.12	2058.21
297.33	2007.01
297.55	1939.43
297.76	2004.96
297.98	2002.91
298.19	1986.53
298.41	1986.53
298.62	1964.00
298.83	2060.26
299.05	2011.11
299.26	1937.38
299.48	1927.14
299.69	1996.77
299.90	1972.19
300.12	1875.94
300.33	2011.11
300.55	2007.01
300.76	1949.67
300.98	1941.47
301.19	2027.49
301.40	1873.89
301.62	1937.38
301.83	2035.68
302.05	2011.11
302.26	1996.77
302.47	1925.09
302.69	1853.41
302.90	1992.67
303.12	1816.55
303.33	1978.34
303.54	2115.55
303.76	1925.09
303.97	1961.95
304.19	2170.85
304.40	1900.52
304.61	1933.28
304.83	2136.03
305.04	1964.00
305.26	1953.76
305.47	1941.47
305.68	1996.77
305.90	1851.36
306.11	1992.67
306.33	1877.99
306.54	2000.87
306.75	1873.89
306.97	1830.88
307.18	2007.01
307.39	1880.04
307.61	1992.67
307.82	1937.38
308.04	1935.33
308.25	1910.75
308.46	2060.26
308.68	1988.58
308.89	2007.01
309.10	2035.68
309.32	1937.38
309.53	1939.43
309.74	2052.06
309.96	1964.00
310.17	2021.35
310.39	1884.13
310.60	1994.72
310.81	2054.11
311.03	1845.22
311.24	1996.77
311.45	1927.14
311.67	2123.74
311.88	1908.71
312.09	1902.56
312.31	1914.85
312.52	1894.37
312.73	1943.52
312.95	1820.64
313.16	1869.80
313.37	2043.87
313.59	1990.63
313.80	2035.68
314.01	2052.06
314.23	1968.10
314.44	1875.94
314.65	1814.50
314.87	1857.51
315.08	1931.23
315.29	1900.52
315.51	1814.50
315.72	1857.51
315.93	2095.07
316.15	2043.87
316.36	1902.56
316.57	1992.67
316.79	1968.10
317.00	1884.13
317.21	2101.22
317.43	1896.42
317.64	1953.76
317.85	1869.80
318.07	1908.71
318.28	1939.43
318.49	2123.74
318.70	2248.67
318.92	2150.37
319.13	2168.80
319.34	2183.13
319.56	2070.50
319.77	2121.70
319.98	2164.70
320.20	2084.83
320.41	2043.87
320.62	2000.87
320.83	1951.71
321.05	2228.19
321.26	1988.58
321.47	2007.01
321.69	2015.20
321.90	1902.56
322.11	1906.66
322.32	2041.82
322.54	2095.07
322.75	1957.86
322.96	2154.46
323.18	1857.51
323.39	1861.60
323.60	1906.66
323.81	2037.73
324.03	1877.99
324.24	1964.00
324.45	1916.90
324.66	1898.47
324.88	1957.86
325.09	2058.21
325.30	1976.29
325.52	1974.24
325.73	1976.29
325.94	1904.61
326.15	1849.32
326.37	1869.80
326.58	2060.26
326.79	2033.63
327.00	1886.18
327.22	1904.61
327.43	1892.32
327.64	1896.42
327.85	1853.41
328.07	1939.43
328.28	2113.50
328.49	1845.22
328.70	1990.63
328.92	2015.20
329.13	1908.71
329.34	1918.95
329.55	2033.63
329.76	2017.25
329.98	1945.57
330.19	2101.22
330.40	2007.01
330.61	1923.04
330.83	2029.54
331.04	1943.52
331.25	1982.43
331.46	1931.23
331.68	1886.18
331.89	2131.94
332.10	1986.53
332.31	1832.93
332.52	1894.37
332.74	2084.83
332.95	1859.56
333.16	1945.57
333.37	2062.30
333.58	1943.52
333.80	1978.34
334.01	1796.07
334.22	1925.09
334.43	1837.03
334.64	1914.85
334.86	1923.04
335.07	1941.47
335.28	2021.35
335.49	1798.12
335.70	2015.20
335.92	2033.63
336.13	2076.64
336.34	2027.49
336.55	1988.58
336.76	1964.00
336.98	1841.12
337.19	1959.91
337.40	2086.88
337.61	2131.94
337.82	1925.09
338.04	2013.15
338.25	1880.04
338.46	1996.77
338.67	1955.81
338.88	1888.23
339.09	1841.12
339.31	1925.09
339.52	1906.66
339.73	1914.85
339.94	1939.43
340.15	1994.72
340.36	1947.62
340.58	1961.95
340.79	1853.41
341.00	1990.63
341.21	1918.95
341.42	2039.78
341.63	1906.66
341.85	1910.75
342.06	2035.68
342.27	1904.61
342.48	2023.39
342.69	1853.41
342.90	1976.29
343.12	2025.44
343.33	1961.95
343.54	1994.72
343.75	2043.87
343.96	1902.56
344.17	1873.89
344.38	2050.02
344.60	1832.93
344.81	1898.47
345.02	1974.24
345.23	2076.64
345.44	2103.26
345.65	2000.87
345.86	1994.72
346.07	1982.43
346.29	1904.61
346.50	1978.34
346.71	1970.15
346.92	2019.30
347.13	2146.27
347.34	1982.43
347.55	1943.52
347.76	2023.39
347.98	1900.52
348.19	1976.29
348.40	2009.06
348.61	1886.18
348.82	2060.26
349.03	1910.75
349.24	1931.23
349.45	2072.54
349.66	1824.74
349.88	1906.66
350.09	1916.90
350.30	2088.93
350.51	2023.39
350.72	1986.53
350.93	1947.62
351.14	1884.13
351.35	1957.86
351.56	1986.53
351.77	1953.76
351.99	2015.20
352.20	2074.59
352.41	2072.54
352.62	1798.12
352.83	1925.09
353.04	2009.06
353.25	1964.00
353.46	2129.89
353.67	1994.72
353.88	1751.01
354.09	2000.87
354.30	1904.61
354.52	2017.25
354.73	1937.38
354.94	1892.32
355.15	1920.99
355.36	2050.02
355.57	1880.04
355.78	1998.82
355.99	1884.13
356.20	1939.43
356.41	2045.92
356.62	1986.53
356.83	1937.38
357.04	2084.83
357.25	1841.12
357.46	1898.47
357.68	1859.56
357.89	1955.81
358.10	1994.72
358.31	1939.43
358.52	1968.10
358.73	1855.46
358.94	1908.71
359.15	1902.56
359.36	2047.97
359.57	2007.01
359.78	1914.85
359.99	1955.81
360.20	1804.26
360.41	1916.90
360.62	2011.11
360.83	1984.48
361.04	1988.58
361.25	1988.58
361.46	2113.50
361.67	1986.53
361.88	2050.02
362.09	2072.54
362.30	1982.43
362.51	1937.38
362.72	2023.39
362.93	2015.20
363.14	1955.81
363.35	1957.86
363.56	1902.56
363.78	2084.83
363.99	2056.16
364.20	1867.75
364.41	1943.52
364.62	2056.16
364.83	1918.95
365.04	1970.15
365.25	1939.43
365.46	2189.28
365.67	1925.09
365.88	1904.61
366.09	1927.14
366.30	1966.05
366.51	1986.53
366.72	1920.99
366.93	1961.95
367.14	2002.91
367.35	2054.11
367.56	1937.38
367.77	2045.92
367.98	1972.19
368.18	1959.91
368.39	1943.52
368.60	1898.47
368.81	2033.63
369.02	1904.61
369.23	1988.58
369.44	1849.32
369.65	1929.19
369.86	1986.53
370.07	2009.06
370.28	1867.75
370.49	2037.73
370.70	2033.63
370.91	1845.22
371.12	1927.14
371.33	2056.16
371.54	1777.64
371.75	2117.60
371.96	1791.97
372.17	1992.67
372.38	1964.00
372.59	1959.91
372.80	1945.57
373.01	1970.15
373.22	2039.78
373.43	2027.49
373.64	1859.56
373.85	2021.35
374.06	2093.02
374.26	2037.73
374.47	1968.10
374.68	2074.59
374.89	2023.39
375.10	1957.86
375.31	1986.53
375.52	1949.67
375.73	2002.91
375.94	1873.89
376.15	2074.59
376.36	1869.80
376.57	1974.24
376.78	1861.60
376.99	1894.37
377.20	2045.92
377.40	1908.71
377.61	2162.66
377.82	1875.94
378.03	2058.21
378.24	2037.73
378.45	1929.19
378.66	1996.77
378.87	1857.51
379.08	1906.66
379.29	1970.15
379.50	2080.74
379.71	1992.67
379.91	2064.35
380.12	1912.80
380.33	1937.38
380.54	1882.08
380.75	1949.67
380.96	1972.19
381.17	1996.77
381.38	2054.11
381.59	2033.63
381.80	1972.19
382.00	2232.29
382.21	2019.30
382.42	2146.27
382.63	2226.14
382.84	1988.58
383.05	2103.26
383.26	2140.13
383.47	1966.05
383.68	2052.06
383.88	1998.82
384.09	2013.15
384.30	2156.51
384.51	2019.30
384.72	1972.19
384.93	1961.95
385.14	1935.33
385.35	1961.95
385.55	1937.38
385.76	2037.73
385.97	1931.23
386.18	1843.17
386.39	1927.14
386.60	1863.65
386.81	1925.09
387.02	1902.56
387.22	1849.32
387.43	2021.35
387.64	1990.63
387.85	2179.04
388.06	2207.71
388.27	4046.79
388.48	8732.54
388.68	12085.06
388.89	14485.28
389.10	15775.50
389.31	14587.68
389.52	11138.90
389.73	9631.60
389.93	8853.37
390.14	7894.92
390.35	7272.34
390.56	6590.36
390.77	5377.97
390.98	4046.79
391.18	3229.65
391.39	2566.10
391.60	2187.23
391.81	2121.70
392.02	1986.53
392.23	2154.46
392.43	2017.25
392.64	2119.65
392.85	2013.15
393.06	2127.84
393.27	1931.23
393.47	1908.71
393.68	1947.62
393.89	1880.04
394.10	2002.91
394.31	1882.08
394.52	1957.86
394.72	1873.89
394.93	2054.11
395.14	1898.47
395.35	1972.19
395.56	1896.42
395.76	1947.62
395.97	2009.06
396.18	2140.13
396.39	2097.12
396.60	2412.51
396.80	2244.57
397.01	2133.98
397.22	2090.98
397.43	2185.18
397.64	2070.50
397.84	2103.26
398.05	2228.19
398.26	2043.87
398.47	2082.78
398.67	1980.39
398.88	2017.25
399.09	2007.01
399.30	1978.34
399.51	1972.19
399.71	1966.05
399.92	1957.86
400.13	2031.58
400.34	2011.11
400.54	2074.59
400.75	2047.97
400.96	1996.77
401.17	2103.26
401.37	2013.15
401.58	1980.39
401.79	1925.09
402.00	2107.36
402.21	2363.36
402.41	2363.36
402.62	2441.18
402.83	2519.00
403.04	2443.23
403.24	2482.14
403.45	2199.52
403.66	2160.61
403.87	2187.23
404.07	2252.77
404.28	2232.29
404.49	2158.56
404.70	2050.02
404.90	1972.19
405.11	1976.29
405.32	1976.29
405.52	1935.33
405.73	1929.19
405.94	1945.57
406.15	1920.99
406.35	1982.43
406.56	2039.78
406.77	2029.54
406.98	1970.15
407.18	1865.70
407.39	2090.98
407.60	1966.05
407.80	2027.49
408.01	1873.89
408.22	2017.25
408.43	1916.90
408.63	1968.10
408.84	1980.39
409.05	2060.26
409.25	1882.08
409.46	1861.60
409.67	1953.76
409.88	1894.37
410.08	1990.63
410.29	1933.28
410.50	1974.24
410.70	1992.67
410.91	1882.08
411.12	1951.71
411.32	1968.10
411.53	1902.56
411.74	2066.40
411.95	2072.54
412.15	2007.01
412.36	2205.66
412.57	2035.68
412.77	2191.33
412.98	1998.82
413.19	1916.90
413.39	2002.91
413.60	1955.81
413.81	2097.12
414.01	2004.96
414.22	1986.53
414.43	2002.91
414.63	1984.48
414.84	2064.35
415.05	1998.82
415.25	1880.04
415.46	2023.39
415.67	1918.95
415.87	1949.67
416.08	1959.91
416.29	2011.11
416.49	1980.39
416.70	1990.63
416.91	1957.86
417.11	1943.52
417.32	1986.53
417.53	2027.49
417.73	2068.45
417.94	2007.01
418.15	2097.12
418.35	1978.34
418.56	1918.95
418.77	2144.22
418.97	2002.91
419.18	2045.92
419.38	1773.54
419.59	1968.10
419.80	2064.35
420.00	2004.96
420.21	1896.42
420.42	2072.54
420.62	1990.63
420.83	1914.85
421.04	1964.00
421.24	2027.49
421.45	2011.11
421.65	2025.44
421.86	1939.43
422.07	1992.67
422.27	1966.05
422.48	1976.29
422.69	1916.90
422.89	1978.34
423.10	1961.95
423.30	1867.75
423.51	1951.71
423.72	2011.11
423.92	2002.91
424.13	1845.22
424.33	1949.67
424.54	2013.15
424.75	1925.09
424.95	2090.98
425.16	2029.54
425.36	1945.57
425.57	2033.63
425.78	1941.47
425.98	1986.53
426.19	1927.14
426.39	1849.32
426.60	2017.25
426.81	2031.58
427.01	2029.54
427.22	1912.80
427.42	1861.60
427.63	1808.36
427.83	2043.87
428.04	2111.46
428.25	2007.01
428.45	2066.40
428.66	1984.48
428.86	1949.67
429.07	1916.90
429.28	1945.57
429.48	1931.23
429.69	1832.93
429.89	1986.53
430.10	1839.08
430.30	1955.81
430.51	2090.98
430.71	1939.43
430.92	1961.95
431.13	1951.71
431.33	2004.96
431.54	2045.92
431.74	2072.54
431.95	2166.75
432.15	1857.51
432.36	1953.76
432.56	2021.35
432.77	2125.79
432.98	2111.46
433.18	1986.53
433.39	1964.00
433.59	1978.34
433.80	2039.78
434.00	2103.26
434.21	1869.80
434.41	1855.46
434.62	2136.03
434.82	1853.41
435.03	1820.64
435.23	1980.39
435.44	1871.84
435.64	1996.77
435.85	1933.28
436.06	1982.43
436.26	2031.58
436.47	2023.39
436.67	1927.14
436.88	1964.00
437.08	2031.58
437.29	2066.40
437.49	2041.82
437.70	2023.39
437.90	1996.77
438.11	2187.23
438.31	2146.27
438.52	2174.94
438.72	2187.23
438.93	2240.48
439.13	2123.74
439.34	2066.40
439.54	2015.20
439.75	2078.69
439.95	2050.02
440.16	2004.96
440.36	2080.74
440.57	2107.36
440.77	1923.04
440.98	1966.05
441.18	1994.72
441.39	1947.62
441.59	1886.18
441.80	2082.78
442.00	2060.26
442.21	2054.11
442.41	1959.91
442.62	2041.82
442.82	1896.42
443.02	1945.57
443.23	2013.15
443.43	1990.63
443.64	2125.79
443.84	1961.95
444.05	2125.79
444.25	2066.40
444.46	1964.00
444.66	1982.43
444.87	2086.88
445.07	1923.04
445.28	1966.05
445.48	2105.31
445.69	2058.21
445.89	2162.66
446.09	2007.01
446.30	2228.19
446.50	2508.76
446.71	4130.75
446.91	5234.61
447.12	6201.25
447.32	6649.75
447.53	5992.36
447.73	5017.52
447.93	4345.79
448.14	4030.40
448.34	3823.56
448.55	3385.29
448.75	3387.34
448.96	3172.30
449.16	2840.53
449.36	2598.87
449.57	2322.40
449.77	2183.13
449.98	1929.19
450.18	2086.88
450.39	2027.49
450.59	2031.58
450.79	1968.10
451.00	1902.56
451.20	1992.67
451.41	2054.11
451.61	1982.43
451.81	1992.67
452.02	2060.26
452.22	1968.10
452.43	1964.00
452.63	1978.34
