SpectraSuite Data File
++++++++++++++++++++++++++++++++++++
Date: Wed May 04 22:45:27 CEST 2016
User: root
Dark Spectrum Present: No
Reference Spectrum Present: No
Number of Sampled Component Spectra: 1
Spectrometers: USB4C02835
Integration Time (usec): 100000 (USB4C02835)
Spectra Averaged: 1 (USB4C02835)
Boxcar Smoothing: 0 (USB4C02835)
Correct for Electrical Dark: No (USB4C02835)
Strobe/Lamp Enabled: No (USB4C02835)
Correct for Detector Non-linearity: No (USB4C02835)
Correct for Stray Light: No (USB4C02835)
Number of Pixels in Processed Spectrum: 3648
>>>>>Begin Processed Spectral Data<<<<<
177.47	1581.03
177.69	1581.03
177.91	1581.03
178.13	1605.61
178.36	1619.94
178.58	1955.81
178.80	2025.44
179.02	1880.04
179.24	1888.23
179.46	1949.67
179.68	1959.91
179.90	1867.75
180.13	1978.34
180.35	1888.23
180.57	1984.48
180.79	2062.30
181.01	1964.00
181.23	1941.47
181.45	2043.87
181.67	2009.06
181.90	2025.44
182.12	1914.85
182.34	1814.50
182.56	1970.15
182.78	1980.39
183.00	1996.77
183.22	1947.62
183.44	1814.50
183.66	2158.56
183.89	2074.59
184.11	1947.62
184.33	2054.11
184.55	2090.98
184.77	1953.76
184.99	1945.57
185.21	1896.42
185.43	2158.56
185.65	1847.27
185.87	1949.67
186.10	2066.40
186.32	2142.18
186.54	1982.43
186.76	1943.52
186.98	2050.02
187.20	2004.96
187.42	1953.76
187.64	1912.80
187.86	1931.23
188.08	2000.87
188.30	1888.23
188.52	1920.99
188.75	2013.15
188.97	2072.54
189.19	1966.05
189.41	1984.48
189.63	2011.11
189.85	1947.62
190.07	1865.70
190.29	1873.89
190.51	1992.67
190.73	1847.27
190.95	2080.74
191.17	1920.99
191.39	1894.37
191.61	1904.61
191.84	1970.15
192.06	1957.86
192.28	1724.39
192.50	2211.81
192.72	1988.58
192.94	2027.49
193.16	1931.23
193.38	1920.99
193.60	1746.92
193.82	1882.08
194.04	2023.39
194.26	1939.43
194.48	1996.77
194.70	1894.37
194.92	1890.28
195.14	2009.06
195.36	1918.95
195.58	1990.63
195.80	1951.71
196.02	1906.66
196.24	1951.71
196.46	1935.33
196.69	1884.13
196.91	2164.70
197.13	1982.43
197.35	1904.61
197.57	2062.30
197.79	2019.30
198.01	1923.04
198.23	1972.19
198.45	2054.11
198.67	1896.42
198.89	1937.38
199.11	1955.81
199.33	1863.65
199.55	1798.12
199.77	1888.23
199.99	2023.39
200.21	1959.91
200.43	2009.06
200.65	1884.13
200.87	1808.36
201.09	2000.87
201.31	1931.23
201.53	1992.67
201.75	1986.53
201.97	2011.11
202.19	1941.47
202.41	1935.33
202.63	2111.46
202.85	2023.39
203.07	1980.39
203.29	1925.09
203.51	1970.15
203.73	1964.00
203.95	2224.09
204.17	1910.75
204.39	2031.58
204.61	1929.19
204.83	1861.60
205.05	2070.50
205.27	1968.10
205.49	2115.55
205.71	1920.99
205.93	1902.56
206.15	1843.17
206.37	1998.82
206.59	1931.23
206.81	1865.70
207.03	1900.52
207.25	1933.28
207.47	2009.06
207.69	1826.79
207.91	2033.63
208.13	2054.11
208.34	1941.47
208.56	1849.32
208.78	1992.67
209.00	1908.71
209.22	1920.99
209.44	1970.15
209.66	1894.37
209.88	1914.85
210.10	1900.52
210.32	1937.38
210.54	2058.21
210.76	1890.28
210.98	2058.21
211.20	1775.59
211.42	1920.99
211.64	2033.63
211.86	1959.91
212.08	2009.06
212.30	1972.19
212.52	1918.95
212.74	2062.30
212.96	1959.91
213.17	1980.39
213.39	1980.39
213.61	2127.84
213.83	1888.23
214.05	1892.32
214.27	2004.96
214.49	1927.14
214.71	1824.74
214.93	2054.11
215.15	1961.95
215.37	2027.49
215.59	1906.66
215.81	1943.52
216.03	2117.60
216.24	1908.71
216.46	1906.66
216.68	1972.19
216.90	1998.82
217.12	2060.26
217.34	1916.90
217.56	1955.81
217.78	1943.52
218.00	1976.29
218.22	2041.82
218.44	1939.43
218.66	1978.34
218.87	2019.30
219.09	1894.37
219.31	1974.24
219.53	1849.32
219.75	1970.15
219.97	1970.15
220.19	1949.67
220.41	1902.56
220.63	2088.93
220.85	1877.99
221.06	1941.47
221.28	2062.30
221.50	2090.98
221.72	2041.82
221.94	1912.80
222.16	2013.15
222.38	2037.73
222.60	1912.80
222.82	1976.29
223.03	2021.35
223.25	1882.08
223.47	1955.81
223.69	2045.92
223.91	2041.82
224.13	1949.67
224.35	1896.42
224.57	2072.54
224.78	1988.58
225.00	1957.86
225.22	2000.87
225.44	2025.44
225.66	2068.45
225.88	1888.23
226.10	2023.39
226.32	1888.23
226.53	2011.11
226.75	1937.38
226.97	1951.71
227.19	1933.28
227.41	1892.32
227.63	1906.66
227.85	1828.84
228.06	1855.46
228.28	1970.15
228.50	2017.25
228.72	1873.89
228.94	1906.66
229.16	1865.70
229.37	1875.94
229.59	1841.12
229.81	2052.06
230.03	1920.99
230.25	1923.04
230.47	1964.00
230.69	1865.70
230.90	2076.64
231.12	1877.99
231.34	1972.19
231.56	2072.54
231.78	1896.42
232.00	1894.37
232.21	1935.33
232.43	1935.33
232.65	1822.69
232.87	1994.72
233.09	1832.93
233.30	1896.42
233.52	2011.11
233.74	1937.38
233.96	1978.34
234.18	1974.24
234.40	1933.28
234.61	2099.17
234.83	1806.31
235.05	1857.51
235.27	2164.70
235.49	2093.02
235.70	1851.36
235.92	2029.54
236.14	2015.20
236.36	2107.36
236.58	1875.94
236.79	1978.34
237.01	1961.95
237.23	1933.28
237.45	2039.78
237.67	1882.08
237.88	1978.34
238.10	2113.50
238.32	1855.46
238.54	1908.71
238.76	1902.56
238.97	1896.42
239.19	1857.51
239.41	1949.67
239.63	2000.87
239.85	1902.56
240.06	1982.43
240.28	1927.14
240.50	2025.44
240.72	2011.11
240.93	1853.41
241.15	1990.63
241.37	1957.86
241.59	2080.74
241.81	1923.04
242.02	1894.37
242.24	1996.77
242.46	2052.06
242.68	1837.03
242.89	1935.33
243.11	1927.14
243.33	2015.20
243.55	1923.04
243.76	1951.71
243.98	1943.52
244.20	1990.63
244.42	2004.96
244.64	2004.96
244.85	1859.56
245.07	1900.52
245.29	2047.97
245.51	1949.67
245.72	1978.34
245.94	2045.92
246.16	1941.47
246.38	1957.86
246.59	1961.95
246.81	1929.19
247.03	1927.14
247.24	1839.08
247.46	1867.75
247.68	2017.25
247.90	1843.17
248.11	1937.38
248.33	2004.96
248.55	1920.99
248.77	2033.63
248.98	1845.22
249.20	2047.97
249.42	1964.00
249.64	1990.63
249.85	1908.71
250.07	1953.76
250.29	2013.15
250.50	1980.39
250.72	1902.56
250.94	2013.15
251.16	2107.36
251.37	2011.11
251.59	1908.71
251.81	1968.10
252.02	2004.96
252.24	1877.99
252.46	1982.43
252.68	1945.57
252.89	1902.56
253.11	1775.59
253.33	2037.73
253.54	1996.77
253.76	1859.56
253.98	1957.86
254.20	1888.23
254.41	1871.84
254.63	1925.09
254.85	1890.28
255.06	1886.18
255.28	2013.15
255.50	1912.80
255.71	1886.18
255.93	1828.84
256.15	1966.05
256.36	1949.67
256.58	1830.88
256.80	1933.28
257.02	1937.38
257.23	1941.47
257.45	1959.91
257.67	2050.02
257.88	1908.71
258.10	1945.57
258.32	1935.33
258.53	2002.91
258.75	2056.16
258.97	1955.81
259.18	1898.47
259.40	1847.27
259.62	2109.41
259.83	2031.58
260.05	1931.23
260.27	2265.05
260.48	2009.06
260.70	1910.75
260.92	1968.10
261.13	1949.67
261.35	1984.48
261.57	1937.38
261.78	1892.32
262.00	1877.99
262.22	1974.24
262.43	1972.19
262.65	1841.12
262.86	1867.75
263.08	2142.18
263.30	1894.37
263.51	1820.64
263.73	1902.56
263.95	2078.69
264.16	1945.57
264.38	1925.09
264.60	1970.15
264.81	1896.42
265.03	1943.52
265.25	2031.58
265.46	1945.57
265.68	2011.11
265.89	1984.48
266.11	1853.41
266.33	2027.49
266.54	2000.87
266.76	1968.10
266.98	1970.15
267.19	2019.30
267.41	2017.25
267.62	1910.75
267.84	1777.64
268.06	1992.67
268.27	1974.24
268.49	1998.82
268.70	2029.54
268.92	1966.05
269.14	1918.95
269.35	1855.46
269.57	1892.32
269.79	1908.71
270.00	1943.52
270.22	2189.28
270.43	1855.46
270.65	1849.32
270.87	1966.05
271.08	2023.39
271.30	1996.77
271.51	1949.67
271.73	2007.01
271.95	2062.30
272.16	1966.05
272.38	1945.57
272.59	1939.43
272.81	2041.82
273.02	1914.85
273.24	1951.71
273.46	1998.82
273.67	1843.17
273.89	1939.43
274.10	1884.13
274.32	2080.74
274.54	1970.15
274.75	1941.47
274.97	1902.56
275.18	1986.53
275.40	1941.47
275.61	1931.23
275.83	1986.53
276.05	1931.23
276.26	1898.47
276.48	1964.00
276.69	1912.80
276.91	1898.47
277.12	2047.97
277.34	1968.10
277.55	2035.68
277.77	1953.76
277.99	1865.70
278.20	1871.84
278.42	1877.99
278.63	1851.36
278.85	1927.14
279.06	1892.32
279.28	2007.01
279.49	2004.96
279.71	1974.24
279.93	1949.67
280.14	1906.66
280.36	1933.28
280.57	2099.17
280.79	2002.91
281.00	1904.61
281.22	1882.08
281.43	2043.87
281.65	1808.36
281.86	1830.88
282.08	2054.11
282.29	2086.88
282.51	1923.04
282.73	1865.70
282.94	1875.94
283.16	1978.34
283.37	2058.21
283.59	2033.63
283.80	1994.72
284.02	1953.76
284.23	2002.91
284.45	1877.99
284.66	1871.84
284.88	1931.23
285.09	1945.57
285.31	2002.91
285.52	2035.68
285.74	1834.98
285.95	2047.97
286.17	2000.87
286.38	2076.64
286.60	1959.91
286.81	1875.94
287.03	1943.52
287.24	2004.96
287.46	2019.30
287.67	1974.24
287.89	2045.92
288.10	1947.62
288.32	1920.99
288.53	2072.54
288.75	1896.42
288.96	1927.14
289.18	1980.39
289.39	1964.00
289.61	1976.29
289.82	2066.40
290.04	2103.26
290.25	1798.12
290.47	1912.80
290.68	1941.47
290.90	2043.87
291.11	1865.70
291.33	2047.97
291.54	1826.79
291.76	1910.75
291.97	1992.67
292.18	1988.58
292.40	1947.62
292.61	1941.47
292.83	2142.18
293.04	1996.77
293.26	1957.86
293.47	1920.99
293.69	1978.34
293.90	1984.48
294.12	2050.02
294.33	1925.09
294.55	1959.91
294.76	2007.01
294.97	2066.40
295.19	2078.69
295.40	1908.71
295.62	2084.83
295.83	2023.39
296.05	1884.13
296.26	2093.02
296.48	1896.42
296.69	1892.32
296.90	1955.81
297.12	2002.91
297.33	2072.54
297.55	2023.39
297.76	2002.91
297.98	2047.97
298.19	1968.10
298.41	1943.52
298.62	1931.23
298.83	2072.54
299.05	1953.76
299.26	1888.23
299.48	1877.99
299.69	1937.38
299.90	1980.39
300.12	1912.80
300.33	2047.97
300.55	1941.47
300.76	2027.49
300.98	1912.80
301.19	2017.25
301.40	1951.71
301.62	1966.05
301.83	1990.63
302.05	1918.95
302.26	1937.38
302.47	1970.15
302.69	1877.99
302.90	2050.02
303.12	1892.32
303.33	2009.06
303.54	2070.50
303.76	1918.95
303.97	1980.39
304.19	2070.50
304.40	1867.75
304.61	2011.11
304.83	2142.18
305.04	2068.45
305.26	1951.71
305.47	1898.47
305.68	1957.86
305.90	1863.65
306.11	2000.87
306.33	1945.57
306.54	1968.10
306.75	1929.19
306.97	1837.03
307.18	1941.47
307.39	1865.70
307.61	2088.93
307.82	1945.57
308.04	2004.96
308.25	1808.36
308.46	2054.11
308.68	1970.15
308.89	2002.91
309.10	2113.50
309.32	1955.81
309.53	1986.53
309.74	1970.15
309.96	2007.01
310.17	2054.11
310.39	1918.95
310.60	2043.87
310.81	2002.91
311.03	1937.38
311.24	2043.87
311.45	2017.25
311.67	2080.74
311.88	2031.58
312.09	1964.00
312.31	1894.37
312.52	1908.71
312.73	1949.67
312.95	1900.52
313.16	1937.38
313.37	1984.48
313.59	1976.29
313.80	2050.02
314.01	2035.68
314.23	1890.28
314.44	1849.32
314.65	1925.09
314.87	1937.38
315.08	1927.14
315.29	1898.47
315.51	1945.57
315.72	1918.95
315.93	2066.40
316.15	1978.34
316.36	1914.85
316.57	1959.91
316.79	1998.82
317.00	1941.47
317.21	2041.82
317.43	1906.66
317.64	1943.52
317.85	1941.47
318.07	1888.23
318.28	1992.67
318.49	2115.55
318.70	2211.81
318.92	2238.43
319.13	2156.51
319.34	2222.05
319.56	2072.54
319.77	2148.32
319.98	2066.40
320.20	2105.31
320.41	1976.29
320.62	2058.21
320.83	1953.76
321.05	2138.08
321.26	2004.96
321.47	1968.10
321.69	1957.86
321.90	1800.16
322.11	1941.47
322.32	1998.82
322.54	1986.53
322.75	1916.90
322.96	2088.93
323.18	1875.94
323.39	1830.88
323.60	1882.08
323.81	2045.92
324.03	1902.56
324.24	1990.63
324.45	1976.29
324.66	1853.41
324.88	2015.20
325.09	2088.93
325.30	1964.00
325.52	1994.72
325.73	2082.78
325.94	1818.60
326.15	1773.54
326.37	1949.67
326.58	2015.20
326.79	2101.22
327.00	1884.13
327.22	1984.48
327.43	1892.32
327.64	1800.16
327.85	2007.01
328.07	1875.94
328.28	2072.54
328.49	1906.66
328.70	1920.99
328.92	1937.38
329.13	1951.71
329.34	1933.28
329.55	2052.06
329.76	2027.49
329.98	1951.71
330.19	2033.63
330.40	1927.14
330.61	1935.33
330.83	1923.04
331.04	1920.99
331.25	1992.67
331.46	1959.91
331.68	1933.28
331.89	2066.40
332.10	2041.82
332.31	1902.56
332.52	1964.00
332.74	2103.26
332.95	1832.93
333.16	1966.05
333.37	2045.92
333.58	1941.47
333.80	2019.30
334.01	1787.88
334.22	1953.76
334.43	1910.75
334.64	1810.40
334.86	1957.86
335.07	1972.19
335.28	2076.64
335.49	1890.28
335.70	2000.87
335.92	2017.25
336.13	2115.55
336.34	2043.87
336.55	1939.43
336.76	1900.52
336.98	1925.09
337.19	1918.95
337.40	2074.59
337.61	2115.55
337.82	1953.76
338.04	2011.11
338.25	1867.75
338.46	1914.85
338.67	1968.10
338.88	1757.16
339.09	1904.61
339.31	1947.62
339.52	1837.03
339.73	1890.28
339.94	1984.48
340.15	2054.11
340.36	1871.84
340.58	1959.91
340.79	1918.95
341.00	1974.24
341.21	1890.28
341.42	2080.74
341.63	1964.00
341.85	1972.19
342.06	2002.91
342.27	1884.13
342.48	1976.29
342.69	1884.13
342.90	1994.72
343.12	2002.91
343.33	1939.43
343.54	2007.01
343.75	2068.45
343.96	1980.39
344.17	1853.41
344.38	1890.28
344.60	1841.12
344.81	1853.41
345.02	1996.77
345.23	2054.11
345.44	2152.42
345.65	2050.02
345.86	1947.62
346.07	1955.81
346.29	1929.19
346.50	1972.19
346.71	2019.30
346.92	2023.39
347.13	2031.58
347.34	1990.63
347.55	1976.29
347.76	2054.11
347.98	1865.70
348.19	1986.53
348.40	2029.54
348.61	1966.05
348.82	2072.54
349.03	2004.96
349.24	1957.86
349.45	2029.54
349.66	1818.60
349.88	1918.95
350.09	1882.08
350.30	2050.02
350.51	2127.84
350.72	1990.63
350.93	1949.67
351.14	1937.38
351.35	2007.01
351.56	1953.76
351.77	1990.63
351.99	1957.86
352.20	2115.55
352.41	2072.54
352.62	1832.93
352.83	2045.92
353.04	1976.29
353.25	1945.57
353.46	1959.91
353.67	2041.82
353.88	1789.92
354.09	1939.43
354.30	1920.99
354.52	1988.58
354.73	1904.61
354.94	1869.80
355.15	1871.84
355.36	2013.15
355.57	1837.03
355.78	1957.86
355.99	1920.99
356.20	1943.52
356.41	1980.39
356.62	1994.72
356.83	2035.68
357.04	2105.31
357.25	1798.12
357.46	1916.90
357.68	1798.12
357.89	1972.19
358.10	2041.82
358.31	1959.91
358.52	1951.71
358.73	1964.00
358.94	1886.18
359.15	1957.86
359.36	2007.01
359.57	2019.30
359.78	1947.62
359.99	1986.53
360.20	1912.80
360.41	1918.95
360.62	2033.63
360.83	2023.39
361.04	1925.09
361.25	1939.43
361.46	2119.65
361.67	2072.54
361.88	1931.23
362.09	2093.02
362.30	1976.29
362.51	1859.56
362.72	1898.47
362.93	2131.94
363.14	1976.29
363.35	1996.77
363.56	1871.84
363.78	2000.87
363.99	2000.87
364.20	1908.71
364.41	1990.63
364.62	2131.94
364.83	1953.76
365.04	1933.28
365.25	1927.14
365.46	2084.83
365.67	1912.80
365.88	1935.33
366.09	1923.04
366.30	1855.46
366.51	1957.86
366.72	1914.85
366.93	2023.39
367.14	1957.86
367.35	2090.98
367.56	1974.24
367.77	2064.35
367.98	1988.58
368.18	1996.77
368.39	1916.90
368.60	1910.75
368.81	1988.58
369.02	1937.38
369.23	1920.99
369.44	1828.84
369.65	1968.10
369.86	2056.16
370.07	1964.00
370.28	1931.23
370.49	2015.20
370.70	2009.06
370.91	1970.15
371.12	1884.13
371.33	2072.54
371.54	1961.95
371.75	2070.50
371.96	1802.21
372.17	1968.10
372.38	2019.30
372.59	2029.54
372.80	1892.32
373.01	2017.25
373.22	1966.05
373.43	1984.48
373.64	1789.92
373.85	2099.17
374.06	2105.31
374.26	2045.92
374.47	1959.91
374.68	2113.50
374.89	1992.67
375.10	1910.75
375.31	2041.82
375.52	1951.71
375.73	1925.09
375.94	1912.80
376.15	2090.98
376.36	1914.85
376.57	1947.62
376.78	1892.32
376.99	2045.92
377.20	1976.29
377.40	2004.96
377.61	2107.36
377.82	1923.04
378.03	2054.11
378.24	2060.26
378.45	1904.61
378.66	1984.48
378.87	1865.70
379.08	1875.94
379.29	1886.18
379.50	2136.03
379.71	1912.80
379.91	2017.25
380.12	1992.67
380.33	1947.62
380.54	1943.52
380.75	1980.39
380.96	1933.28
381.17	1994.72
381.38	2019.30
381.59	1996.77
381.80	2035.68
382.00	2183.13
382.21	2088.93
382.42	2133.98
382.63	2162.66
382.84	2011.11
383.05	2007.01
383.26	2088.93
383.47	1951.71
383.68	1982.43
383.88	1998.82
384.09	1994.72
384.30	2111.46
384.51	1964.00
384.72	1927.14
384.93	1884.13
385.14	1914.85
385.35	2119.65
385.55	1853.41
385.76	1998.82
385.97	1959.91
386.18	1834.98
386.39	1869.80
386.60	1900.52
386.81	1978.34
387.02	1941.47
387.22	1918.95
387.43	2013.15
387.64	1992.67
387.85	2107.36
388.06	2310.11
388.27	4032.45
388.48	8462.21
388.68	12042.06
388.89	14268.20
389.10	15531.80
389.31	14133.03
389.52	10948.44
389.73	9592.69
389.93	8621.95
390.14	8038.28
390.35	7192.47
390.56	6553.50
390.77	5283.76
390.98	4091.84
391.18	3153.87
391.39	2590.68
391.60	2148.32
391.81	2121.70
392.02	1929.19
392.23	2187.23
392.43	2011.11
392.64	2072.54
392.85	1988.58
393.06	2107.36
393.27	1966.05
393.47	1920.99
393.68	1951.71
393.89	1943.52
394.10	2058.21
394.31	1906.66
394.52	1941.47
394.72	1925.09
394.93	1996.77
395.14	1904.61
395.35	1970.15
395.56	1847.27
395.76	1925.09
395.97	2011.11
396.18	2133.98
396.39	2101.22
396.60	2424.80
396.80	2254.81
397.01	2201.57
397.22	2230.24
397.43	2052.06
397.64	1968.10
397.84	2095.07
398.05	2232.29
398.26	2041.82
398.47	2131.94
398.67	2131.94
398.88	2033.63
399.09	1970.15
399.30	1970.15
399.51	1939.43
399.71	1824.74
399.92	1974.24
400.13	2050.02
400.34	1964.00
400.54	2009.06
400.75	2062.30
400.96	1982.43
401.17	2101.22
401.37	1990.63
401.58	1890.28
401.79	1939.43
402.00	2117.60
402.21	2344.92
402.41	2383.84
402.62	2303.96
402.83	2447.32
403.04	2365.40
403.24	2496.47
403.45	2146.27
403.66	2222.05
403.87	2146.27
404.07	2213.85
404.28	2252.77
404.49	2197.47
404.70	2039.78
404.90	2127.84
405.11	2000.87
405.32	1978.34
405.52	1955.81
405.73	1927.14
405.94	1843.17
406.15	1884.13
406.35	1998.82
406.56	2007.01
406.77	1947.62
406.98	1982.43
407.18	1923.04
407.39	2123.74
407.60	1972.19
407.80	1955.81
408.01	1925.09
408.22	2047.97
408.43	1927.14
408.63	2011.11
408.84	2009.06
409.05	2052.06
409.25	1824.74
409.46	1904.61
409.67	1914.85
409.88	1972.19
410.08	1951.71
410.29	1970.15
410.50	2019.30
410.70	2019.30
410.91	1914.85
411.12	2000.87
411.32	2007.01
411.53	1970.15
411.74	2080.74
411.95	2062.30
412.15	2082.78
412.36	2117.60
412.57	2166.75
412.77	2070.50
412.98	1992.67
413.19	2015.20
413.39	2025.44
413.60	2023.39
413.81	2041.82
414.01	1968.10
414.22	2058.21
414.43	2043.87
414.63	1961.95
414.84	2062.30
415.05	1920.99
415.25	1853.41
415.46	2035.68
415.67	1931.23
415.87	1986.53
416.08	1959.91
416.29	2007.01
416.49	2019.30
416.70	2027.49
416.91	1923.04
417.11	1871.84
417.32	2033.63
417.53	2074.59
417.73	1964.00
417.94	1939.43
418.15	2072.54
418.35	1951.71
418.56	2033.63
418.77	2174.94
418.97	1959.91
419.18	2017.25
419.38	1845.22
419.59	1978.34
419.80	1982.43
420.00	1873.89
420.21	1929.19
420.42	1982.43
420.62	2027.49
420.83	1916.90
421.04	1955.81
421.24	1953.76
421.45	1992.67
421.65	2017.25
421.86	1927.14
422.07	2031.58
422.27	2002.91
422.48	1986.53
422.69	1861.60
422.89	1935.33
423.10	1933.28
423.30	1939.43
423.51	1972.19
423.72	1982.43
423.92	2111.46
424.13	1882.08
424.33	2047.97
424.54	1996.77
424.75	2004.96
424.95	2023.39
425.16	2019.30
425.36	1994.72
425.57	2060.26
425.78	2043.87
425.98	2084.83
426.19	1929.19
426.39	1882.08
426.60	2023.39
426.81	2070.50
427.01	1959.91
427.22	1918.95
427.42	1820.64
427.63	1982.43
427.83	2023.39
428.04	2095.07
428.25	2013.15
428.45	2127.84
428.66	1970.15
428.86	2000.87
429.07	1929.19
429.28	1996.77
429.48	1982.43
429.69	1986.53
429.89	2031.58
430.10	1888.23
430.30	1974.24
430.51	2025.44
430.71	1986.53
430.92	1920.99
431.13	1959.91
431.33	2041.82
431.54	2039.78
431.74	2088.93
431.95	2174.94
432.15	1875.94
432.36	1980.39
432.56	2035.68
432.77	2097.12
432.98	2123.74
433.18	1955.81
433.39	2002.91
433.59	1925.09
433.80	2097.12
434.00	2136.03
434.21	1964.00
434.41	1933.28
434.62	2144.22
434.82	1869.80
435.03	1857.51
435.23	2011.11
435.44	1834.98
435.64	1990.63
435.85	1937.38
436.06	2023.39
436.26	2047.97
436.47	1970.15
436.67	1931.23
436.88	1972.19
437.08	2047.97
437.29	2054.11
437.49	1998.82
437.70	2093.02
437.90	2056.16
438.11	2080.74
438.31	2074.59
438.52	2215.90
438.72	2162.66
438.93	2250.72
439.13	2138.08
439.34	2121.70
439.54	1976.29
439.75	2111.46
439.95	2076.64
440.16	1908.71
440.36	1968.10
440.57	1982.43
440.77	2066.40
440.98	1949.67
441.18	2035.68
441.39	1974.24
441.59	1855.46
441.80	2072.54
442.00	1996.77
442.21	2107.36
442.41	1849.32
442.62	2035.68
442.82	1980.39
443.02	2064.35
443.23	2097.12
443.43	1988.58
443.64	2045.92
443.84	1959.91
444.05	2060.26
444.25	2047.97
444.46	1994.72
444.66	1933.28
444.87	2119.65
445.07	1816.55
445.28	1986.53
445.48	2129.89
445.69	1970.15
445.89	2103.26
446.09	1970.15
446.30	2181.09
446.50	2721.75
446.71	4132.80
446.91	5105.59
447.12	6148.00
447.32	6553.50
447.53	6002.60
447.73	4915.12
447.93	4370.37
448.14	3960.77
448.34	3905.48
448.55	3389.39
448.75	3440.59
448.96	3192.78
449.16	2844.63
449.36	2729.94
449.57	2351.07
449.77	2148.32
449.98	1980.39
450.18	2068.45
450.39	2045.92
450.59	2031.58
450.79	1988.58
451.00	1992.67
451.20	2058.21
451.41	2072.54
451.61	2074.59
451.81	1953.76
452.02	2029.54
452.22	2025.44
452.43	1918.95
452.63	1937.38
