SpectraSuite Data File
++++++++++++++++++++++++++++++++++++
Date: Wed May 04 22:45:54 CEST 2016
User: root
Dark Spectrum Present: No
Reference Spectrum Present: No
Number of Sampled Component Spectra: 1
Spectrometers: USB4C02835
Integration Time (usec): 100000 (USB4C02835)
Spectra Averaged: 1 (USB4C02835)
Boxcar Smoothing: 0 (USB4C02835)
Correct for Electrical Dark: No (USB4C02835)
Strobe/Lamp Enabled: No (USB4C02835)
Correct for Detector Non-linearity: No (USB4C02835)
Correct for Stray Light: No (USB4C02835)
Number of Pixels in Processed Spectrum: 3648
>>>>>Begin Processed Spectral Data<<<<<
177.47	1634.28
177.69	1634.28
177.91	1634.28
178.13	1583.08
178.36	1697.77
178.58	1961.95
178.80	2031.58
179.02	1908.71
179.24	1892.32
179.46	1943.52
179.68	2021.35
179.90	1908.71
180.13	1980.39
180.35	1923.04
180.57	1935.33
180.79	1970.15
181.01	1978.34
181.23	1964.00
181.45	1984.48
181.67	1996.77
181.90	1972.19
182.12	1914.85
182.34	1890.28
182.56	1906.66
182.78	1937.38
183.00	1961.95
183.22	1955.81
183.44	1855.46
183.66	2097.12
183.89	2054.11
184.11	1918.95
184.33	2017.25
184.55	2060.26
184.77	1968.10
184.99	1966.05
185.21	1890.28
185.43	2105.31
185.65	1873.89
185.87	1972.19
186.10	2115.55
186.32	2138.08
186.54	2007.01
186.76	1904.61
186.98	2080.74
187.20	1855.46
187.42	1976.29
187.64	1990.63
187.86	1949.67
188.08	2062.30
188.30	1894.37
188.52	1964.00
188.75	2056.16
188.97	2043.87
189.19	1914.85
189.41	1900.52
189.63	1970.15
189.85	1953.76
190.07	1855.46
190.29	1853.41
190.51	2007.01
190.73	1855.46
190.95	2023.39
191.17	1927.14
191.39	1834.98
191.61	1974.24
191.84	1890.28
192.06	1896.42
192.28	1890.28
192.50	2185.18
192.72	2029.54
192.94	1957.86
193.16	1968.10
193.38	1949.67
193.60	1867.75
193.82	1914.85
194.04	2097.12
194.26	2054.11
194.48	1877.99
194.70	1961.95
194.92	1880.04
195.14	2035.68
195.36	1886.18
195.58	1929.19
195.80	1931.23
196.02	1920.99
196.24	1826.79
196.46	1953.76
196.69	1929.19
196.91	2136.03
197.13	1929.19
197.35	1929.19
197.57	2050.02
197.79	2021.35
198.01	1912.80
198.23	1978.34
198.45	2007.01
198.67	1888.23
198.89	1933.28
199.11	1949.67
199.33	1904.61
199.55	1800.16
199.77	1904.61
199.99	1986.53
200.21	1933.28
200.43	1939.43
200.65	1798.12
200.87	1841.12
201.09	1953.76
201.31	1986.53
201.53	1994.72
201.75	2021.35
201.97	2025.44
202.19	1877.99
202.41	2025.44
202.63	2142.18
202.85	2086.88
203.07	1994.72
203.29	1929.19
203.51	1843.17
203.73	1869.80
203.95	2125.79
204.17	1896.42
204.39	1974.24
204.61	1978.34
204.83	1918.95
205.05	1943.52
205.27	2045.92
205.49	2099.17
205.71	1980.39
205.93	1814.50
206.15	1898.47
206.37	1984.48
206.59	2009.06
206.81	1859.56
207.03	1871.84
207.25	1857.51
207.47	1982.43
207.69	1886.18
207.91	2019.30
208.13	2054.11
208.34	1935.33
208.56	1855.46
208.78	1964.00
209.00	1920.99
209.22	1937.38
209.44	1955.81
209.66	1923.04
209.88	1947.62
210.10	1873.89
210.32	1945.57
210.54	1964.00
210.76	1906.66
210.98	2045.92
211.20	1779.68
211.42	1927.14
211.64	2105.31
211.86	2011.11
212.08	2015.20
212.30	1970.15
212.52	1900.52
212.74	1961.95
212.96	1968.10
213.17	2027.49
213.39	2054.11
213.61	2023.39
213.83	1920.99
214.05	1961.95
214.27	2013.15
214.49	1865.70
214.71	1808.36
214.93	1996.77
215.15	2023.39
215.37	2017.25
215.59	1839.08
215.81	1959.91
216.03	2107.36
216.24	1935.33
216.46	1947.62
216.68	1976.29
216.90	2062.30
217.12	2074.59
217.34	1937.38
217.56	1949.67
217.78	2021.35
218.00	1980.39
218.22	1923.04
218.44	2052.06
218.66	1996.77
218.87	2058.21
219.09	1957.86
219.31	2035.68
219.53	1966.05
219.75	1898.47
219.97	1910.75
220.19	2025.44
220.41	1937.38
220.63	2099.17
220.85	1974.24
221.06	1912.80
221.28	2105.31
221.50	2029.54
221.72	1964.00
221.94	1892.32
222.16	1970.15
222.38	1998.82
222.60	1974.24
222.82	1918.95
223.03	2086.88
223.25	1888.23
223.47	1964.00
223.69	2052.06
223.91	2070.50
224.13	2002.91
224.35	1867.75
224.57	2019.30
224.78	1974.24
225.00	1906.66
225.22	1925.09
225.44	1949.67
225.66	1941.47
225.88	1877.99
226.10	1937.38
226.32	1964.00
226.53	2070.50
226.75	1933.28
226.97	1943.52
227.19	1904.61
227.41	1961.95
227.63	2013.15
227.85	1824.74
228.06	1984.48
228.28	1968.10
228.50	2035.68
228.72	1841.12
228.94	1843.17
229.16	1804.26
229.37	1855.46
229.59	1871.84
229.81	2062.30
230.03	1978.34
230.25	1814.50
230.47	1875.94
230.69	1865.70
230.90	2023.39
231.12	1923.04
231.34	1972.19
231.56	1966.05
231.78	1851.36
232.00	1947.62
232.21	1918.95
232.43	1931.23
232.65	1814.50
232.87	1935.33
233.09	1937.38
233.30	1920.99
233.52	2013.15
233.74	2084.83
233.96	1918.95
234.18	1972.19
234.40	2058.21
234.61	2109.41
234.83	1900.52
235.05	1855.46
235.27	2164.70
235.49	2050.02
235.70	1937.38
235.92	2013.15
236.14	1994.72
236.36	2129.89
236.58	1857.51
236.79	1916.90
237.01	1951.71
237.23	1982.43
237.45	2090.98
237.67	1896.42
237.88	1966.05
238.10	2070.50
238.32	1834.98
238.54	1873.89
238.76	2043.87
238.97	1908.71
239.19	1886.18
239.41	2072.54
239.63	1947.62
239.85	1927.14
240.06	1918.95
240.28	1937.38
240.50	2035.68
240.72	1937.38
240.93	1902.56
241.15	1929.19
241.37	1908.71
241.59	2045.92
241.81	1933.28
242.02	1902.56
242.24	2021.35
242.46	2047.97
242.68	1886.18
242.89	1923.04
243.11	2033.63
243.33	1972.19
243.55	1990.63
243.76	2025.44
243.98	1947.62
244.20	1939.43
244.42	1947.62
244.64	1966.05
244.85	1904.61
245.07	1937.38
245.29	2019.30
245.51	1863.65
245.72	1974.24
245.94	2050.02
246.16	1974.24
246.38	1996.77
246.59	1912.80
246.81	1859.56
247.03	1900.52
247.24	1789.92
247.46	1925.09
247.68	1984.48
247.90	1914.85
248.11	1886.18
248.33	1976.29
248.55	1951.71
248.77	1957.86
248.98	2070.50
249.20	2062.30
249.42	1976.29
249.64	1904.61
249.85	1920.99
250.07	1968.10
250.29	1972.19
250.50	1964.00
250.72	1843.17
250.94	2025.44
251.16	2117.60
251.37	1908.71
251.59	1988.58
251.81	1996.77
252.02	2101.22
252.24	1890.28
252.46	2054.11
252.68	1884.13
252.89	1920.99
253.11	1857.51
253.33	2050.02
253.54	2068.45
253.76	1845.22
253.98	1961.95
254.20	1923.04
254.41	1830.88
254.63	2015.20
254.85	1822.69
255.06	1953.76
255.28	1996.77
255.50	1910.75
255.71	1916.90
255.93	1898.47
256.15	1933.28
256.36	1871.84
256.58	1939.43
256.80	1912.80
257.02	1982.43
257.23	1939.43
257.45	1935.33
257.67	1972.19
257.88	1845.22
258.10	1945.57
258.32	1966.05
258.53	1986.53
258.75	1998.82
258.97	1894.37
259.18	1880.04
259.40	1890.28
259.62	2039.78
259.83	2017.25
260.05	1996.77
260.27	2363.36
260.48	1992.67
260.70	1834.98
260.92	1920.99
261.13	1984.48
261.35	1955.81
261.57	1992.67
261.78	1820.64
262.00	1935.33
262.22	1998.82
262.43	1798.12
262.65	1939.43
262.86	1902.56
263.08	2220.00
263.30	2045.92
263.51	1890.28
263.73	1941.47
263.95	1990.63
264.16	1886.18
264.38	1871.84
264.60	1964.00
264.81	1945.57
265.03	1984.48
265.25	2035.68
265.46	1953.76
265.68	2047.97
265.89	1994.72
266.11	1841.12
266.33	1953.76
266.54	1984.48
266.76	1941.47
266.98	1974.24
267.19	2070.50
267.41	1978.34
267.62	1953.76
267.84	1814.50
268.06	2017.25
268.27	1957.86
268.49	2062.30
268.70	1992.67
268.92	1914.85
269.14	1939.43
269.35	1859.56
269.57	1888.23
269.79	2013.15
270.00	1912.80
270.22	2043.87
270.43	1884.13
270.65	1839.08
270.87	1959.91
271.08	2027.49
271.30	2000.87
271.51	1925.09
271.73	2072.54
271.95	2056.16
272.16	1923.04
272.38	1947.62
272.59	1953.76
272.81	2019.30
273.02	1966.05
273.24	1990.63
273.46	1982.43
273.67	1918.95
273.89	1884.13
274.10	1914.85
274.32	2023.39
274.54	2019.30
274.75	1949.67
274.97	1927.14
275.18	2004.96
275.40	2039.78
275.61	1939.43
275.83	1923.04
276.05	1888.23
276.26	1943.52
276.48	2035.68
276.69	1959.91
276.91	1984.48
277.12	2097.12
277.34	2076.64
277.55	2078.69
277.77	2011.11
277.99	1943.52
278.20	1855.46
278.42	1839.08
278.63	1824.74
278.85	1900.52
279.06	1855.46
279.28	1925.09
279.49	1929.19
279.71	2025.44
279.93	1914.85
280.14	1914.85
280.36	1841.12
280.57	2029.54
280.79	1998.82
281.00	1947.62
281.22	1900.52
281.43	2017.25
281.65	1794.02
281.86	1964.00
282.08	2004.96
282.29	2146.27
282.51	1830.88
282.73	1888.23
282.94	1834.98
283.16	2000.87
283.37	2068.45
283.59	1982.43
283.80	1914.85
284.02	1970.15
284.23	1943.52
284.45	1908.71
284.66	1890.28
284.88	1890.28
285.09	1937.38
285.31	2015.20
285.52	2082.78
285.74	1775.59
285.95	2039.78
286.17	1998.82
286.38	2125.79
286.60	1910.75
286.81	1886.18
287.03	1976.29
287.24	1953.76
287.46	1951.71
287.67	1959.91
287.89	2086.88
288.10	2002.91
288.32	1959.91
288.53	2004.96
288.75	1955.81
288.96	1978.34
289.18	1929.19
289.39	1976.29
289.61	2054.11
289.82	2109.41
290.04	2119.65
290.25	1974.24
290.47	1961.95
290.68	2007.01
290.90	2031.58
291.11	1882.08
291.33	2060.26
291.54	1982.43
291.76	1968.10
291.97	1929.19
292.18	1986.53
292.40	1871.84
292.61	1916.90
292.83	2101.22
293.04	2101.22
293.26	1998.82
293.47	1943.52
293.69	1824.74
293.90	1982.43
294.12	1988.58
294.33	1945.57
294.55	1925.09
294.76	2000.87
294.97	2068.45
295.19	2222.05
295.40	1902.56
295.62	1968.10
295.83	1968.10
296.05	1873.89
296.26	2037.73
296.48	1943.52
296.69	1980.39
296.90	1947.62
297.12	1982.43
297.33	2043.87
297.55	1978.34
297.76	2011.11
297.98	2004.96
298.19	1961.95
298.41	1953.76
298.62	1920.99
298.83	2068.45
299.05	1955.81
299.26	1890.28
299.48	1863.65
299.69	1953.76
299.90	1945.57
300.12	1918.95
300.33	1957.86
300.55	1980.39
300.76	1988.58
300.98	1925.09
301.19	1951.71
301.40	1972.19
301.62	1964.00
301.83	2000.87
302.05	2004.96
302.26	1955.81
302.47	1906.66
302.69	1937.38
302.90	1968.10
303.12	1816.55
303.33	2011.11
303.54	2119.65
303.76	1976.29
303.97	2011.11
304.19	2076.64
304.40	1920.99
304.61	2027.49
304.83	1974.24
305.04	1964.00
305.26	2101.22
305.47	1912.80
305.68	1951.71
305.90	1834.98
306.11	2035.68
306.33	1894.37
306.54	1898.47
306.75	1933.28
306.97	1855.46
307.18	1861.60
307.39	1923.04
307.61	1996.77
307.82	1914.85
308.04	2033.63
308.25	1900.52
308.46	1976.29
308.68	1978.34
308.89	1935.33
309.10	2004.96
309.32	2000.87
309.53	2007.01
309.74	2035.68
309.96	1984.48
310.17	2045.92
310.39	1834.98
310.60	2004.96
310.81	1923.04
311.03	1892.32
311.24	2007.01
311.45	1990.63
311.67	2033.63
311.88	2052.06
312.09	1918.95
312.31	1843.17
312.52	2021.35
312.73	1886.18
312.95	1859.56
313.16	1910.75
313.37	2066.40
313.59	1998.82
313.80	2017.25
314.01	1992.67
314.23	1996.77
314.44	1910.75
314.65	1873.89
314.87	1949.67
315.08	1961.95
315.29	1894.37
315.51	1939.43
315.72	1865.70
315.93	2117.60
316.15	2047.97
316.36	1951.71
316.57	1933.28
316.79	1955.81
317.00	1898.47
317.21	2009.06
317.43	1943.52
317.64	1933.28
317.85	1929.19
318.07	1896.42
318.28	1949.67
318.49	2201.57
318.70	2164.70
318.92	2183.13
319.13	2176.99
319.34	2164.70
319.56	2095.07
319.77	2099.17
319.98	2007.01
320.20	2117.60
320.41	2111.46
320.62	2035.68
320.83	1900.52
321.05	2140.13
321.26	1986.53
321.47	1968.10
321.69	2068.45
321.90	1802.21
322.11	1902.56
322.32	1961.95
322.54	2056.16
322.75	1923.04
322.96	2191.33
323.18	1880.04
323.39	1832.93
323.60	1912.80
323.81	2080.74
324.03	1923.04
324.24	1939.43
324.45	1929.19
324.66	1943.52
324.88	2109.41
325.09	2039.78
325.30	1966.05
325.52	1976.29
325.73	1964.00
325.94	1804.26
326.15	1871.84
326.37	1949.67
326.58	2056.16
326.79	2064.35
327.00	1898.47
327.22	2011.11
327.43	1951.71
327.64	1906.66
327.85	1972.19
328.07	1947.62
328.28	2070.50
328.49	1961.95
328.70	1933.28
328.92	1974.24
329.13	1920.99
329.34	2043.87
329.55	2050.02
329.76	2064.35
329.98	1880.04
330.19	2000.87
330.40	2037.73
330.61	1914.85
330.83	1974.24
331.04	1890.28
331.25	1982.43
331.46	1869.80
331.68	1892.32
331.89	2033.63
332.10	1935.33
332.31	1861.60
332.52	1939.43
332.74	2011.11
332.95	1888.23
333.16	1925.09
333.37	2088.93
333.58	1908.71
333.80	2013.15
334.01	1859.56
334.22	1939.43
334.43	1929.19
334.64	1933.28
334.86	1808.36
335.07	1847.27
335.28	2068.45
335.49	1908.71
335.70	2013.15
335.92	2021.35
336.13	2197.47
336.34	2009.06
336.55	1916.90
336.76	1961.95
336.98	1863.65
337.19	1902.56
337.40	2107.36
337.61	2129.89
337.82	1931.23
338.04	2054.11
338.25	1839.08
338.46	2000.87
338.67	1914.85
338.88	1900.52
339.09	2013.15
339.31	1959.91
339.52	1941.47
339.73	1865.70
339.94	1980.39
340.15	2025.44
340.36	1939.43
340.58	1941.47
340.79	1857.51
341.00	2002.91
341.21	1918.95
341.42	2086.88
341.63	1904.61
341.85	2101.22
342.06	1959.91
342.27	1929.19
342.48	1925.09
342.69	1871.84
342.90	1990.63
343.12	1939.43
343.33	1943.52
343.54	2043.87
343.75	2080.74
343.96	1931.23
344.17	1855.46
344.38	1992.67
344.60	1888.23
344.81	1908.71
345.02	1955.81
345.23	2002.91
345.44	2138.08
345.65	1992.67
345.86	1990.63
346.07	1966.05
346.29	1931.23
346.50	1970.15
346.71	2017.25
346.92	1986.53
347.13	2144.22
347.34	1923.04
347.55	1988.58
347.76	1996.77
347.98	1785.83
348.19	1945.57
348.40	2107.36
348.61	1961.95
348.82	2031.58
349.03	1974.24
349.24	1910.75
349.45	2105.31
349.66	1820.64
349.88	1929.19
350.09	1875.94
350.30	2080.74
350.51	2086.88
350.72	1996.77
350.93	2062.30
351.14	1906.66
351.35	1976.29
351.56	1929.19
351.77	2050.02
351.99	2025.44
352.20	2074.59
352.41	1984.48
352.62	1837.03
352.83	2019.30
353.04	1914.85
353.25	1859.56
353.46	1986.53
353.67	2027.49
353.88	1832.93
354.09	1931.23
354.30	1984.48
354.52	1966.05
354.73	1939.43
354.94	1941.47
355.15	1920.99
355.36	2121.70
355.57	1892.32
355.78	1957.86
355.99	1978.34
356.20	1920.99
356.41	2097.12
356.62	2035.68
356.83	1976.29
357.04	2082.78
357.25	1841.12
357.46	1853.41
357.68	1890.28
357.89	1925.09
358.10	1927.14
358.31	1955.81
358.52	1841.12
358.73	1884.13
358.94	1898.47
359.15	1966.05
359.36	1998.82
359.57	1845.22
359.78	2015.20
359.99	2023.39
360.20	1875.94
360.41	1925.09
360.62	1980.39
360.83	1972.19
361.04	1966.05
361.25	2023.39
361.46	2099.17
361.67	2125.79
361.88	2002.91
362.09	2004.96
362.30	2002.91
362.51	1892.32
362.72	1949.67
362.93	1992.67
363.14	2023.39
363.35	1898.47
363.56	1910.75
363.78	2129.89
363.99	1980.39
364.20	1855.46
364.41	2015.20
364.62	2058.21
364.83	1978.34
365.04	1966.05
365.25	1935.33
365.46	2115.55
365.67	1974.24
365.88	1949.67
366.09	1976.29
366.30	1935.33
366.51	1939.43
366.72	1933.28
366.93	1910.75
367.14	1982.43
367.35	2084.83
367.56	1990.63
367.77	1966.05
367.98	1933.28
368.18	2013.15
368.39	2013.15
368.60	1853.41
368.81	2002.91
369.02	1964.00
369.23	1863.65
369.44	1851.36
369.65	1964.00
369.86	1951.71
370.07	2017.25
370.28	1855.46
370.49	1976.29
370.70	2011.11
370.91	1929.19
371.12	1865.70
371.33	2066.40
371.54	1890.28
371.75	2039.78
371.96	1865.70
372.17	2039.78
372.38	1884.13
372.59	1988.58
372.80	1933.28
373.01	1900.52
373.22	1986.53
373.43	2045.92
373.64	1943.52
373.85	1970.15
374.06	2133.98
374.26	1980.39
374.47	2021.35
374.68	2121.70
374.89	1931.23
375.10	1923.04
375.31	1994.72
375.52	1937.38
375.73	1937.38
375.94	1941.47
376.15	2074.59
376.36	1869.80
376.57	1855.46
376.78	1884.13
376.99	1945.57
377.20	2076.64
377.40	1902.56
377.61	2023.39
377.82	1877.99
378.03	2029.54
378.24	2004.96
378.45	1959.91
378.66	1992.67
378.87	1857.51
379.08	1814.50
379.29	2002.91
379.50	1978.34
379.71	1882.08
379.91	2113.50
380.12	2045.92
380.33	1961.95
380.54	1882.08
380.75	1925.09
380.96	1931.23
381.17	1990.63
381.38	1966.05
381.59	1957.86
381.80	1945.57
382.00	2125.79
382.21	2103.26
382.42	2203.61
382.63	2133.98
382.84	2138.08
383.05	1974.24
383.26	2070.50
383.47	2064.35
383.68	2017.25
383.88	2023.39
384.09	2078.69
384.30	2052.06
384.51	2013.15
384.72	1904.61
384.93	1933.28
385.14	1992.67
385.35	2093.02
385.55	1851.36
385.76	2076.64
385.97	1990.63
386.18	1904.61
386.39	1931.23
386.60	1945.57
386.81	1992.67
387.02	1900.52
387.22	1888.23
387.43	1943.52
387.64	2019.30
387.85	2215.90
388.06	2187.23
388.27	3960.77
388.48	8474.49
388.68	11878.22
388.89	14372.64
389.10	15427.35
389.31	14087.98
389.52	11028.31
389.73	9668.46
389.93	8617.85
390.14	7884.68
390.35	7231.38
390.56	6416.29
390.77	5306.29
390.98	4028.35
391.18	3194.83
391.39	2574.30
391.60	2226.14
391.81	2056.16
392.02	1994.72
392.23	2205.66
392.43	1955.81
392.64	2033.63
392.85	1966.05
393.06	2117.60
393.27	1908.71
393.47	2007.01
393.68	1920.99
393.89	1959.91
394.10	2056.16
394.31	1931.23
394.52	1980.39
394.72	1974.24
394.93	2068.45
395.14	1964.00
395.35	1986.53
395.56	1888.23
395.76	1966.05
395.97	1990.63
396.18	2086.88
396.39	2136.03
396.60	2402.27
396.80	2205.66
397.01	2097.12
397.22	2054.11
397.43	2125.79
397.64	2011.11
397.84	2076.64
398.05	2162.66
398.26	2029.54
398.47	1992.67
398.67	2095.07
398.88	1925.09
399.09	1968.10
399.30	1955.81
399.51	2004.96
399.71	1873.89
399.92	1970.15
400.13	1974.24
400.34	1945.57
400.54	1982.43
400.75	2086.88
400.96	1955.81
401.17	2103.26
401.37	2045.92
401.58	1937.38
401.79	2031.58
402.00	2125.79
402.21	2320.35
402.41	2269.15
402.62	2369.50
402.83	2471.90
403.04	2396.12
403.24	2465.75
403.45	2152.42
403.66	2228.19
403.87	2189.28
404.07	2232.29
404.28	2234.33
404.49	2197.47
404.70	2088.93
404.90	2111.46
405.11	1953.76
405.32	2047.97
405.52	1964.00
405.73	1880.04
405.94	1912.80
406.15	1929.19
406.35	2043.87
406.56	2035.68
406.77	1912.80
406.98	1984.48
407.18	1908.71
407.39	2086.88
407.60	1851.36
407.80	2002.91
408.01	1925.09
408.22	1980.39
408.43	1929.19
408.63	1978.34
408.84	2029.54
409.05	2062.30
409.25	1863.65
409.46	1929.19
409.67	2002.91
409.88	1929.19
410.08	1961.95
410.29	1867.75
410.50	2082.78
410.70	1996.77
410.91	1947.62
411.12	2037.73
411.32	1867.75
411.53	1914.85
411.74	2107.36
411.95	2142.18
412.15	2062.30
412.36	2062.30
412.57	2027.49
412.77	2123.74
412.98	1994.72
413.19	1914.85
413.39	2062.30
413.60	1998.82
413.81	2072.54
414.01	1900.52
414.22	2033.63
414.43	2004.96
414.63	1880.04
414.84	1941.47
415.05	1994.72
415.25	1867.75
415.46	2086.88
415.67	1904.61
415.87	2025.44
416.08	1961.95
416.29	1912.80
416.49	2086.88
416.70	1892.32
416.91	1947.62
417.11	1898.47
417.32	2039.78
417.53	2029.54
417.73	2015.20
417.94	1972.19
418.15	1945.57
418.35	2078.69
418.56	1978.34
418.77	2123.74
418.97	1959.91
419.18	1972.19
419.38	1857.51
419.59	1998.82
419.80	2050.02
420.00	1923.04
420.21	1976.29
420.42	2095.07
420.62	1996.77
420.83	1855.46
421.04	1933.28
421.24	1929.19
421.45	2037.73
421.65	1970.15
421.86	1953.76
422.07	2088.93
422.27	1918.95
422.48	1894.37
422.69	1941.47
422.89	1970.15
423.10	1939.43
423.30	1837.03
423.51	2011.11
423.72	2023.39
423.92	2041.82
424.13	1865.70
424.33	1976.29
424.54	2002.91
424.75	2025.44
424.95	2064.35
425.16	1923.04
425.36	1937.38
425.57	2090.98
425.78	1970.15
425.98	2097.12
426.19	1904.61
426.39	1896.42
426.60	2009.06
426.81	2031.58
427.01	2037.73
427.22	1949.67
427.42	1892.32
427.63	1898.47
427.83	2101.22
428.04	2060.26
428.25	1978.34
428.45	2064.35
428.66	2013.15
428.86	2019.30
429.07	1929.19
429.28	1996.77
429.48	1918.95
429.69	1935.33
429.89	2050.02
430.10	1826.79
430.30	2070.50
430.51	1941.47
430.71	1873.89
430.92	1912.80
431.13	1892.32
431.33	2035.68
431.54	2041.82
431.74	2082.78
431.95	2068.45
432.15	1929.19
432.36	1980.39
432.56	1996.77
432.77	2138.08
432.98	2133.98
433.18	2037.73
433.39	1974.24
433.59	1875.94
433.80	2103.26
434.00	2166.75
434.21	1929.19
434.41	1923.04
434.62	2170.85
434.82	1890.28
435.03	1949.67
435.23	1959.91
435.44	1847.27
435.64	2035.68
435.85	1959.91
436.06	2047.97
436.26	2021.35
436.47	1916.90
436.67	1933.28
436.88	1966.05
437.08	2064.35
437.29	2068.45
437.49	1998.82
437.70	2039.78
437.90	2027.49
438.11	2148.32
438.31	2017.25
438.52	2150.37
438.72	2154.46
438.93	2181.09
439.13	2127.84
439.34	2127.84
439.54	1978.34
439.75	2054.11
439.95	2015.20
440.16	1906.66
440.36	2011.11
440.57	2080.74
440.77	1949.67
440.98	1964.00
441.18	2021.35
441.39	2029.54
441.59	1839.08
441.80	2162.66
442.00	1949.67
442.21	2068.45
442.41	1863.65
442.62	2013.15
442.82	1941.47
443.02	1968.10
443.23	2019.30
443.43	1933.28
443.64	2103.26
443.84	1910.75
444.05	2072.54
444.25	2013.15
444.46	1957.86
444.66	1923.04
444.87	2107.36
445.07	1877.99
445.28	1943.52
445.48	2097.12
445.69	2082.78
445.89	2105.31
446.09	2035.68
446.30	2217.95
446.50	2611.16
446.71	4200.38
446.91	5359.53
447.12	6109.09
447.32	6557.60
447.53	5986.21
447.73	4865.97
447.93	4409.28
448.14	3919.81
448.34	3856.33
448.55	3436.49
448.75	3336.14
448.96	3162.06
449.16	2875.35
449.36	2760.66
449.57	2359.26
449.77	2125.79
449.98	2060.26
450.18	2072.54
450.39	2070.50
450.59	1998.82
450.79	1957.86
451.00	1857.51
451.20	2064.35
451.41	1904.61
451.61	1972.19
451.81	1968.10
452.02	2019.30
452.22	1955.81
452.43	1947.62
452.63	1880.04
