SpectraSuite Data File
++++++++++++++++++++++++++++++++++++
Date: Wed May 04 22:46:09 CEST 2016
User: root
Dark Spectrum Present: No
Reference Spectrum Present: No
Number of Sampled Component Spectra: 1
Spectrometers: USB4C02835
Integration Time (usec): 100000 (USB4C02835)
Spectra Averaged: 1 (USB4C02835)
Boxcar Smoothing: 0 (USB4C02835)
Correct for Electrical Dark: No (USB4C02835)
Strobe/Lamp Enabled: No (USB4C02835)
Correct for Detector Non-linearity: No (USB4C02835)
Correct for Stray Light: No (USB4C02835)
Number of Pixels in Processed Spectrum: 3648
>>>>>Begin Processed Spectral Data<<<<<
177.47	1656.81
177.69	1656.81
177.91	1656.81
178.13	1628.14
178.36	1576.94
178.58	1853.41
178.80	1902.56
179.02	1818.60
179.24	1861.60
179.46	1892.32
179.68	1941.47
179.90	1875.94
180.13	1916.90
180.35	1978.34
180.57	1923.04
180.79	1974.24
181.01	2023.39
181.23	2027.49
181.45	1968.10
181.67	1943.52
181.90	2064.35
182.12	1914.85
182.34	1914.85
182.56	2002.91
182.78	1957.86
183.00	1920.99
183.22	1912.80
183.44	1781.73
183.66	2121.70
183.89	1990.63
184.11	1935.33
184.33	2000.87
184.55	2025.44
184.77	1972.19
184.99	1931.23
185.21	1939.43
185.43	2146.27
185.65	1931.23
185.87	1947.62
186.10	2150.37
186.32	2078.69
186.54	1957.86
186.76	2004.96
186.98	2017.25
187.20	1900.52
187.42	1900.52
187.64	2004.96
187.86	1961.95
188.08	2000.87
188.30	1886.18
188.52	1900.52
188.75	2058.21
188.97	2076.64
189.19	1873.89
189.41	1935.33
189.63	1992.67
189.85	1937.38
190.07	1789.92
190.29	1834.98
190.51	2004.96
190.73	1912.80
190.95	2017.25
191.17	1970.15
191.39	1791.97
191.61	1906.66
191.84	1880.04
192.06	1994.72
192.28	1820.64
192.50	2191.33
192.72	1947.62
192.94	1896.42
193.16	1959.91
193.38	1931.23
193.60	1867.75
193.82	1843.17
194.04	1974.24
194.26	1937.38
194.48	1908.71
194.70	1859.56
194.92	1890.28
195.14	2009.06
195.36	1945.57
195.58	2031.58
195.80	1929.19
196.02	1931.23
196.24	1908.71
196.46	1859.56
196.69	1908.71
196.91	2101.22
197.13	1961.95
197.35	1929.19
197.57	2074.59
197.79	1986.53
198.01	1923.04
198.23	2025.44
198.45	2015.20
198.67	1886.18
198.89	1927.14
199.11	1939.43
199.33	1966.05
199.55	1734.63
199.77	1916.90
199.99	1980.39
200.21	1941.47
200.43	2015.20
200.65	1824.74
200.87	1763.30
201.09	1951.71
201.31	1970.15
201.53	2023.39
201.75	2004.96
201.97	1972.19
202.19	1916.90
202.41	1925.09
202.63	2142.18
202.85	2093.02
203.07	2050.02
203.29	1908.71
203.51	1882.08
203.73	1896.42
203.95	2240.48
204.17	2025.44
204.39	1986.53
204.61	1998.82
204.83	1943.52
205.05	2004.96
205.27	1929.19
205.49	2170.85
205.71	1984.48
205.93	1746.92
206.15	1865.70
206.37	1986.53
206.59	1937.38
206.81	1853.41
207.03	1875.94
207.25	1812.45
207.47	1988.58
207.69	1941.47
207.91	2047.97
208.13	2033.63
208.34	1933.28
208.56	1851.36
208.78	1984.48
209.00	1918.95
209.22	1896.42
209.44	1931.23
209.66	1978.34
209.88	1972.19
210.10	1978.34
210.32	1925.09
210.54	2043.87
210.76	1871.84
210.98	1996.77
211.20	1837.03
211.42	1918.95
211.64	2058.21
211.86	1939.43
212.08	1980.39
212.30	1961.95
212.52	1935.33
212.74	1982.43
212.96	1937.38
213.17	1927.14
213.39	2011.11
213.61	2072.54
213.83	1953.76
214.05	1888.23
214.27	2031.58
214.49	1882.08
214.71	1857.51
214.93	1966.05
215.15	1894.37
215.37	2041.82
215.59	1814.50
215.81	2060.26
216.03	2027.49
216.24	1992.67
216.46	1970.15
216.68	1986.53
216.90	1980.39
217.12	2043.87
217.34	1902.56
217.56	1953.76
217.78	2011.11
218.00	1982.43
218.22	1966.05
218.44	1998.82
218.66	1927.14
218.87	2144.22
219.09	1974.24
219.31	1953.76
219.53	2013.15
219.75	1947.62
219.97	1865.70
220.19	1982.43
220.41	1947.62
220.63	2039.78
220.85	2019.30
221.06	1923.04
221.28	2058.21
221.50	2023.39
221.72	1910.75
221.94	1929.19
222.16	1982.43
222.38	2072.54
222.60	2011.11
222.82	1959.91
223.03	2027.49
223.25	1796.07
223.47	1961.95
223.69	2011.11
223.91	2064.35
224.13	1988.58
224.35	1880.04
224.57	1918.95
224.78	1941.47
225.00	1839.08
225.22	1992.67
225.44	1984.48
225.66	2017.25
225.88	1939.43
226.10	1953.76
226.32	1910.75
226.53	2033.63
226.75	1886.18
226.97	1904.61
227.19	1970.15
227.41	1955.81
227.63	1863.65
227.85	1877.99
228.06	1943.52
228.28	1933.28
228.50	2062.30
228.72	1988.58
228.94	1941.47
229.16	1806.31
229.37	1875.94
229.59	1923.04
229.81	2052.06
230.03	1976.29
230.25	1875.94
230.47	1873.89
230.69	1802.21
230.90	2039.78
231.12	1832.93
231.34	1951.71
231.56	1914.85
231.78	1910.75
232.00	2004.96
232.21	1923.04
232.43	1904.61
232.65	1816.55
232.87	1994.72
233.09	1892.32
233.30	1865.70
233.52	2009.06
233.74	1945.57
233.96	1947.62
234.18	1908.71
234.40	1873.89
234.61	2164.70
234.83	1832.93
235.05	1869.80
235.27	2211.81
235.49	2002.91
235.70	1949.67
235.92	2045.92
236.14	1998.82
236.36	2187.23
236.58	1863.65
236.79	2082.78
237.01	1949.67
237.23	1873.89
237.45	2060.26
237.67	1970.15
237.88	1986.53
238.10	2103.26
238.32	1886.18
238.54	1898.47
238.76	1918.95
238.97	1892.32
239.19	1892.32
239.41	1964.00
239.63	1974.24
239.85	1974.24
240.06	1972.19
240.28	1890.28
240.50	1970.15
240.72	1951.71
240.93	1839.08
241.15	2025.44
241.37	1918.95
241.59	2060.26
241.81	1974.24
242.02	1927.14
242.24	1957.86
242.46	1941.47
242.68	1867.75
242.89	1974.24
243.11	1994.72
243.33	1966.05
243.55	1959.91
243.76	1966.05
243.98	1908.71
244.20	2027.49
244.42	1998.82
244.64	2004.96
244.85	1847.27
245.07	1894.37
245.29	1994.72
245.51	1920.99
245.72	1986.53
245.94	2123.74
246.16	1894.37
246.38	1947.62
246.59	1826.79
246.81	1843.17
247.03	1902.56
247.24	1767.40
247.46	1923.04
247.68	1953.76
247.90	1902.56
248.11	1945.57
248.33	1996.77
248.55	1957.86
248.77	1923.04
248.98	1972.19
249.20	2133.98
249.42	1951.71
249.64	1937.38
249.85	1935.33
250.07	1916.90
250.29	2025.44
250.50	2045.92
250.72	1894.37
250.94	1949.67
251.16	1984.48
251.37	1902.56
251.59	1980.39
251.81	2058.21
252.02	2072.54
252.24	1843.17
252.46	2000.87
252.68	1908.71
252.89	1896.42
253.11	1906.66
253.33	2076.64
253.54	2062.30
253.76	1867.75
253.98	1953.76
254.20	1933.28
254.41	1847.27
254.63	1953.76
254.85	1798.12
255.06	1820.64
255.28	1927.14
255.50	1941.47
255.71	1908.71
255.93	1841.12
256.15	1920.99
256.36	2007.01
256.58	1845.22
256.80	1947.62
257.02	1937.38
257.23	1910.75
257.45	1914.85
257.67	2027.49
257.88	1900.52
258.10	1871.84
258.32	2021.35
258.53	1875.94
258.75	2033.63
258.97	1914.85
259.18	1978.34
259.40	1939.43
259.62	2093.02
259.83	2060.26
260.05	1988.58
260.27	2301.92
260.48	1955.81
260.70	1892.32
260.92	1916.90
261.13	1957.86
261.35	1937.38
261.57	1916.90
261.78	1798.12
262.00	1908.71
262.22	1959.91
262.43	1837.03
262.65	1966.05
262.86	1951.71
263.08	2142.18
263.30	1886.18
263.51	1857.51
263.73	1941.47
263.95	2156.51
264.16	1867.75
264.38	1906.66
264.60	1910.75
264.81	1935.33
265.03	2090.98
265.25	2119.65
265.46	1927.14
265.68	2013.15
265.89	1943.52
266.11	1877.99
266.33	1970.15
266.54	2058.21
266.76	2033.63
266.98	2011.11
267.19	2056.16
267.41	2037.73
267.62	1978.34
267.84	1886.18
268.06	1968.10
268.27	2017.25
268.49	2058.21
268.70	2054.11
268.92	1888.23
269.14	1914.85
269.35	1783.78
269.57	1880.04
269.79	2031.58
270.00	1923.04
270.22	2154.46
270.43	1875.94
270.65	1816.55
270.87	1918.95
271.08	1955.81
271.30	1986.53
271.51	1886.18
271.73	2023.39
271.95	2037.73
272.16	1841.12
272.38	1966.05
272.59	1914.85
272.81	1951.71
273.02	1898.47
273.24	1941.47
273.46	2031.58
273.67	1865.70
273.89	1945.57
274.10	1896.42
274.32	2025.44
274.54	1912.80
274.75	2011.11
274.97	1925.09
275.18	2019.30
275.40	2099.17
275.61	1982.43
275.83	2031.58
276.05	1849.32
276.26	1925.09
276.48	1996.77
276.69	1902.56
276.91	1955.81
277.12	2082.78
277.34	2002.91
277.55	2021.35
277.77	1957.86
277.99	1927.14
278.20	1880.04
278.42	1851.36
278.63	1982.43
278.85	1933.28
279.06	1931.23
279.28	2002.91
279.49	2080.74
279.71	1998.82
279.93	1935.33
280.14	1894.37
280.36	1947.62
280.57	2013.15
280.79	2043.87
281.00	1925.09
281.22	1902.56
281.43	2035.68
281.65	1830.88
281.86	1814.50
282.08	2000.87
282.29	2080.74
282.51	1927.14
282.73	1918.95
282.94	1875.94
283.16	2015.20
283.37	2058.21
283.59	1929.19
283.80	2009.06
284.02	1964.00
284.23	1959.91
284.45	1947.62
284.66	1945.57
284.88	1884.13
285.09	1974.24
285.31	1945.57
285.52	1994.72
285.74	1902.56
285.95	1992.67
286.17	1980.39
286.38	1974.24
286.60	2013.15
286.81	1873.89
287.03	1935.33
287.24	2029.54
287.46	1988.58
287.67	2000.87
287.89	2115.55
288.10	1947.62
288.32	1994.72
288.53	2105.31
288.75	1896.42
288.96	1968.10
289.18	1898.47
289.39	1931.23
289.61	1984.48
289.82	2158.56
290.04	2107.36
290.25	1775.59
290.47	1966.05
290.68	1916.90
290.90	2045.92
291.11	1798.12
291.33	1951.71
291.54	1931.23
291.76	1837.03
291.97	1904.61
292.18	2017.25
292.40	1904.61
292.61	1914.85
292.83	2058.21
293.04	1998.82
293.26	1918.95
293.47	1941.47
293.69	1880.04
293.90	1910.75
294.12	1968.10
294.33	1949.67
294.55	1908.71
294.76	2082.78
294.97	2111.46
295.19	2082.78
295.40	1906.66
295.62	2054.11
295.83	2007.01
296.05	1882.08
296.26	2086.88
296.48	1972.19
296.69	1923.04
296.90	2047.97
297.12	2029.54
297.33	2047.97
297.55	2039.78
297.76	2019.30
297.98	2039.78
298.19	1968.10
298.41	1943.52
298.62	1865.70
298.83	2084.83
299.05	1984.48
299.26	1877.99
299.48	1914.85
299.69	1994.72
299.90	1974.24
300.12	1935.33
300.33	1953.76
300.55	2004.96
300.76	1966.05
300.98	1873.89
301.19	2033.63
301.40	1886.18
301.62	1959.91
301.83	1986.53
302.05	1949.67
302.26	1900.52
302.47	1943.52
302.69	1923.04
302.90	1896.42
303.12	1834.98
303.33	2076.64
303.54	2086.88
303.76	1880.04
303.97	1990.63
304.19	2029.54
304.40	1894.37
304.61	2031.58
304.83	2115.55
305.04	2029.54
305.26	2004.96
305.47	2031.58
305.68	1869.80
305.90	1968.10
306.11	2015.20
306.33	1929.19
306.54	1875.94
306.75	1929.19
306.97	1898.47
307.18	1851.36
307.39	1900.52
307.61	2041.82
307.82	1955.81
308.04	1941.47
308.25	1923.04
308.46	1957.86
308.68	1925.09
308.89	1972.19
309.10	2021.35
309.32	2000.87
309.53	1890.28
309.74	1933.28
309.96	1939.43
310.17	1994.72
310.39	1886.18
310.60	1980.39
310.81	1976.29
311.03	1902.56
311.24	1929.19
311.45	1964.00
311.67	2068.45
311.88	2000.87
312.09	1953.76
312.31	1980.39
312.52	1900.52
312.73	1941.47
312.95	1882.08
313.16	1927.14
313.37	1988.58
313.59	2025.44
313.80	1988.58
314.01	2023.39
314.23	1955.81
314.44	1951.71
314.65	1896.42
314.87	1820.64
315.08	1916.90
315.29	1882.08
315.51	1886.18
315.72	1900.52
315.93	2064.35
316.15	2025.44
316.36	1890.28
316.57	1951.71
316.79	1943.52
317.00	1990.63
317.21	2039.78
317.43	1886.18
317.64	1927.14
317.85	1888.23
318.07	1880.04
318.28	2017.25
318.49	2121.70
318.70	2248.67
318.92	2176.99
319.13	2193.37
319.34	2152.42
319.56	2060.26
319.77	2097.12
319.98	2056.16
320.20	2029.54
320.41	2027.49
320.62	1972.19
320.83	1906.66
321.05	2150.37
321.26	1949.67
321.47	1900.52
321.69	2029.54
321.90	1841.12
322.11	1929.19
322.32	1990.63
322.54	2131.94
322.75	1947.62
322.96	2226.14
323.18	1886.18
323.39	1859.56
323.60	1931.23
323.81	1986.53
324.03	1951.71
324.24	1935.33
324.45	2021.35
324.66	1910.75
324.88	2111.46
325.09	2105.31
325.30	1927.14
325.52	1998.82
325.73	1898.47
325.94	1929.19
326.15	1794.02
326.37	1896.42
326.58	2039.78
326.79	2117.60
327.00	1908.71
327.22	1996.77
327.43	1941.47
327.64	1869.80
327.85	2025.44
328.07	1968.10
328.28	2047.97
328.49	1877.99
328.70	1896.42
328.92	1947.62
329.13	1957.86
329.34	2019.30
329.55	2099.17
329.76	2013.15
329.98	1927.14
330.19	2047.97
330.40	1951.71
330.61	2000.87
330.83	1939.43
331.04	1935.33
331.25	1947.62
331.46	1902.56
331.68	1890.28
331.89	1990.63
332.10	1859.56
332.31	1804.26
332.52	1959.91
332.74	2043.87
332.95	1888.23
333.16	1966.05
333.37	1984.48
333.58	1882.08
333.80	1992.67
334.01	1798.12
334.22	1916.90
334.43	1978.34
334.64	1877.99
334.86	1832.93
335.07	1857.51
335.28	2107.36
335.49	1851.36
335.70	1998.82
335.92	2019.30
336.13	2154.46
336.34	2039.78
336.55	2019.30
336.76	1978.34
336.98	1855.46
337.19	1941.47
337.40	2043.87
337.61	2156.51
337.82	1865.70
338.04	2019.30
338.25	1900.52
338.46	1906.66
338.67	1947.62
338.88	1853.41
339.09	1955.81
339.31	1988.58
339.52	1886.18
339.73	1806.31
339.94	1912.80
340.15	2064.35
340.36	1914.85
340.58	1959.91
340.79	1933.28
341.00	2007.01
341.21	1906.66
341.42	2033.63
341.63	1959.91
341.85	1957.86
342.06	1984.48
342.27	1849.32
342.48	2068.45
342.69	1828.84
342.90	2033.63
343.12	2050.02
343.33	1875.94
343.54	2039.78
343.75	2111.46
343.96	1951.71
344.17	1884.13
344.38	1900.52
344.60	1945.57
344.81	1943.52
345.02	1943.52
345.23	2035.68
345.44	2127.84
345.65	1996.77
345.86	2041.82
346.07	1980.39
346.29	1994.72
346.50	1968.10
346.71	1910.75
346.92	2058.21
347.13	2144.22
347.34	1964.00
347.55	1964.00
347.76	1990.63
347.98	1927.14
348.19	1851.36
348.40	2011.11
348.61	1898.47
348.82	2117.60
349.03	2021.35
349.24	1877.99
349.45	2103.26
349.66	1849.32
349.88	1966.05
350.09	1882.08
350.30	2080.74
350.51	2119.65
350.72	1990.63
350.93	1986.53
351.14	1912.80
351.35	2070.50
351.56	1945.57
351.77	1964.00
351.99	2066.40
352.20	2095.07
352.41	2093.02
352.62	1834.98
352.83	1982.43
353.04	1982.43
353.25	1892.32
353.46	2050.02
353.67	2078.69
353.88	1726.44
354.09	1961.95
354.30	1982.43
354.52	1974.24
354.73	1947.62
354.94	1966.05
355.15	1974.24
355.36	2093.02
355.57	2007.01
355.78	1941.47
355.99	1957.86
356.20	1955.81
356.41	1994.72
356.62	1935.33
356.83	1998.82
357.04	2070.50
357.25	1902.56
357.46	1920.99
357.68	1867.75
357.89	1839.08
358.10	2000.87
358.31	1955.81
358.52	1882.08
358.73	1894.37
358.94	1890.28
359.15	1867.75
359.36	2015.20
359.57	2011.11
359.78	2002.91
359.99	1951.71
360.20	1916.90
360.41	1931.23
360.62	2078.69
360.83	1951.71
361.04	1968.10
361.25	1980.39
361.46	2052.06
361.67	2027.49
361.88	1978.34
362.09	2017.25
362.30	1945.57
362.51	1902.56
362.72	1998.82
362.93	1978.34
363.14	2002.91
363.35	1918.95
363.56	1925.09
363.78	2015.20
363.99	1972.19
364.20	1880.04
364.41	1970.15
364.62	2068.45
364.83	1974.24
365.04	1910.75
365.25	1886.18
365.46	2131.94
365.67	1920.99
365.88	1914.85
366.09	1953.76
366.30	1925.09
366.51	1910.75
366.72	1896.42
366.93	1949.67
367.14	1875.94
367.35	2015.20
367.56	1896.42
367.77	2043.87
367.98	1976.29
368.18	1992.67
368.39	2035.68
368.60	1880.04
368.81	2013.15
369.02	2004.96
369.23	1933.28
369.44	1839.08
369.65	1798.12
369.86	2013.15
370.07	1935.33
370.28	1865.70
370.49	1990.63
370.70	2017.25
370.91	1908.71
371.12	1923.04
371.33	2084.83
371.54	1970.15
371.75	2060.26
371.96	1886.18
372.17	2076.64
372.38	1986.53
372.59	2047.97
372.80	1918.95
373.01	1935.33
373.22	2031.58
373.43	1933.28
373.64	1843.17
373.85	2101.22
374.06	2181.09
374.26	1949.67
374.47	2007.01
374.68	2017.25
374.89	1986.53
375.10	1978.34
375.31	1964.00
375.52	1994.72
375.73	2019.30
375.94	1867.75
376.15	2068.45
376.36	1927.14
376.57	1912.80
376.78	1914.85
376.99	2015.20
377.20	2066.40
377.40	1941.47
377.61	2105.31
377.82	1906.66
378.03	1978.34
378.24	1918.95
378.45	1918.95
378.66	2017.25
378.87	1839.08
379.08	1882.08
379.29	1931.23
379.50	1976.29
379.71	1978.34
379.91	2029.54
380.12	1945.57
380.33	1978.34
380.54	2033.63
380.75	1964.00
380.96	1947.62
381.17	2037.73
381.38	2019.30
381.59	1982.43
381.80	1974.24
382.00	2146.27
382.21	2004.96
382.42	2125.79
382.63	2228.19
382.84	2058.21
383.05	2093.02
383.26	1980.39
383.47	2027.49
383.68	2009.06
383.88	2035.68
384.09	1943.52
384.30	2095.07
384.51	1980.39
384.72	1951.71
384.93	1847.27
385.14	2043.87
385.35	2004.96
385.55	1875.94
385.76	1998.82
385.97	1982.43
386.18	1822.69
386.39	1890.28
386.60	1964.00
386.81	1941.47
387.02	1902.56
387.22	1902.56
387.43	2064.35
387.64	2088.93
387.85	2133.98
388.06	2342.88
388.27	3968.96
388.48	8505.21
388.68	11882.31
388.89	14055.21
389.10	15744.78
389.31	14075.69
389.52	10954.58
389.73	9461.62
389.93	8540.03
390.14	7851.91
390.35	7114.64
390.56	6307.74
390.77	5195.70
390.98	4057.03
391.18	3186.64
391.39	2596.82
391.60	2254.81
391.81	2050.02
392.02	1931.23
392.23	2133.98
392.43	2045.92
392.64	2033.63
392.85	2019.30
393.06	2064.35
393.27	1914.85
393.47	1900.52
393.68	2045.92
393.89	1972.19
394.10	2154.46
394.31	1882.08
394.52	1845.22
394.72	1941.47
394.93	2066.40
395.14	1966.05
395.35	1961.95
395.56	1933.28
395.76	1982.43
395.97	2052.06
396.18	2015.20
396.39	2101.22
396.60	2430.94
396.80	2248.67
397.01	2109.41
397.22	2170.85
397.43	2058.21
397.64	1976.29
397.84	2035.68
398.05	2195.42
398.26	1986.53
398.47	2076.64
398.67	2082.78
398.88	2007.01
399.09	2062.30
399.30	2017.25
399.51	1957.86
399.71	1886.18
399.92	1859.56
400.13	1994.72
400.34	1894.37
400.54	1925.09
400.75	2068.45
400.96	2031.58
401.17	2090.98
401.37	2039.78
401.58	1916.90
401.79	2058.21
402.00	2041.82
402.21	2330.59
402.41	2363.36
402.62	2320.35
402.83	2490.33
403.04	2422.75
403.24	2424.80
403.45	2101.22
403.66	2285.53
403.87	2136.03
404.07	2203.61
404.28	2256.86
404.49	2172.89
404.70	2105.31
404.90	2101.22
405.11	2037.73
405.32	1957.86
405.52	1884.13
405.73	1918.95
405.94	2009.06
406.15	1968.10
406.35	1980.39
406.56	2015.20
406.77	2009.06
406.98	1941.47
407.18	1865.70
407.39	2027.49
407.60	1935.33
407.80	2002.91
408.01	1916.90
408.22	2011.11
408.43	1912.80
408.63	1994.72
408.84	1941.47
409.05	1974.24
409.25	1978.34
409.46	1947.62
409.67	1929.19
409.88	1906.66
410.08	1998.82
410.29	1978.34
410.50	1945.57
410.70	2021.35
410.91	1927.14
411.12	2019.30
411.32	1939.43
411.53	1949.67
411.74	2113.50
411.95	2033.63
412.15	2039.78
412.36	1998.82
412.57	2064.35
412.77	2129.89
412.98	2031.58
413.19	1988.58
413.39	2037.73
413.60	2011.11
413.81	2107.36
414.01	1972.19
414.22	2017.25
414.43	2019.30
414.63	1918.95
414.84	1990.63
415.05	1976.29
415.25	1929.19
415.46	2037.73
415.67	1933.28
415.87	1947.62
416.08	1941.47
416.29	1888.23
416.49	2027.49
416.70	1972.19
416.91	1873.89
417.11	1939.43
417.32	2004.96
417.53	2025.44
417.73	1984.48
417.94	1925.09
418.15	1914.85
418.35	1957.86
418.56	1966.05
418.77	2146.27
418.97	1974.24
419.18	1935.33
419.38	1798.12
419.59	1941.47
419.80	2097.12
420.00	1996.77
420.21	2015.20
420.42	1980.39
420.62	2023.39
420.83	1896.42
421.04	1923.04
421.24	1978.34
421.45	2019.30
421.65	1980.39
421.86	1964.00
422.07	1974.24
422.27	1966.05
422.48	1937.38
422.69	1855.46
422.89	1988.58
423.10	1906.66
423.30	1882.08
423.51	1992.67
423.72	1970.15
423.92	2033.63
424.13	1824.74
424.33	1941.47
424.54	2045.92
424.75	1978.34
424.95	2076.64
425.16	1966.05
425.36	1929.19
425.57	2066.40
425.78	1972.19
425.98	2013.15
426.19	1910.75
426.39	1900.52
426.60	2045.92
426.81	2058.21
427.01	1935.33
427.22	1914.85
427.42	1910.75
427.63	1927.14
427.83	1996.77
428.04	2064.35
428.25	1986.53
428.45	2025.44
428.66	2131.94
428.86	1990.63
429.07	1974.24
429.28	1935.33
429.48	1964.00
429.69	1851.36
429.89	1996.77
430.10	1806.31
430.30	1992.67
430.51	2052.06
430.71	1892.32
430.92	1912.80
431.13	1949.67
431.33	1955.81
431.54	2004.96
431.74	2111.46
431.95	2160.61
432.15	1832.93
432.36	1986.53
432.56	2031.58
432.77	2004.96
432.98	2031.58
433.18	2007.01
433.39	1968.10
433.59	1923.04
433.80	2121.70
434.00	2172.89
434.21	1918.95
434.41	1929.19
434.62	2181.09
434.82	1890.28
435.03	1900.52
435.23	1998.82
435.44	1886.18
435.64	1943.52
435.85	1966.05
436.06	1990.63
436.26	2107.36
436.47	1949.67
436.67	1873.89
436.88	1914.85
437.08	2017.25
437.29	2179.04
437.49	1986.53
437.70	2027.49
437.90	1978.34
438.11	2140.13
438.31	1982.43
438.52	2244.57
438.72	2160.61
438.93	2258.91
439.13	2107.36
439.34	2095.07
439.54	1990.63
439.75	2035.68
439.95	2097.12
440.16	1931.23
440.36	2017.25
440.57	2054.11
440.77	1980.39
440.98	1873.89
441.18	2004.96
441.39	1933.28
441.59	1988.58
441.80	2105.31
442.00	1976.29
442.21	2133.98
442.41	1886.18
442.62	2080.74
442.82	1949.67
443.02	1933.28
443.23	2013.15
443.43	1906.66
443.64	2050.02
443.84	1968.10
444.05	2107.36
444.25	1984.48
444.46	1976.29
444.66	1998.82
444.87	2113.50
445.07	1861.60
445.28	2000.87
445.48	2082.78
445.69	1939.43
445.89	2185.18
446.09	2021.35
446.30	2265.05
446.50	2629.59
446.71	4157.38
446.91	5302.19
447.12	6125.47
447.32	6549.40
447.53	5996.45
447.73	5023.67
447.93	4292.54
448.14	3946.44
448.34	3723.21
448.55	3422.16
448.75	3383.24
448.96	3131.34
449.16	2768.85
449.36	2713.56
449.57	2314.20
449.77	2138.08
449.98	2021.35
450.18	1964.00
450.39	2076.64
450.59	2021.35
450.79	2039.78
451.00	1896.42
451.20	2039.78
451.41	1982.43
451.61	2086.88
451.81	2039.78
452.02	1929.19
452.22	1945.57
452.43	1871.84
452.63	1933.28
