SpectraSuite Data File
++++++++++++++++++++++++++++++++++++
Date: Wed May 04 22:45:56 CEST 2016
User: root
Dark Spectrum Present: No
Reference Spectrum Present: No
Number of Sampled Component Spectra: 1
Spectrometers: USB4C02835
Integration Time (usec): 100000 (USB4C02835)
Spectra Averaged: 1 (USB4C02835)
Boxcar Smoothing: 0 (USB4C02835)
Correct for Electrical Dark: No (USB4C02835)
Strobe/Lamp Enabled: No (USB4C02835)
Correct for Detector Non-linearity: No (USB4C02835)
Correct for Stray Light: No (USB4C02835)
Number of Pixels in Processed Spectrum: 3648
>>>>>Begin Processed Spectral Data<<<<<
177.47	1675.24
177.69	1675.24
177.91	1675.24
178.13	1611.75
178.36	1654.76
178.58	1871.84
178.80	2002.91
179.02	1822.69
179.24	1873.89
179.46	1898.47
179.68	1982.43
179.90	1933.28
180.13	1894.37
180.35	1970.15
180.57	1888.23
180.79	1974.24
181.01	1935.33
181.23	2045.92
181.45	2050.02
181.67	2088.93
181.90	2043.87
182.12	1886.18
182.34	1832.93
182.56	1966.05
182.78	2007.01
183.00	1902.56
183.22	1925.09
183.44	1761.25
183.66	2160.61
183.89	1990.63
184.11	1933.28
184.33	2009.06
184.55	1984.48
184.77	1931.23
184.99	1935.33
185.21	1890.28
185.43	2152.42
185.65	1861.60
185.87	1931.23
186.10	2119.65
186.32	2158.56
186.54	1920.99
186.76	1998.82
186.98	2025.44
187.20	1984.48
187.42	1959.91
187.64	1974.24
187.86	2015.20
188.08	1998.82
188.30	1900.52
188.52	1912.80
188.75	2101.22
188.97	2064.35
189.19	1861.60
189.41	1900.52
189.63	1982.43
189.85	1925.09
190.07	1839.08
190.29	1861.60
190.51	1992.67
190.73	1886.18
190.95	1980.39
191.17	1955.81
191.39	1884.13
191.61	1871.84
191.84	1890.28
192.06	1988.58
192.28	1908.71
192.50	2152.42
192.72	1974.24
192.94	1943.52
193.16	2011.11
193.38	2017.25
193.60	1914.85
193.82	1974.24
194.04	2015.20
194.26	1961.95
194.48	1972.19
194.70	1904.61
194.92	1863.65
195.14	1931.23
195.36	1851.36
195.58	1914.85
195.80	1964.00
196.02	1896.42
196.24	1925.09
196.46	2037.73
196.69	1939.43
196.91	2193.37
197.13	1896.42
197.35	1886.18
197.57	2062.30
197.79	1970.15
198.01	1959.91
198.23	2035.68
198.45	1943.52
198.67	1865.70
198.89	1974.24
199.11	2043.87
199.33	1918.95
199.55	1779.68
199.77	1935.33
199.99	2066.40
200.21	1937.38
200.43	2015.20
200.65	1855.46
200.87	1736.68
201.09	1947.62
201.31	2050.02
201.53	1945.57
201.75	1916.90
201.97	2007.01
202.19	2017.25
202.41	2023.39
202.63	2127.84
202.85	2013.15
203.07	2000.87
203.29	1904.61
203.51	1898.47
203.73	1955.81
203.95	2207.71
204.17	1927.14
204.39	1957.86
204.61	1908.71
204.83	1902.56
205.05	1947.62
205.27	1955.81
205.49	2162.66
205.71	1892.32
205.93	1816.55
206.15	1839.08
206.37	1992.67
206.59	1949.67
206.81	1904.61
207.03	1890.28
207.25	1925.09
207.47	2000.87
207.69	1970.15
207.91	1914.85
208.13	2080.74
208.34	1857.51
208.56	1873.89
208.78	1923.04
209.00	1929.19
209.22	1906.66
209.44	1933.28
209.66	1920.99
209.88	1941.47
210.10	1972.19
210.32	1873.89
210.54	2023.39
210.76	1904.61
210.98	2045.92
211.20	1820.64
211.42	2021.35
211.64	2035.68
211.86	1972.19
212.08	1970.15
212.30	1951.71
212.52	1923.04
212.74	2045.92
212.96	1867.75
213.17	1976.29
213.39	2058.21
213.61	2117.60
213.83	1978.34
214.05	1910.75
214.27	2002.91
214.49	1902.56
214.71	1865.70
214.93	2007.01
215.15	2023.39
215.37	2052.06
215.59	1812.45
215.81	2023.39
216.03	1986.53
216.24	1947.62
216.46	1898.47
216.68	1974.24
216.90	1966.05
217.12	2047.97
217.34	1906.66
217.56	1988.58
217.78	2056.16
218.00	1957.86
218.22	1968.10
218.44	1974.24
218.66	1961.95
218.87	2045.92
219.09	1953.76
219.31	1920.99
219.53	2007.01
219.75	1910.75
219.97	1955.81
220.19	2058.21
220.41	1951.71
220.63	2035.68
220.85	2000.87
221.06	1886.18
221.28	1986.53
221.50	1992.67
221.72	1916.90
221.94	1927.14
222.16	1982.43
222.38	2029.54
222.60	2031.58
222.82	1964.00
223.03	2045.92
223.25	1890.28
223.47	1935.33
223.69	2037.73
223.91	1910.75
224.13	1994.72
224.35	1912.80
224.57	2017.25
224.78	1972.19
225.00	1886.18
225.22	1925.09
225.44	1918.95
225.66	1990.63
225.88	1949.67
226.10	1988.58
226.32	1931.23
226.53	1988.58
226.75	1875.94
226.97	1968.10
227.19	1966.05
227.41	1908.71
227.63	1912.80
227.85	1818.60
228.06	1884.13
228.28	1968.10
228.50	2119.65
228.72	1904.61
228.94	1896.42
229.16	1841.12
229.37	1814.50
229.59	1851.36
229.81	2004.96
230.03	1972.19
230.25	1839.08
230.47	1865.70
230.69	1826.79
230.90	2009.06
231.12	1951.71
231.34	1996.77
231.56	2068.45
231.78	1863.65
232.00	1992.67
232.21	1914.85
232.43	1900.52
232.65	1767.40
232.87	2035.68
233.09	1918.95
233.30	1884.13
233.52	1980.39
233.74	1925.09
233.96	1976.29
234.18	1920.99
234.40	1916.90
234.61	2162.66
234.83	1896.42
235.05	1859.56
235.27	2129.89
235.49	2093.02
235.70	1933.28
235.92	2027.49
236.14	1923.04
236.36	2164.70
236.58	1892.32
236.79	1970.15
237.01	1941.47
237.23	1970.15
237.45	2074.59
237.67	1884.13
237.88	1933.28
238.10	2093.02
238.32	1812.45
238.54	1927.14
238.76	1964.00
238.97	1886.18
239.19	1886.18
239.41	1941.47
239.63	2168.80
239.85	1943.52
240.06	1937.38
240.28	1912.80
240.50	2060.26
240.72	1966.05
240.93	1900.52
241.15	2037.73
241.37	1955.81
241.59	2017.25
241.81	1912.80
242.02	1939.43
242.24	1949.67
242.46	1980.39
242.68	1925.09
242.89	1906.66
243.11	2027.49
243.33	1947.62
243.55	1978.34
243.76	1964.00
243.98	1927.14
244.20	1914.85
244.42	1888.23
244.64	1990.63
244.85	1892.32
245.07	1925.09
245.29	1994.72
245.51	1982.43
245.72	1916.90
245.94	1974.24
246.16	1972.19
246.38	1998.82
246.59	1898.47
246.81	1918.95
247.03	1839.08
247.24	1839.08
247.46	1970.15
247.68	1988.58
247.90	1955.81
248.11	1914.85
248.33	2000.87
248.55	1955.81
248.77	1968.10
248.98	2009.06
249.20	2123.74
249.42	1939.43
249.64	1910.75
249.85	1867.75
250.07	1925.09
250.29	2025.44
250.50	1992.67
250.72	1892.32
250.94	2007.01
251.16	2066.40
251.37	1988.58
251.59	1951.71
251.81	2013.15
252.02	2103.26
252.24	1896.42
252.46	2033.63
252.68	1884.13
252.89	1857.51
253.11	1882.08
253.33	2050.02
253.54	2074.59
253.76	1894.37
253.98	1880.04
254.20	1929.19
254.41	1837.03
254.63	1988.58
254.85	1824.74
255.06	1970.15
255.28	1957.86
255.50	1964.00
255.71	1904.61
255.93	1849.32
256.15	1970.15
256.36	2002.91
256.58	1888.23
256.80	1949.67
257.02	1939.43
257.23	1972.19
257.45	1867.75
257.67	1992.67
257.88	1857.51
258.10	1957.86
258.32	1974.24
258.53	1925.09
258.75	2037.73
258.97	1904.61
259.18	1918.95
259.40	2013.15
259.62	2146.27
259.83	2070.50
260.05	1988.58
260.27	2308.06
260.48	1980.39
260.70	1906.66
260.92	1949.67
261.13	1892.32
261.35	1980.39
261.57	1931.23
261.78	1843.17
262.00	1916.90
262.22	2054.11
262.43	1849.32
262.65	1869.80
262.86	1894.37
263.08	2105.31
263.30	1976.29
263.51	1855.46
263.73	1966.05
263.95	2097.12
264.16	1927.14
264.38	1894.37
264.60	1859.56
264.81	1951.71
265.03	2041.82
265.25	2015.20
265.46	1945.57
265.68	2019.30
265.89	1996.77
266.11	1845.22
266.33	1957.86
266.54	2090.98
266.76	2002.91
266.98	1986.53
267.19	2007.01
267.41	2103.26
267.62	1959.91
267.84	1873.89
268.06	1933.28
268.27	1951.71
268.49	1998.82
268.70	1966.05
268.92	1898.47
269.14	1918.95
269.35	1863.65
269.57	1986.53
269.79	2027.49
270.00	1918.95
270.22	2084.83
270.43	1849.32
270.65	1730.53
270.87	1912.80
271.08	1964.00
271.30	1953.76
271.51	1957.86
271.73	2050.02
271.95	1998.82
272.16	1984.48
272.38	2025.44
272.59	1882.08
272.81	1959.91
273.02	2002.91
273.24	1957.86
273.46	1994.72
273.67	1943.52
273.89	1884.13
274.10	1949.67
274.32	2023.39
274.54	1918.95
274.75	2002.91
274.97	1873.89
275.18	2029.54
275.40	1970.15
275.61	1941.47
275.83	1925.09
276.05	1898.47
276.26	1920.99
276.48	1945.57
276.69	1865.70
276.91	1892.32
277.12	2086.88
277.34	2041.82
277.55	2023.39
277.77	1996.77
277.99	1912.80
278.20	1841.12
278.42	1888.23
278.63	1828.84
278.85	1931.23
279.06	1898.47
279.28	1896.42
279.49	2050.02
279.71	2039.78
279.93	1984.48
280.14	1976.29
280.36	1851.36
280.57	2037.73
280.79	2074.59
281.00	1951.71
281.22	1890.28
281.43	2072.54
281.65	1779.68
281.86	1929.19
282.08	1982.43
282.29	2111.46
282.51	1884.13
282.73	1830.88
282.94	1867.75
283.16	1931.23
283.37	2050.02
283.59	2025.44
283.80	1949.67
284.02	1882.08
284.23	1974.24
284.45	1978.34
284.66	1896.42
284.88	1947.62
285.09	1953.76
285.31	2070.50
285.52	2031.58
285.74	1914.85
285.95	1994.72
286.17	1951.71
286.38	2056.16
286.60	1882.08
286.81	1880.04
287.03	1980.39
287.24	1964.00
287.46	2023.39
287.67	1935.33
287.89	2093.02
288.10	1943.52
288.32	1941.47
288.53	2078.69
288.75	1984.48
288.96	1947.62
289.18	1933.28
289.39	1841.12
289.61	2054.11
289.82	2117.60
290.04	2148.32
290.25	1859.56
290.47	1984.48
290.68	1904.61
290.90	2033.63
291.11	1898.47
291.33	1964.00
291.54	1841.12
291.76	1863.65
291.97	2054.11
292.18	1961.95
292.40	1892.32
292.61	1972.19
292.83	2066.40
293.04	2002.91
293.26	2013.15
293.47	1964.00
293.69	1886.18
293.90	1832.93
294.12	1980.39
294.33	1970.15
294.55	2031.58
294.76	2041.82
294.97	2062.30
295.19	2121.70
295.40	1912.80
295.62	1996.77
295.83	1998.82
296.05	1892.32
296.26	1972.19
296.48	1894.37
296.69	1945.57
296.90	1970.15
297.12	1990.63
297.33	2011.11
297.55	1959.91
297.76	2004.96
297.98	1998.82
298.19	1964.00
298.41	1920.99
298.62	1843.17
298.83	2078.69
299.05	2009.06
299.26	1937.38
299.48	1859.56
299.69	2000.87
299.90	1935.33
300.12	1884.13
300.33	2045.92
300.55	1937.38
300.76	2058.21
300.98	1843.17
301.19	2037.73
301.40	1900.52
301.62	1935.33
301.83	2017.25
302.05	1957.86
302.26	1912.80
302.47	1941.47
302.69	1892.32
302.90	1955.81
303.12	1824.74
303.33	1990.63
303.54	2140.13
303.76	1925.09
303.97	1970.15
304.19	2140.13
304.40	1845.22
304.61	1984.48
304.83	2127.84
305.04	2142.18
305.26	1964.00
305.47	1933.28
305.68	1996.77
305.90	1851.36
306.11	2054.11
306.33	1902.56
306.54	1994.72
306.75	1937.38
306.97	1906.66
307.18	1806.31
307.39	1961.95
307.61	1970.15
307.82	2025.44
308.04	1976.29
308.25	1912.80
308.46	1931.23
308.68	1900.52
308.89	1896.42
309.10	2062.30
309.32	1990.63
309.53	1994.72
309.74	1968.10
309.96	1964.00
310.17	1966.05
310.39	1890.28
310.60	2017.25
310.81	1947.62
311.03	1839.08
311.24	2062.30
311.45	1992.67
311.67	2131.94
311.88	1978.34
312.09	1947.62
312.31	1820.64
312.52	1898.47
312.73	1974.24
312.95	1875.94
313.16	1875.94
313.37	1988.58
313.59	1949.67
313.80	2080.74
314.01	2031.58
314.23	1970.15
314.44	1861.60
314.65	1925.09
314.87	1914.85
315.08	1927.14
315.29	1914.85
315.51	1851.36
315.72	1849.32
315.93	2103.26
316.15	1970.15
316.36	1974.24
316.57	1974.24
316.79	1990.63
317.00	1916.90
317.21	1964.00
317.43	1886.18
317.64	1966.05
317.85	1880.04
318.07	1972.19
318.28	1988.58
318.49	2070.50
318.70	2314.20
318.92	2138.08
319.13	2156.51
319.34	2197.47
319.56	2101.22
319.77	2150.37
319.98	2152.42
320.20	2107.36
320.41	2033.63
320.62	2019.30
320.83	1896.42
321.05	2140.13
321.26	2013.15
321.47	1955.81
321.69	2052.06
321.90	1904.61
322.11	1830.88
322.32	1925.09
322.54	2090.98
322.75	1914.85
322.96	2138.08
323.18	1873.89
323.39	1853.41
323.60	1845.22
323.81	1953.76
324.03	1845.22
324.24	2000.87
324.45	1996.77
324.66	1892.32
324.88	2076.64
325.09	2105.31
325.30	1877.99
325.52	1974.24
325.73	2025.44
325.94	1875.94
326.15	1898.47
326.37	1953.76
326.58	2047.97
326.79	2033.63
327.00	1912.80
327.22	1890.28
327.43	1929.19
327.64	1925.09
327.85	2011.11
328.07	1931.23
328.28	2090.98
328.49	1939.43
328.70	1906.66
328.92	1955.81
329.13	1929.19
329.34	1916.90
329.55	2045.92
329.76	2037.73
329.98	1943.52
330.19	2119.65
330.40	1994.72
330.61	1900.52
330.83	1966.05
331.04	1859.56
331.25	1916.90
331.46	1968.10
331.68	1859.56
331.89	2052.06
332.10	1994.72
332.31	1755.11
332.52	1914.85
332.74	2000.87
332.95	1851.36
333.16	1894.37
333.37	2029.54
333.58	1896.42
333.80	2074.59
334.01	1869.80
334.22	2019.30
334.43	1877.99
334.64	1920.99
334.86	1820.64
335.07	1912.80
335.28	2084.83
335.49	1877.99
335.70	2009.06
335.92	2004.96
336.13	2146.27
336.34	2000.87
336.55	2023.39
336.76	2045.92
336.98	1826.79
337.19	1923.04
337.40	2078.69
337.61	2113.50
337.82	1957.86
338.04	2078.69
338.25	1845.22
338.46	1986.53
338.67	1955.81
338.88	1830.88
339.09	1859.56
339.31	1847.27
339.52	1896.42
339.73	1894.37
339.94	1933.28
340.15	2058.21
340.36	1869.80
340.58	2002.91
340.79	1830.88
341.00	1949.67
341.21	1898.47
341.42	2039.78
341.63	2000.87
341.85	2013.15
342.06	1953.76
342.27	1937.38
342.48	1943.52
342.69	1863.65
342.90	1949.67
343.12	2004.96
343.33	2004.96
343.54	1978.34
343.75	2037.73
343.96	1890.28
344.17	1875.94
344.38	1939.43
344.60	1914.85
344.81	1859.56
345.02	1939.43
345.23	2109.41
345.44	2166.75
345.65	2052.06
345.86	2050.02
346.07	1875.94
346.29	1945.57
346.50	2000.87
346.71	1953.76
346.92	2070.50
347.13	2090.98
347.34	1931.23
347.55	1982.43
347.76	1925.09
347.98	1832.93
348.19	1978.34
348.40	2066.40
348.61	1888.23
348.82	2109.41
349.03	1949.67
349.24	1906.66
349.45	2097.12
349.66	1857.51
349.88	1968.10
350.09	1900.52
350.30	2088.93
350.51	2035.68
350.72	1959.91
350.93	1941.47
351.14	1884.13
351.35	2037.73
351.56	1916.90
351.77	1961.95
351.99	1982.43
352.20	2050.02
352.41	2070.50
352.62	1806.31
352.83	1937.38
353.04	2035.68
353.25	1951.71
353.46	2090.98
353.67	1982.43
353.88	1867.75
354.09	1949.67
354.30	1937.38
354.52	2013.15
354.73	1961.95
354.94	1918.95
355.15	1896.42
355.36	2029.54
355.57	1912.80
355.78	2039.78
355.99	1869.80
356.20	1966.05
356.41	2101.22
356.62	2007.01
356.83	2004.96
357.04	2027.49
357.25	1783.78
357.46	1970.15
357.68	1902.56
357.89	1855.46
358.10	1912.80
358.31	2037.73
358.52	1882.08
358.73	1871.84
358.94	1853.41
359.15	1931.23
359.36	1994.72
359.57	1976.29
359.78	1986.53
359.99	2023.39
360.20	1916.90
360.41	1953.76
360.62	1984.48
360.83	1980.39
361.04	1898.47
361.25	1931.23
361.46	2058.21
361.67	1970.15
361.88	2033.63
362.09	2035.68
362.30	2031.58
362.51	1886.18
362.72	2011.11
362.93	1988.58
363.14	1933.28
363.35	1959.91
363.56	1923.04
363.78	2056.16
363.99	2002.91
364.20	1890.28
364.41	1996.77
364.62	2109.41
364.83	1902.56
365.04	2029.54
365.25	1933.28
365.46	2162.66
365.67	1931.23
365.88	1951.71
366.09	1949.67
366.30	1857.51
366.51	1908.71
366.72	1925.09
366.93	1959.91
367.14	1976.29
367.35	2013.15
367.56	1974.24
367.77	2086.88
367.98	1902.56
368.18	1980.39
368.39	2011.11
368.60	1859.56
368.81	2050.02
369.02	1984.48
369.23	1927.14
369.44	1783.78
369.65	1867.75
369.86	2019.30
370.07	2056.16
370.28	1894.37
370.49	2039.78
370.70	2011.11
370.91	1841.12
371.12	1912.80
371.33	2027.49
371.54	1910.75
371.75	2086.88
371.96	1779.68
372.17	1900.52
372.38	1978.34
372.59	2000.87
372.80	1943.52
373.01	1927.14
373.22	2056.16
373.43	1976.29
373.64	1818.60
373.85	1998.82
374.06	2109.41
374.26	2002.91
374.47	1925.09
374.68	1992.67
374.89	2033.63
375.10	1923.04
375.31	2025.44
375.52	1998.82
375.73	1925.09
375.94	1910.75
376.15	2050.02
376.36	1896.42
376.57	1826.79
376.78	2002.91
376.99	1927.14
377.20	2076.64
377.40	2029.54
377.61	2058.21
377.82	1961.95
378.03	2043.87
378.24	1992.67
378.45	1943.52
378.66	1976.29
378.87	1810.40
379.08	1882.08
379.29	1898.47
379.50	2035.68
379.71	2009.06
379.91	2035.68
380.12	1966.05
380.33	1998.82
380.54	2013.15
380.75	1904.61
380.96	1939.43
381.17	2041.82
381.38	1955.81
381.59	1966.05
381.80	1974.24
382.00	2129.89
382.21	1984.48
382.42	2033.63
382.63	2301.92
382.84	2021.35
383.05	2074.59
383.26	2127.84
383.47	1978.34
383.68	2011.11
383.88	2045.92
384.09	1951.71
384.30	2103.26
384.51	1980.39
384.72	1955.81
384.93	1910.75
385.14	1984.48
385.35	2123.74
385.55	1923.04
385.76	2090.98
385.97	1941.47
386.18	1955.81
386.39	1880.04
386.60	1908.71
386.81	1941.47
387.02	1925.09
387.22	1871.84
387.43	2144.22
387.64	1984.48
387.85	2076.64
388.06	2199.52
388.27	4042.69
388.48	8681.34
388.68	12121.93
388.89	14262.05
389.10	15531.80
389.31	14212.90
389.52	11122.52
389.73	9715.56
389.93	8871.80
390.14	7995.27
390.35	7380.88
390.56	6543.26
390.77	5402.54
390.98	4036.55
391.18	3200.98
391.39	2498.52
391.60	2187.23
391.81	2244.57
392.02	1964.00
392.23	2154.46
392.43	2002.91
392.64	2119.65
392.85	1937.38
393.06	2101.22
393.27	1920.99
393.47	1890.28
393.68	2019.30
393.89	1978.34
394.10	2004.96
394.31	1908.71
394.52	1918.95
394.72	1910.75
394.93	2064.35
395.14	1927.14
395.35	2033.63
395.56	1892.32
395.76	1884.13
395.97	1996.77
396.18	2056.16
396.39	2119.65
396.60	2453.47
396.80	2220.00
397.01	2054.11
397.22	2113.50
397.43	2199.52
397.64	1986.53
397.84	2117.60
398.05	2170.85
398.26	1996.77
398.47	2080.74
398.67	2054.11
398.88	1943.52
399.09	1957.86
399.30	1964.00
399.51	1947.62
399.71	1880.04
399.92	1937.38
400.13	1929.19
400.34	1951.71
400.54	1968.10
400.75	2037.73
400.96	1974.24
401.17	2076.64
401.37	2019.30
401.58	1957.86
401.79	2004.96
402.00	2052.06
402.21	2316.25
402.41	2346.97
402.62	2396.12
402.83	2445.27
403.04	2353.12
403.24	2473.95
403.45	2133.98
403.66	2195.42
403.87	2205.66
404.07	2205.66
404.28	2220.00
404.49	2105.31
404.70	2109.41
404.90	2095.07
405.11	1992.67
405.32	1951.71
405.52	1941.47
405.73	2019.30
405.94	1871.84
406.15	1961.95
406.35	1988.58
406.56	2025.44
406.77	2031.58
406.98	1951.71
407.18	1914.85
407.39	2025.44
407.60	1998.82
407.80	2013.15
408.01	1998.82
408.22	2072.54
408.43	1898.47
408.63	2066.40
408.84	2013.15
409.05	2021.35
409.25	1832.93
409.46	1947.62
409.67	1916.90
409.88	1941.47
410.08	1982.43
410.29	1925.09
410.50	2041.82
410.70	1927.14
410.91	1974.24
411.12	1955.81
411.32	1976.29
411.53	1912.80
411.74	2029.54
411.95	2111.46
412.15	2068.45
412.36	2082.78
412.57	2111.46
412.77	2062.30
412.98	2019.30
413.19	1910.75
413.39	2047.97
413.60	2004.96
413.81	2101.22
414.01	1959.91
414.22	2043.87
414.43	1988.58
414.63	1992.67
414.84	1959.91
415.05	1912.80
415.25	1867.75
415.46	1968.10
415.67	1937.38
415.87	2004.96
416.08	1982.43
416.29	1941.47
416.49	1978.34
416.70	1939.43
416.91	1972.19
417.11	1920.99
417.32	2066.40
417.53	2004.96
417.73	2000.87
417.94	1982.43
418.15	1912.80
418.35	1992.67
418.56	1961.95
418.77	2097.12
418.97	1929.19
419.18	1943.52
419.38	1810.40
419.59	1908.71
419.80	2095.07
420.00	1882.08
420.21	1986.53
420.42	1976.29
420.62	1970.15
420.83	1861.60
421.04	2011.11
421.24	1982.43
421.45	2072.54
421.65	1994.72
421.86	1880.04
422.07	1953.76
422.27	2004.96
422.48	2011.11
422.69	1910.75
422.89	1996.77
423.10	1949.67
423.30	1873.89
423.51	1996.77
423.72	1931.23
423.92	2017.25
424.13	1826.79
424.33	1920.99
424.54	1955.81
424.75	1986.53
424.95	2078.69
425.16	1994.72
425.36	1964.00
425.57	2002.91
425.78	2004.96
425.98	2035.68
426.19	1968.10
426.39	1904.61
426.60	1925.09
426.81	2027.49
427.01	2009.06
427.22	1894.37
427.42	1814.50
427.63	1880.04
427.83	1990.63
428.04	2023.39
428.25	2035.68
428.45	2074.59
428.66	2095.07
428.86	1968.10
429.07	1941.47
429.28	1933.28
429.48	1943.52
429.69	1888.23
429.89	1976.29
430.10	1877.99
430.30	1972.19
430.51	2066.40
430.71	1839.08
430.92	1984.48
431.13	1931.23
431.33	1935.33
431.54	1912.80
431.74	2037.73
431.95	2117.60
432.15	1865.70
432.36	1972.19
432.56	1970.15
432.77	2117.60
432.98	2140.13
433.18	1968.10
433.39	1974.24
433.59	1902.56
433.80	2111.46
434.00	2174.94
434.21	1890.28
434.41	1867.75
434.62	2203.61
434.82	1898.47
435.03	1890.28
435.23	1984.48
435.44	1888.23
435.64	1890.28
435.85	1933.28
436.06	2004.96
436.26	2015.20
436.47	1894.37
436.67	1996.77
436.88	1939.43
437.08	2021.35
437.29	2050.02
437.49	1955.81
437.70	1996.77
437.90	1980.39
438.11	2090.98
438.31	2033.63
438.52	2158.56
438.72	2174.94
438.93	2236.38
439.13	2146.27
439.34	2121.70
439.54	2068.45
439.75	2064.35
439.95	2131.94
440.16	1943.52
440.36	2041.82
440.57	2027.49
440.77	2052.06
440.98	2066.40
441.18	2078.69
441.39	2002.91
441.59	1900.52
441.80	2142.18
442.00	1996.77
442.21	2000.87
442.41	1961.95
442.62	2035.68
442.82	1906.66
443.02	1961.95
443.23	1996.77
443.43	1996.77
443.64	2047.97
443.84	1964.00
444.05	2125.79
444.25	1994.72
444.46	1863.65
444.66	2047.97
444.87	2033.63
445.07	1873.89
445.28	2025.44
445.48	2068.45
445.69	2017.25
445.89	2164.70
446.09	1959.91
446.30	2326.49
446.50	2639.83
446.71	4190.14
446.91	5502.89
447.12	6150.05
447.32	6539.16
447.53	6018.98
447.73	4851.64
447.93	4278.21
448.14	3934.15
448.34	3809.22
448.55	3471.31
448.75	3393.48
448.96	3078.10
449.16	2838.48
449.36	2617.30
449.57	2342.88
449.77	2195.42
449.98	2031.58
450.18	2090.98
450.39	2052.06
450.59	2082.78
450.79	1982.43
451.00	1873.89
451.20	2013.15
451.41	1955.81
451.61	2000.87
451.81	2007.01
452.02	2013.15
452.22	1968.10
452.43	1992.67
452.63	1910.75
