SpectraSuite Data File
++++++++++++++++++++++++++++++++++++
Date: Wed May 04 22:46:06 CEST 2016
User: root
Dark Spectrum Present: No
Reference Spectrum Present: No
Number of Sampled Component Spectra: 1
Spectrometers: USB4C02835
Integration Time (usec): 100000 (USB4C02835)
Spectra Averaged: 1 (USB4C02835)
Boxcar Smoothing: 0 (USB4C02835)
Correct for Electrical Dark: No (USB4C02835)
Strobe/Lamp Enabled: No (USB4C02835)
Correct for Detector Non-linearity: No (USB4C02835)
Correct for Stray Light: No (USB4C02835)
Number of Pixels in Processed Spectrum: 3648
>>>>>Begin Processed Spectral Data<<<<<
177.47	1671.14
177.69	1671.14
177.91	1671.14
178.13	1716.20
178.36	1628.14
178.58	1933.28
178.80	1933.28
179.02	1898.47
179.24	1865.70
179.46	1898.47
179.68	2009.06
179.90	1884.13
180.13	1980.39
180.35	1898.47
180.57	1947.62
180.79	2052.06
181.01	1990.63
181.23	2013.15
181.45	2103.26
181.67	1972.19
181.90	1984.48
182.12	1898.47
182.34	1810.40
182.56	1966.05
182.78	1925.09
183.00	1923.04
183.22	1925.09
183.44	1787.88
183.66	2148.32
183.89	2058.21
184.11	2000.87
184.33	2064.35
184.55	2007.01
184.77	1970.15
184.99	2019.30
185.21	1970.15
185.43	2121.70
185.65	1918.95
185.87	1918.95
186.10	2115.55
186.32	2183.13
186.54	1947.62
186.76	1961.95
186.98	2095.07
187.20	1949.67
187.42	1914.85
187.64	1931.23
187.86	1972.19
188.08	1998.82
188.30	1918.95
188.52	2000.87
188.75	1992.67
188.97	2062.30
189.19	1933.28
189.41	1869.80
189.63	1959.91
189.85	1978.34
190.07	1839.08
190.29	1859.56
190.51	2002.91
190.73	1896.42
190.95	2000.87
191.17	1959.91
191.39	1867.75
191.61	1894.37
191.84	1857.51
192.06	1929.19
192.28	1802.21
192.50	2203.61
192.72	1914.85
192.94	1865.70
193.16	2041.82
193.38	1929.19
193.60	1865.70
193.82	1959.91
194.04	2076.64
194.26	1986.53
194.48	2004.96
194.70	1837.03
194.92	1951.71
195.14	1955.81
195.36	1861.60
195.58	1980.39
195.80	1990.63
196.02	1951.71
196.24	1925.09
196.46	1855.46
196.69	1914.85
196.91	2162.66
197.13	1859.56
197.35	1882.08
197.57	2101.22
197.79	1992.67
198.01	2002.91
198.23	2056.16
198.45	1996.77
198.67	1851.36
198.89	1976.29
199.11	1906.66
199.33	1851.36
199.55	1783.78
199.77	1941.47
199.99	2041.82
200.21	1820.64
200.43	2017.25
200.65	1834.98
200.87	1722.34
201.09	1970.15
201.31	1910.75
201.53	2086.88
201.75	1968.10
201.97	1982.43
202.19	1875.94
202.41	2007.01
202.63	2084.83
202.85	2027.49
203.07	1974.24
203.29	1912.80
203.51	1847.27
203.73	1910.75
203.95	2217.95
204.17	1941.47
204.39	1916.90
204.61	1898.47
204.83	1994.72
205.05	1972.19
205.27	2037.73
205.49	2125.79
205.71	1970.15
205.93	1851.36
206.15	1920.99
206.37	1980.39
206.59	1939.43
206.81	1851.36
207.03	1966.05
207.25	1859.56
207.47	1972.19
207.69	1966.05
207.91	2013.15
208.13	2037.73
208.34	1914.85
208.56	1947.62
208.78	1943.52
209.00	1904.61
209.22	1908.71
209.44	1953.76
209.66	1935.33
209.88	2045.92
210.10	1871.84
210.32	1914.85
210.54	2047.97
210.76	1992.67
210.98	2017.25
211.20	1775.59
211.42	1918.95
211.64	1990.63
211.86	2043.87
212.08	2013.15
212.30	1890.28
212.52	1923.04
212.74	1984.48
212.96	1908.71
213.17	1994.72
213.39	2025.44
213.61	2064.35
213.83	1884.13
214.05	1986.53
214.27	2025.44
214.49	1927.14
214.71	1904.61
214.93	2021.35
215.15	2004.96
215.37	2033.63
215.59	1861.60
215.81	1929.19
216.03	2062.30
216.24	1925.09
216.46	1933.28
216.68	1906.66
216.90	2002.91
217.12	2017.25
217.34	1970.15
217.56	2029.54
217.78	2047.97
218.00	1994.72
218.22	1933.28
218.44	1955.81
218.66	1974.24
218.87	2097.12
219.09	1918.95
219.31	1957.86
219.53	1992.67
219.75	1912.80
219.97	1974.24
220.19	2009.06
220.41	1951.71
220.63	2074.59
220.85	1957.86
221.06	1920.99
221.28	2011.11
221.50	2015.20
221.72	1923.04
221.94	1890.28
222.16	1978.34
222.38	2080.74
222.60	1968.10
222.82	1900.52
223.03	2037.73
223.25	1871.84
223.47	2000.87
223.69	2131.94
223.91	2019.30
224.13	2013.15
224.35	1937.38
224.57	2013.15
224.78	1982.43
225.00	1906.66
225.22	1912.80
225.44	1992.67
225.66	2002.91
225.88	1927.14
226.10	1984.48
226.32	1892.32
226.53	2050.02
226.75	1912.80
226.97	1908.71
227.19	1968.10
227.41	1884.13
227.63	1855.46
227.85	1851.36
228.06	1929.19
228.28	1998.82
228.50	1961.95
228.72	1789.92
228.94	1949.67
229.16	1806.31
229.37	1904.61
229.59	1961.95
229.81	2027.49
230.03	1896.42
230.25	1884.13
230.47	1877.99
230.69	1890.28
230.90	1968.10
231.12	1988.58
231.34	1966.05
231.56	2002.91
231.78	1966.05
232.00	1869.80
232.21	1953.76
232.43	1945.57
232.65	1857.51
232.87	1902.56
233.09	1806.31
233.30	1888.23
233.52	2070.50
233.74	1859.56
233.96	1935.33
234.18	1996.77
234.40	1925.09
234.61	2084.83
234.83	1847.27
235.05	1918.95
235.27	2150.37
235.49	2009.06
235.70	1931.23
235.92	1978.34
236.14	1890.28
236.36	2146.27
236.58	1910.75
236.79	2060.26
237.01	1927.14
237.23	1914.85
237.45	2080.74
237.67	1855.46
237.88	2037.73
238.10	2123.74
238.32	1828.84
238.54	1964.00
238.76	1935.33
238.97	1951.71
239.19	1894.37
239.41	1964.00
239.63	1982.43
239.85	1943.52
240.06	1918.95
240.28	1935.33
240.50	2021.35
240.72	2004.96
240.93	1908.71
241.15	1982.43
241.37	1949.67
241.59	2082.78
241.81	1908.71
242.02	1970.15
242.24	1974.24
242.46	1953.76
242.68	1894.37
242.89	1900.52
243.11	2019.30
243.33	1906.66
243.55	1996.77
243.76	1974.24
243.98	1951.71
244.20	2009.06
244.42	1976.29
244.64	1929.19
244.85	1894.37
245.07	1918.95
245.29	1984.48
245.51	1951.71
245.72	1992.67
245.94	2035.68
246.16	1992.67
246.38	1966.05
246.59	1923.04
246.81	1920.99
247.03	1890.28
247.24	1845.22
247.46	1943.52
247.68	1982.43
247.90	1916.90
248.11	1882.08
248.33	2007.01
248.55	1914.85
248.77	1968.10
248.98	1998.82
249.20	2115.55
249.42	1925.09
249.64	1925.09
249.85	1861.60
250.07	1949.67
250.29	1988.58
250.50	2070.50
250.72	1845.22
250.94	1996.77
251.16	2113.50
251.37	2019.30
251.59	2023.39
251.81	2027.49
252.02	2144.22
252.24	1886.18
252.46	2023.39
252.68	1880.04
252.89	1976.29
253.11	1841.12
253.33	2000.87
253.54	2027.49
253.76	1894.37
253.98	1886.18
254.20	1992.67
254.41	1824.74
254.63	2011.11
254.85	1914.85
255.06	1900.52
255.28	2025.44
255.50	1896.42
255.71	1904.61
255.93	1810.40
256.15	2007.01
256.36	1992.67
256.58	1937.38
256.80	1910.75
257.02	1886.18
257.23	1996.77
257.45	1851.36
257.67	1955.81
257.88	1939.43
258.10	2002.91
258.32	1986.53
258.53	1914.85
258.75	2090.98
258.97	1908.71
259.18	1941.47
259.40	1992.67
259.62	2080.74
259.83	2127.84
260.05	1955.81
260.27	2179.04
260.48	2043.87
260.70	1818.60
260.92	1972.19
261.13	1877.99
261.35	1974.24
261.57	2011.11
261.78	1841.12
262.00	1839.08
262.22	1945.57
262.43	1877.99
262.65	1925.09
262.86	1947.62
263.08	2105.31
263.30	1951.71
263.51	1839.08
263.73	1916.90
263.95	1970.15
264.16	1888.23
264.38	1976.29
264.60	1959.91
264.81	1904.61
265.03	1910.75
265.25	1986.53
265.46	1949.67
265.68	2064.35
265.89	2021.35
266.11	1832.93
266.33	2074.59
266.54	1972.19
266.76	1986.53
266.98	1947.62
267.19	2023.39
267.41	2004.96
267.62	1884.13
267.84	1777.64
268.06	1902.56
268.27	1984.48
268.49	2009.06
268.70	2029.54
268.92	1931.23
269.14	1880.04
269.35	1906.66
269.57	1855.46
269.79	1961.95
270.00	1886.18
270.22	2133.98
270.43	1837.03
270.65	1794.02
270.87	1990.63
271.08	2031.58
271.30	1984.48
271.51	1978.34
271.73	1916.90
271.95	2107.36
272.16	1859.56
272.38	2023.39
272.59	1886.18
272.81	1923.04
273.02	2031.58
273.24	2007.01
273.46	2050.02
273.67	1837.03
273.89	1916.90
274.10	1845.22
274.32	2029.54
274.54	1988.58
274.75	1964.00
274.97	1988.58
275.18	1941.47
275.40	1980.39
275.61	1953.76
275.83	1972.19
276.05	1761.25
276.26	1978.34
276.48	1961.95
276.69	1904.61
276.91	1902.56
277.12	2021.35
277.34	1992.67
277.55	2041.82
277.77	2058.21
277.99	1920.99
278.20	1890.28
278.42	1845.22
278.63	1822.69
278.85	1984.48
279.06	1896.42
279.28	1957.86
279.49	2021.35
279.71	2080.74
279.93	1994.72
280.14	1980.39
280.36	1964.00
280.57	2086.88
280.79	2011.11
281.00	1855.46
281.22	1896.42
281.43	1966.05
281.65	1777.64
281.86	1925.09
282.08	1978.34
282.29	2093.02
282.51	1855.46
282.73	1871.84
282.94	1882.08
283.16	2002.91
283.37	2138.08
283.59	1951.71
283.80	2054.11
284.02	1935.33
284.23	1941.47
284.45	1906.66
284.66	1880.04
284.88	1869.80
285.09	1935.33
285.31	1984.48
285.52	2066.40
285.74	1738.73
285.95	2039.78
286.17	2004.96
286.38	2103.26
286.60	1845.22
286.81	1955.81
287.03	2017.25
287.24	1865.70
287.46	1976.29
287.67	1953.76
287.89	2007.01
288.10	1920.99
288.32	1949.67
288.53	1943.52
288.75	1933.28
288.96	2011.11
289.18	1918.95
289.39	1908.71
289.61	2072.54
289.82	2056.16
290.04	2058.21
290.25	1873.89
290.47	1949.67
290.68	1882.08
290.90	2025.44
291.11	1785.83
291.33	1994.72
291.54	1867.75
291.76	1873.89
291.97	2015.20
292.18	1945.57
292.40	1925.09
292.61	1873.89
292.83	2062.30
293.04	2035.68
293.26	1941.47
293.47	1966.05
293.69	1902.56
293.90	1920.99
294.12	2029.54
294.33	2002.91
294.55	1900.52
294.76	1990.63
294.97	1947.62
295.19	2082.78
295.40	1980.39
295.62	1998.82
295.83	1982.43
296.05	1947.62
296.26	2056.16
296.48	1906.66
296.69	1959.91
296.90	1898.47
297.12	2047.97
297.33	2004.96
297.55	1955.81
297.76	1964.00
297.98	1976.29
298.19	1992.67
298.41	1957.86
298.62	1900.52
298.83	2011.11
299.05	1939.43
299.26	1920.99
299.48	1884.13
299.69	2013.15
299.90	1978.34
300.12	1974.24
300.33	1970.15
300.55	1927.14
300.76	2031.58
300.98	1888.23
301.19	2064.35
301.40	1943.52
301.62	1888.23
301.83	1931.23
302.05	1957.86
302.26	1968.10
302.47	2007.01
302.69	1923.04
302.90	1982.43
303.12	1789.92
303.33	1996.77
303.54	2156.51
303.76	1925.09
303.97	1982.43
304.19	2054.11
304.40	1890.28
304.61	2019.30
304.83	2072.54
305.04	2009.06
305.26	2002.91
305.47	1961.95
305.68	1964.00
305.90	1875.94
306.11	2121.70
306.33	1945.57
306.54	1931.23
306.75	1837.03
306.97	1892.32
307.18	1865.70
307.39	1828.84
307.61	2035.68
307.82	1970.15
308.04	1943.52
308.25	1910.75
308.46	1904.61
308.68	1982.43
308.89	1908.71
309.10	2023.39
309.32	1945.57
309.53	1916.90
309.74	1988.58
309.96	1927.14
310.17	1941.47
310.39	1953.76
310.60	2064.35
310.81	1982.43
311.03	1884.13
311.24	1976.29
311.45	1939.43
311.67	2054.11
311.88	2021.35
312.09	1894.37
312.31	1869.80
312.52	1964.00
312.73	2052.06
312.95	1853.41
313.16	1867.75
313.37	2011.11
313.59	2011.11
313.80	1949.67
314.01	2123.74
314.23	1931.23
314.44	1992.67
314.65	1857.51
314.87	1961.95
315.08	1900.52
315.29	1929.19
315.51	1890.28
315.72	1847.27
315.93	2101.22
316.15	1998.82
316.36	1951.71
316.57	2062.30
316.79	1994.72
317.00	1920.99
317.21	2015.20
317.43	1939.43
317.64	1953.76
317.85	1861.60
318.07	1814.50
318.28	1961.95
318.49	2076.64
318.70	2287.58
318.92	2127.84
319.13	2105.31
319.34	2220.00
319.56	2105.31
319.77	2125.79
319.98	2054.11
320.20	2035.68
320.41	2035.68
320.62	2000.87
320.83	1920.99
321.05	2078.69
321.26	1982.43
321.47	1912.80
321.69	2090.98
321.90	1972.19
322.11	1902.56
322.32	1947.62
322.54	2045.92
322.75	1941.47
322.96	2082.78
323.18	1755.11
323.39	1798.12
323.60	1841.12
323.81	2056.16
324.03	1966.05
324.24	1937.38
324.45	1980.39
324.66	1877.99
324.88	2007.01
325.09	2074.59
325.30	1976.29
325.52	1980.39
325.73	2058.21
325.94	1933.28
326.15	1875.94
326.37	1863.65
326.58	2035.68
326.79	2109.41
327.00	1820.64
327.22	1939.43
327.43	1959.91
327.64	1947.62
327.85	2000.87
328.07	1986.53
328.28	2086.88
328.49	1953.76
328.70	1988.58
328.92	2019.30
329.13	1966.05
329.34	1947.62
329.55	2138.08
329.76	2103.26
329.98	1923.04
330.19	1992.67
330.40	1955.81
330.61	1957.86
330.83	1998.82
331.04	1929.19
331.25	1964.00
331.46	1904.61
331.68	1851.36
331.89	2047.97
332.10	1943.52
332.31	1830.88
332.52	1898.47
332.74	2054.11
332.95	1871.84
333.16	2002.91
333.37	2013.15
333.58	1959.91
333.80	2056.16
334.01	1857.51
334.22	1939.43
334.43	1937.38
334.64	1933.28
334.86	1837.03
335.07	1877.99
335.28	2097.12
335.49	1839.08
335.70	2056.16
335.92	2031.58
336.13	2086.88
336.34	1996.77
336.55	1976.29
336.76	1976.29
336.98	1839.08
337.19	1861.60
337.40	2090.98
337.61	2156.51
337.82	2035.68
338.04	1996.77
338.25	1863.65
338.46	1892.32
338.67	1937.38
338.88	1912.80
339.09	1912.80
339.31	1869.80
339.52	1859.56
339.73	1953.76
339.94	1959.91
340.15	2093.02
340.36	1855.46
340.58	1994.72
340.79	1886.18
341.00	1929.19
341.21	1861.60
341.42	2062.30
341.63	1970.15
341.85	1953.76
342.06	1961.95
342.27	1935.33
342.48	2004.96
342.69	1857.51
342.90	1988.58
343.12	1961.95
343.33	1964.00
343.54	2050.02
343.75	2115.55
343.96	1830.88
344.17	1859.56
344.38	1894.37
344.60	1898.47
344.81	1939.43
345.02	1896.42
345.23	2097.12
345.44	2070.50
345.65	1978.34
345.86	1900.52
346.07	1990.63
346.29	1882.08
346.50	1953.76
346.71	1953.76
346.92	2058.21
347.13	2115.55
347.34	1972.19
347.55	1955.81
347.76	1978.34
347.98	1857.51
348.19	1988.58
348.40	2025.44
348.61	1945.57
348.82	2054.11
349.03	2027.49
349.24	1865.70
349.45	2133.98
349.66	1724.39
349.88	1980.39
350.09	1800.16
350.30	2068.45
350.51	2058.21
350.72	1986.53
350.93	1980.39
351.14	1906.66
351.35	2015.20
351.56	1933.28
351.77	1902.56
351.99	2002.91
352.20	2082.78
352.41	2074.59
352.62	1832.93
352.83	1982.43
353.04	1920.99
353.25	2002.91
353.46	2039.78
353.67	2062.30
353.88	1759.21
354.09	1964.00
354.30	1992.67
354.52	2052.06
354.73	1947.62
354.94	1964.00
355.15	1976.29
355.36	2148.32
355.57	1953.76
355.78	1980.39
355.99	1918.95
356.20	1886.18
356.41	2078.69
356.62	2000.87
356.83	1927.14
357.04	2086.88
357.25	1832.93
357.46	1951.71
357.68	1890.28
357.89	1834.98
358.10	1914.85
358.31	1949.67
358.52	1947.62
358.73	1888.23
358.94	1955.81
359.15	1923.04
359.36	2031.58
359.57	1892.32
359.78	1931.23
359.99	2056.16
360.20	1902.56
360.41	1896.42
360.62	1984.48
360.83	1890.28
361.04	2009.06
361.25	1986.53
361.46	2162.66
361.67	2035.68
361.88	2031.58
362.09	2047.97
362.30	1996.77
362.51	1953.76
362.72	1904.61
362.93	2037.73
363.14	2080.74
363.35	1974.24
363.56	1918.95
363.78	2052.06
363.99	1923.04
364.20	1927.14
364.41	1955.81
364.62	2121.70
364.83	1943.52
365.04	1841.12
365.25	1937.38
365.46	2125.79
365.67	1873.89
365.88	1927.14
366.09	1923.04
366.30	1959.91
366.51	1914.85
366.72	1867.75
366.93	1943.52
367.14	1923.04
367.35	2037.73
367.56	2015.20
367.77	2000.87
367.98	1972.19
368.18	2076.64
368.39	1949.67
368.60	1908.71
368.81	2068.45
369.02	1996.77
369.23	1945.57
369.44	1886.18
369.65	1877.99
369.86	1974.24
370.07	2047.97
370.28	1867.75
370.49	1937.38
370.70	2060.26
370.91	1927.14
371.12	1818.60
371.33	2080.74
371.54	1898.47
371.75	2086.88
371.96	1863.65
372.17	2025.44
372.38	1939.43
372.59	1994.72
372.80	1931.23
373.01	1943.52
373.22	1992.67
373.43	1935.33
373.64	1896.42
373.85	2078.69
374.06	2066.40
374.26	2037.73
374.47	2037.73
374.68	2070.50
374.89	1945.57
375.10	2023.39
375.31	1994.72
375.52	1937.38
375.73	1957.86
375.94	1806.31
376.15	2027.49
376.36	1869.80
376.57	1964.00
376.78	1918.95
376.99	1914.85
377.20	2097.12
377.40	1984.48
377.61	2119.65
377.82	1873.89
378.03	1976.29
378.24	2025.44
378.45	1964.00
378.66	1978.34
378.87	1791.97
379.08	1906.66
379.29	1925.09
379.50	2056.16
379.71	1959.91
379.91	2000.87
380.12	1894.37
380.33	1912.80
380.54	1990.63
380.75	1912.80
380.96	1941.47
381.17	2009.06
381.38	2013.15
381.59	2023.39
381.80	1992.67
382.00	2080.74
382.21	2072.54
382.42	2228.19
382.63	2181.09
382.84	2015.20
383.05	1982.43
383.26	2062.30
383.47	1984.48
383.68	2025.44
383.88	2023.39
384.09	1976.29
384.30	2064.35
384.51	2041.82
384.72	1937.38
384.93	1812.45
385.14	1947.62
385.35	2023.39
385.55	1834.98
385.76	2043.87
385.97	1970.15
386.18	1935.33
386.39	1890.28
386.60	2007.01
386.81	1976.29
387.02	1949.67
387.22	1892.32
387.43	2072.54
387.64	2004.96
387.85	2179.04
388.06	2263.01
388.27	4001.73
388.48	8458.11
388.68	12095.30
388.89	14282.53
389.10	15281.94
389.31	14040.87
389.52	10934.11
389.73	9420.66
389.93	8636.28
390.14	7921.54
390.35	7114.64
390.56	6358.94
390.77	5367.73
390.98	4016.07
391.18	3207.12
391.39	2596.82
391.60	2095.07
391.81	2125.79
392.02	1996.77
392.23	2074.59
392.43	2072.54
392.64	2119.65
392.85	1972.19
393.06	2033.63
393.27	2019.30
393.47	1959.91
393.68	1961.95
393.89	1931.23
394.10	2084.83
394.31	1972.19
394.52	1904.61
394.72	1904.61
394.93	2125.79
395.14	1859.56
395.35	2027.49
395.56	1957.86
395.76	1916.90
395.97	2011.11
396.18	2076.64
396.39	2076.64
396.60	2428.89
396.80	2303.96
397.01	2101.22
397.22	2074.59
397.43	2174.94
397.64	1984.48
397.84	2078.69
398.05	2121.70
398.26	2054.11
398.47	2023.39
398.67	2076.64
398.88	1939.43
399.09	2088.93
399.30	1935.33
399.51	2054.11
399.71	1894.37
399.92	1976.29
400.13	1986.53
400.34	1894.37
400.54	1910.75
400.75	2070.50
400.96	1970.15
401.17	2068.45
401.37	2052.06
401.58	2004.96
401.79	1980.39
402.00	2097.12
402.21	2275.29
402.41	2297.82
402.62	2414.56
402.83	2463.71
403.04	2457.56
403.24	2482.14
403.45	2176.99
403.66	2275.29
403.87	2164.70
404.07	2172.89
404.28	2260.96
404.49	2201.57
404.70	2050.02
404.90	1945.57
405.11	1998.82
405.32	1980.39
405.52	1920.99
405.73	1890.28
405.94	1898.47
406.15	1910.75
406.35	2029.54
406.56	2041.82
406.77	1992.67
406.98	1894.37
407.18	1918.95
407.39	2090.98
407.60	1939.43
407.80	2072.54
408.01	1886.18
408.22	2082.78
408.43	1994.72
408.63	1951.71
408.84	2023.39
409.05	2007.01
409.25	1961.95
409.46	1957.86
409.67	1943.52
409.88	1906.66
410.08	1957.86
410.29	1845.22
410.50	1961.95
410.70	1966.05
410.91	1949.67
411.12	2017.25
411.32	1906.66
411.53	1908.71
411.74	2146.27
411.95	2033.63
412.15	2113.50
412.36	2093.02
412.57	2095.07
412.77	2123.74
412.98	1947.62
413.19	2029.54
413.39	2015.20
413.60	2011.11
413.81	2097.12
414.01	1929.19
414.22	2058.21
414.43	2009.06
414.63	1947.62
414.84	2045.92
415.05	2039.78
415.25	1877.99
415.46	2054.11
415.67	1937.38
415.87	1964.00
416.08	1978.34
416.29	1929.19
416.49	2086.88
416.70	1873.89
416.91	1931.23
417.11	1986.53
417.32	1984.48
417.53	2045.92
417.73	2050.02
417.94	1941.47
418.15	2013.15
418.35	1912.80
418.56	1939.43
418.77	2136.03
418.97	2017.25
419.18	1945.57
419.38	1832.93
419.59	1986.53
419.80	2056.16
420.00	1869.80
420.21	2000.87
420.42	2009.06
420.62	1998.82
420.83	1980.39
421.04	1920.99
421.24	1902.56
421.45	2074.59
421.65	2000.87
421.86	1925.09
422.07	2023.39
422.27	1923.04
422.48	1925.09
422.69	1814.50
422.89	1935.33
423.10	1888.23
423.30	1910.75
423.51	1984.48
423.72	1947.62
423.92	2054.11
424.13	1845.22
424.33	2015.20
424.54	1900.52
424.75	1951.71
424.95	2121.70
425.16	2009.06
425.36	1957.86
425.57	1955.81
425.78	2043.87
425.98	2009.06
426.19	1974.24
426.39	1945.57
426.60	1943.52
426.81	2064.35
427.01	1943.52
427.22	1884.13
427.42	1824.74
427.63	1892.32
427.83	2082.78
428.04	2111.46
428.25	2050.02
428.45	2009.06
428.66	2039.78
428.86	1961.95
429.07	1951.71
429.28	1986.53
429.48	1939.43
429.69	1923.04
429.89	1970.15
430.10	1896.42
430.30	2004.96
430.51	2074.59
430.71	1920.99
430.92	2002.91
431.13	1955.81
431.33	1990.63
431.54	2015.20
431.74	2068.45
431.95	2222.05
432.15	1863.65
432.36	1982.43
432.56	1980.39
432.77	2062.30
432.98	1996.77
433.18	1980.39
433.39	1912.80
433.59	1898.47
433.80	2113.50
434.00	2142.18
434.21	1884.13
434.41	1941.47
434.62	2115.55
434.82	1904.61
435.03	1861.60
435.23	1972.19
435.44	1789.92
435.64	1964.00
435.85	1972.19
436.06	2068.45
436.26	2111.46
436.47	1898.47
436.67	1851.36
436.88	1951.71
437.08	2045.92
437.29	2041.82
437.49	1910.75
437.70	2017.25
437.90	1908.71
438.11	2084.83
438.31	1990.63
438.52	2242.53
438.72	2136.03
438.93	2271.20
439.13	2041.82
439.34	2172.89
439.54	2074.59
439.75	2078.69
439.95	2060.26
440.16	1947.62
440.36	2097.12
440.57	2025.44
440.77	2047.97
440.98	1966.05
441.18	1994.72
441.39	1859.56
441.59	1853.41
441.80	2185.18
442.00	1974.24
442.21	2058.21
442.41	1941.47
442.62	2035.68
442.82	1943.52
443.02	1925.09
443.23	1955.81
443.43	2004.96
443.64	2066.40
443.84	1957.86
444.05	2074.59
444.25	2041.82
444.46	1943.52
444.66	1947.62
444.87	2101.22
445.07	1906.66
445.28	1964.00
445.48	2062.30
445.69	2043.87
445.89	2068.45
446.09	1990.63
446.30	2224.09
446.50	2643.93
446.71	4200.38
446.91	5244.85
447.12	6090.66
447.32	6543.26
447.53	5959.59
447.73	4829.11
447.93	4296.64
448.14	3946.44
448.34	3864.52
448.55	3356.62
448.75	3366.86
448.96	3221.45
449.16	2881.49
449.36	2580.44
449.57	2383.84
449.77	2142.18
449.98	1978.34
450.18	2058.21
450.39	2027.49
450.59	2070.50
450.79	1986.53
451.00	1996.77
451.20	2043.87
451.41	2007.01
451.61	2047.97
451.81	2031.58
452.02	1916.90
452.22	1943.52
452.43	1961.95
452.63	1937.38
