SpectraSuite Data File
++++++++++++++++++++++++++++++++++++
Date: Wed May 04 22:45:49 CEST 2016
User: root
Dark Spectrum Present: No
Reference Spectrum Present: No
Number of Sampled Component Spectra: 1
Spectrometers: USB4C02835
Integration Time (usec): 100000 (USB4C02835)
Spectra Averaged: 1 (USB4C02835)
Boxcar Smoothing: 0 (USB4C02835)
Correct for Electrical Dark: No (USB4C02835)
Strobe/Lamp Enabled: No (USB4C02835)
Correct for Detector Non-linearity: No (USB4C02835)
Correct for Stray Light: No (USB4C02835)
Number of Pixels in Processed Spectrum: 3648
>>>>>Begin Processed Spectral Data<<<<<
177.47	1646.57
177.69	1646.57
177.91	1646.57
178.13	1570.79
178.36	1701.86
178.58	1812.45
178.80	2031.58
179.02	1884.13
179.24	1896.42
179.46	1914.85
179.68	1990.63
179.90	1966.05
180.13	1939.43
180.35	1886.18
180.57	1961.95
180.79	1976.29
181.01	1912.80
181.23	2015.20
181.45	2013.15
181.67	1947.62
181.90	2045.92
182.12	1896.42
182.34	1837.03
182.56	1982.43
182.78	1986.53
183.00	1927.14
183.22	1966.05
183.44	1849.32
183.66	2123.74
183.89	2070.50
184.11	1947.62
184.33	1974.24
184.55	2125.79
184.77	1949.67
184.99	1867.75
185.21	1888.23
185.43	2187.23
185.65	1871.84
185.87	1853.41
186.10	2029.54
186.32	2127.84
186.54	1959.91
186.76	1888.23
186.98	1996.77
187.20	1947.62
187.42	1822.69
187.64	2013.15
187.86	1955.81
188.08	2000.87
188.30	1935.33
188.52	1908.71
188.75	2072.54
188.97	2064.35
189.19	1894.37
189.41	1970.15
189.63	1943.52
189.85	1953.76
190.07	1892.32
190.29	1841.12
190.51	1961.95
190.73	1896.42
190.95	2021.35
191.17	1941.47
191.39	1808.36
191.61	1941.47
191.84	1910.75
192.06	1984.48
192.28	1841.12
192.50	2185.18
192.72	1945.57
192.94	1933.28
193.16	2035.68
193.38	1988.58
193.60	1920.99
193.82	1912.80
194.04	2021.35
194.26	2000.87
194.48	1935.33
194.70	1978.34
194.92	1892.32
195.14	1933.28
195.36	1923.04
195.58	1968.10
195.80	1908.71
196.02	1941.47
196.24	1923.04
196.46	2029.54
196.69	1906.66
196.91	2187.23
197.13	1943.52
197.35	1931.23
197.57	2029.54
197.79	1961.95
198.01	1935.33
198.23	1998.82
198.45	1996.77
198.67	1867.75
198.89	1937.38
199.11	1931.23
199.33	1888.23
199.55	1775.59
199.77	1896.42
199.99	1994.72
200.21	1923.04
200.43	2074.59
200.65	1775.59
200.87	1783.78
201.09	1966.05
201.31	1904.61
201.53	1937.38
201.75	1980.39
201.97	1994.72
202.19	1859.56
202.41	1945.57
202.63	2045.92
202.85	1984.48
203.07	2019.30
203.29	1875.94
203.51	1814.50
203.73	1916.90
203.95	2220.00
204.17	1976.29
204.39	1923.04
204.61	1941.47
204.83	1875.94
205.05	2007.01
205.27	1937.38
205.49	2078.69
205.71	1976.29
205.93	1822.69
206.15	1933.28
206.37	1871.84
206.59	1976.29
206.81	1824.74
207.03	1906.66
207.25	1880.04
207.47	2043.87
207.69	1867.75
207.91	2082.78
208.13	2058.21
208.34	1877.99
208.56	1886.18
208.78	1976.29
209.00	2002.91
209.22	1904.61
209.44	2011.11
209.66	1957.86
209.88	1828.84
210.10	2023.39
210.32	1953.76
210.54	1964.00
210.76	1984.48
210.98	1982.43
211.20	1867.75
211.42	1996.77
211.64	2082.78
211.86	2004.96
212.08	1988.58
212.30	1929.19
212.52	1898.47
212.74	1974.24
212.96	1982.43
213.17	2031.58
213.39	2082.78
213.61	2064.35
213.83	1945.57
214.05	1957.86
214.27	2011.11
214.49	1859.56
214.71	1834.98
214.93	2045.92
215.15	1957.86
215.37	1996.77
215.59	1849.32
215.81	1972.19
216.03	1994.72
216.24	1939.43
216.46	1933.28
216.68	1994.72
216.90	1970.15
217.12	2035.68
217.34	2023.39
217.56	1945.57
217.78	1996.77
218.00	2011.11
218.22	1906.66
218.44	2033.63
218.66	2054.11
218.87	2058.21
219.09	1851.36
219.31	1980.39
219.53	1972.19
219.75	1961.95
219.97	1880.04
220.19	1957.86
220.41	1935.33
220.63	2023.39
220.85	1964.00
221.06	1933.28
221.28	2093.02
221.50	1966.05
221.72	1959.91
221.94	2004.96
222.16	1943.52
222.38	1947.62
222.60	2078.69
222.82	1935.33
223.03	1947.62
223.25	1927.14
223.47	1980.39
223.69	2033.63
223.91	2084.83
224.13	1982.43
224.35	1927.14
224.57	2031.58
224.78	2062.30
225.00	1884.13
225.22	1935.33
225.44	1834.98
225.66	1943.52
225.88	1904.61
226.10	2068.45
226.32	1953.76
226.53	2045.92
226.75	1877.99
226.97	1945.57
227.19	1908.71
227.41	1925.09
227.63	1896.42
227.85	1818.60
228.06	1890.28
228.28	1988.58
228.50	2121.70
228.72	1896.42
228.94	1902.56
229.16	1892.32
229.37	1908.71
229.59	1845.22
229.81	2076.64
230.03	1939.43
230.25	1837.03
230.47	1810.40
230.69	1888.23
230.90	2019.30
231.12	1861.60
231.34	1923.04
231.56	2000.87
231.78	1882.08
232.00	1894.37
232.21	1892.32
232.43	1853.41
232.65	1816.55
232.87	2000.87
233.09	1853.41
233.30	1812.45
233.52	2009.06
233.74	1925.09
233.96	1894.37
234.18	1961.95
234.40	1931.23
234.61	2127.84
234.83	1900.52
235.05	1828.84
235.27	2164.70
235.49	2015.20
235.70	1902.56
235.92	2039.78
236.14	2076.64
236.36	2054.11
236.58	1906.66
236.79	2045.92
237.01	1931.23
237.23	1937.38
237.45	2041.82
237.67	1894.37
237.88	1945.57
238.10	2082.78
238.32	1923.04
238.54	1896.42
238.76	1966.05
238.97	1943.52
239.19	1888.23
239.41	1939.43
239.63	2086.88
239.85	1978.34
240.06	1882.08
240.28	1808.36
240.50	2033.63
240.72	1945.57
240.93	1898.47
241.15	2039.78
241.37	1910.75
241.59	2017.25
241.81	1892.32
242.02	1900.52
242.24	2072.54
242.46	2004.96
242.68	1785.83
242.89	1923.04
243.11	2039.78
243.33	1974.24
243.55	1984.48
243.76	1974.24
243.98	1888.23
244.20	1957.86
244.42	1974.24
244.64	2000.87
244.85	1820.64
245.07	1933.28
245.29	2013.15
245.51	1947.62
245.72	2025.44
245.94	2011.11
246.16	1923.04
246.38	2009.06
246.59	1953.76
246.81	1925.09
247.03	1970.15
247.24	1857.51
247.46	1914.85
247.68	2002.91
247.90	1920.99
248.11	1865.70
248.33	2074.59
248.55	1992.67
248.77	1933.28
248.98	2052.06
249.20	2070.50
249.42	1968.10
249.64	1966.05
249.85	1925.09
250.07	1865.70
250.29	2095.07
250.50	1957.86
250.72	1867.75
250.94	2037.73
251.16	2224.09
251.37	2027.49
251.59	1980.39
251.81	1953.76
252.02	2052.06
252.24	1910.75
252.46	2056.16
252.68	1945.57
252.89	1877.99
253.11	1904.61
253.33	2084.83
253.54	2035.68
253.76	1841.12
253.98	1937.38
254.20	1961.95
254.41	1791.97
254.63	1941.47
254.85	1781.73
255.06	1929.19
255.28	1972.19
255.50	1974.24
255.71	1908.71
255.93	1882.08
256.15	1945.57
256.36	1941.47
256.58	1853.41
256.80	2009.06
257.02	1871.84
257.23	1908.71
257.45	2017.25
257.67	1986.53
257.88	1906.66
258.10	2050.02
258.32	1908.71
258.53	1964.00
258.75	2080.74
258.97	2009.06
259.18	1826.79
259.40	1910.75
259.62	2107.36
259.83	1974.24
260.05	2050.02
260.27	2342.88
260.48	2023.39
260.70	1884.13
260.92	1933.28
261.13	1910.75
261.35	1974.24
261.57	2021.35
261.78	1890.28
262.00	1898.47
262.22	2013.15
262.43	1910.75
262.65	1859.56
262.86	1861.60
263.08	2076.64
263.30	1941.47
263.51	1708.01
263.73	1861.60
263.95	2039.78
264.16	1871.84
264.38	1914.85
264.60	1910.75
264.81	1957.86
265.03	2072.54
265.25	2035.68
265.46	1867.75
265.68	2062.30
265.89	2056.16
266.11	1841.12
266.33	1998.82
266.54	2009.06
266.76	1929.19
266.98	1988.58
267.19	2031.58
267.41	2013.15
267.62	1871.84
267.84	1789.92
268.06	1988.58
268.27	1970.15
268.49	2047.97
268.70	2033.63
268.92	1959.91
269.14	1880.04
269.35	1877.99
269.57	1974.24
269.79	1972.19
270.00	1912.80
270.22	2047.97
270.43	1920.99
270.65	1779.68
270.87	2035.68
271.08	1994.72
271.30	1988.58
271.51	1974.24
271.73	1978.34
271.95	2072.54
272.16	1955.81
272.38	1957.86
272.59	1902.56
272.81	1980.39
273.02	1920.99
273.24	1976.29
273.46	2062.30
273.67	1880.04
273.89	1845.22
274.10	1847.27
274.32	1939.43
274.54	1933.28
274.75	1994.72
274.97	1945.57
275.18	2054.11
275.40	1966.05
275.61	1890.28
275.83	2007.01
276.05	1841.12
276.26	1959.91
276.48	2121.70
276.69	1929.19
276.91	1974.24
277.12	2039.78
277.34	2011.11
277.55	1988.58
277.77	2029.54
277.99	1964.00
278.20	1871.84
278.42	1849.32
278.63	1906.66
278.85	1908.71
279.06	1865.70
279.28	2031.58
279.49	2047.97
279.71	1972.19
279.93	1959.91
280.14	1918.95
280.36	1906.66
280.57	2015.20
280.79	1996.77
281.00	1812.45
281.22	2009.06
281.43	2025.44
281.65	1796.07
281.86	1918.95
282.08	1959.91
282.29	2146.27
282.51	1822.69
282.73	1837.03
282.94	1849.32
283.16	2058.21
283.37	2064.35
283.59	1912.80
283.80	2000.87
284.02	1978.34
284.23	1990.63
284.45	1927.14
284.66	1861.60
284.88	1865.70
285.09	2002.91
285.31	2013.15
285.52	1920.99
285.74	1861.60
285.95	2009.06
286.17	2050.02
286.38	2054.11
286.60	1912.80
286.81	1847.27
287.03	1904.61
287.24	2009.06
287.46	2039.78
287.67	2004.96
287.89	2101.22
288.10	1914.85
288.32	2015.20
288.53	2121.70
288.75	1857.51
288.96	1961.95
289.18	1816.55
289.39	1935.33
289.61	2039.78
289.82	2166.75
290.04	2084.83
290.25	1875.94
290.47	1935.33
290.68	1894.37
290.90	2027.49
291.11	1814.50
291.33	2017.25
291.54	1918.95
291.76	1886.18
291.97	1984.48
292.18	2009.06
292.40	1982.43
292.61	1875.94
292.83	2064.35
293.04	1982.43
293.26	2013.15
293.47	1966.05
293.69	1910.75
293.90	1916.90
294.12	2080.74
294.33	1925.09
294.55	1984.48
294.76	2007.01
294.97	2062.30
295.19	2015.20
295.40	1980.39
295.62	2019.30
295.83	2023.39
296.05	1916.90
296.26	2011.11
296.48	1906.66
296.69	1984.48
296.90	1957.86
297.12	1941.47
297.33	2086.88
297.55	1939.43
297.76	2023.39
297.98	2037.73
298.19	1974.24
298.41	1945.57
298.62	1824.74
298.83	2047.97
299.05	1916.90
299.26	1927.14
299.48	1970.15
299.69	1984.48
299.90	1894.37
300.12	1918.95
300.33	2060.26
300.55	1955.81
300.76	1984.48
300.98	1884.13
301.19	1961.95
301.40	1988.58
301.62	1959.91
301.83	2019.30
302.05	1974.24
302.26	1923.04
302.47	1927.14
302.69	1929.19
302.90	2023.39
303.12	1789.92
303.33	2043.87
303.54	2043.87
303.76	1888.23
303.97	1959.91
304.19	2072.54
304.40	1925.09
304.61	2023.39
304.83	2113.50
305.04	1992.67
305.26	1998.82
305.47	1912.80
305.68	1927.14
305.90	1855.46
306.11	2017.25
306.33	1945.57
306.54	1886.18
306.75	1902.56
306.97	1818.60
307.18	1837.03
307.39	1947.62
307.61	2011.11
307.82	1968.10
308.04	1931.23
308.25	1943.52
308.46	1994.72
308.68	1943.52
308.89	1988.58
309.10	2066.40
309.32	2050.02
309.53	1947.62
309.74	1984.48
309.96	2013.15
310.17	2066.40
310.39	1931.23
310.60	2068.45
310.81	1933.28
311.03	1896.42
311.24	1996.77
311.45	1914.85
311.67	2084.83
311.88	1998.82
312.09	1888.23
312.31	1927.14
312.52	2007.01
312.73	1894.37
312.95	1884.13
313.16	1857.51
313.37	2068.45
313.59	2002.91
313.80	2037.73
314.01	2025.44
314.23	1953.76
314.44	1867.75
314.65	1871.84
314.87	1904.61
315.08	1955.81
315.29	1918.95
315.51	1873.89
315.72	1837.03
315.93	2021.35
316.15	1980.39
316.36	1867.75
316.57	1951.71
316.79	1974.24
317.00	1902.56
317.21	2025.44
317.43	1906.66
317.64	1892.32
317.85	2002.91
318.07	1955.81
318.28	2009.06
318.49	2066.40
318.70	2211.81
318.92	2211.81
319.13	2168.80
319.34	2162.66
319.56	2080.74
319.77	2152.42
319.98	2172.89
320.20	2084.83
320.41	2152.42
320.62	2047.97
320.83	1888.23
321.05	2054.11
321.26	1933.28
321.47	1959.91
321.69	2133.98
321.90	1839.08
322.11	1912.80
322.32	1941.47
322.54	2099.17
322.75	1920.99
322.96	2160.61
323.18	1851.36
323.39	1804.26
323.60	1890.28
323.81	2056.16
324.03	1929.19
324.24	1976.29
324.45	2009.06
324.66	1951.71
324.88	2023.39
325.09	2023.39
325.30	1914.85
325.52	2027.49
325.73	2041.82
325.94	1863.65
326.15	1867.75
326.37	1880.04
326.58	2119.65
326.79	2043.87
327.00	1798.12
327.22	2007.01
327.43	1996.77
327.64	1923.04
327.85	1982.43
328.07	1976.29
328.28	2105.31
328.49	1869.80
328.70	1941.47
328.92	1976.29
329.13	1880.04
329.34	1998.82
329.55	2109.41
329.76	2029.54
329.98	1892.32
330.19	2082.78
330.40	1992.67
330.61	2000.87
330.83	1939.43
331.04	1890.28
331.25	1867.75
331.46	1914.85
331.68	1910.75
331.89	2023.39
332.10	1910.75
332.31	1837.03
332.52	1875.94
332.74	2107.36
332.95	1824.74
333.16	1880.04
333.37	1996.77
333.58	1951.71
333.80	1933.28
334.01	1888.23
334.22	1988.58
334.43	1986.53
334.64	1931.23
334.86	1896.42
335.07	1918.95
335.28	2127.84
335.49	1789.92
335.70	1929.19
335.92	2138.08
336.13	2162.66
336.34	1976.29
336.55	1908.71
336.76	2019.30
336.98	1791.97
337.19	1882.08
337.40	2021.35
337.61	2230.24
337.82	1894.37
338.04	2074.59
338.25	1869.80
338.46	1933.28
338.67	2011.11
338.88	1896.42
339.09	1920.99
339.31	1937.38
339.52	1886.18
339.73	1906.66
339.94	1873.89
340.15	1992.67
340.36	1976.29
340.58	1964.00
340.79	1877.99
341.00	1968.10
341.21	1845.22
341.42	2144.22
341.63	1886.18
341.85	2035.68
342.06	2035.68
342.27	1882.08
342.48	1937.38
342.69	1929.19
342.90	2035.68
343.12	2039.78
343.33	2021.35
343.54	2066.40
343.75	2041.82
343.96	1886.18
344.17	1865.70
344.38	1972.19
344.60	1906.66
344.81	1935.33
345.02	2043.87
345.23	2133.98
345.44	2090.98
345.65	2064.35
345.86	2031.58
346.07	1986.53
346.29	1961.95
346.50	1988.58
346.71	1935.33
346.92	2101.22
347.13	2054.11
347.34	1923.04
347.55	1859.56
347.76	2033.63
347.98	1890.28
348.19	1961.95
348.40	2060.26
348.61	1914.85
348.82	1998.82
349.03	2066.40
349.24	1841.12
349.45	2076.64
349.66	1773.54
349.88	1968.10
350.09	1941.47
350.30	2013.15
350.51	1998.82
350.72	2019.30
350.93	1894.37
351.14	1832.93
351.35	2058.21
351.56	1933.28
351.77	1892.32
351.99	2107.36
352.20	2045.92
352.41	2119.65
352.62	1830.88
352.83	1892.32
353.04	1929.19
353.25	1961.95
353.46	2011.11
353.67	2050.02
353.88	1834.98
354.09	1933.28
354.30	1869.80
354.52	1957.86
354.73	1953.76
354.94	1964.00
355.15	1916.90
355.36	2146.27
355.57	1955.81
355.78	1974.24
355.99	1916.90
356.20	1961.95
356.41	2037.73
356.62	1966.05
356.83	2007.01
357.04	2056.16
357.25	1812.45
357.46	1916.90
357.68	1896.42
357.89	1925.09
358.10	1923.04
358.31	1964.00
358.52	1875.94
358.73	1849.32
358.94	1900.52
359.15	1898.47
359.36	2054.11
359.57	1912.80
359.78	1988.58
359.99	2047.97
360.20	1853.41
360.41	1890.28
360.62	1982.43
360.83	1974.24
361.04	1959.91
361.25	1996.77
361.46	1986.53
361.67	2017.25
361.88	1988.58
362.09	2023.39
362.30	1972.19
362.51	1918.95
362.72	1939.43
362.93	2021.35
363.14	1961.95
363.35	1947.62
363.56	1853.41
363.78	2023.39
363.99	1986.53
364.20	1945.57
364.41	2011.11
364.62	2090.98
364.83	2007.01
365.04	1959.91
365.25	2035.68
365.46	2154.46
365.67	1898.47
365.88	1923.04
366.09	1935.33
366.30	1927.14
366.51	1964.00
366.72	1843.17
366.93	1867.75
367.14	2011.11
367.35	2013.15
367.56	1972.19
367.77	2039.78
367.98	1933.28
368.18	2064.35
368.39	2015.20
368.60	1886.18
368.81	2078.69
369.02	1978.34
369.23	2015.20
369.44	1886.18
369.65	1968.10
369.86	2000.87
370.07	1996.77
370.28	1859.56
370.49	2000.87
370.70	1998.82
370.91	1851.36
371.12	1888.23
371.33	2054.11
371.54	1970.15
371.75	2144.22
371.96	1767.40
372.17	1990.63
372.38	1900.52
372.59	1988.58
372.80	1978.34
373.01	1935.33
373.22	1914.85
373.43	1957.86
373.64	1859.56
373.85	2080.74
374.06	2027.49
374.26	1982.43
374.47	1961.95
374.68	2080.74
374.89	1927.14
375.10	1974.24
375.31	2084.83
375.52	1961.95
375.73	1939.43
375.94	1880.04
376.15	2082.78
376.36	1972.19
376.57	1976.29
376.78	1986.53
376.99	1906.66
377.20	2025.44
377.40	1959.91
377.61	2019.30
377.82	1847.27
378.03	2052.06
378.24	2050.02
378.45	1980.39
378.66	2019.30
378.87	1816.55
379.08	1834.98
379.29	1957.86
379.50	1988.58
379.71	1931.23
379.91	2054.11
380.12	1912.80
380.33	1945.57
380.54	1908.71
380.75	2004.96
380.96	1904.61
381.17	2043.87
381.38	1986.53
381.59	2033.63
381.80	2056.16
382.00	2166.75
382.21	2052.06
382.42	2039.78
382.63	2201.57
382.84	1998.82
383.05	2043.87
383.26	2109.41
383.47	1937.38
383.68	1996.77
383.88	1929.19
384.09	2050.02
384.30	2144.22
384.51	1955.81
384.72	1871.84
384.93	1871.84
385.14	1959.91
385.35	2054.11
385.55	1906.66
385.76	1994.72
385.97	1935.33
386.18	1826.79
386.39	1908.71
386.60	1955.81
386.81	1986.53
387.02	1970.15
387.22	1865.70
387.43	2119.65
387.64	2054.11
387.85	2111.46
388.06	2199.52
388.27	3946.44
388.48	8535.93
388.68	12058.44
388.89	14210.86
389.10	15300.37
389.31	14137.13
389.52	10893.15
389.73	9553.77
389.93	8720.25
390.14	7882.63
390.35	7239.57
390.56	6467.49
390.77	5171.12
390.98	4097.99
391.18	3151.82
391.39	2566.10
391.60	2113.50
391.81	2152.42
392.02	1961.95
392.23	2201.57
392.43	1964.00
392.64	2105.31
392.85	2031.58
393.06	2078.69
393.27	1966.05
393.47	1863.65
393.68	1961.95
393.89	1966.05
394.10	2039.78
394.31	1939.43
394.52	1882.08
394.72	1947.62
394.93	2101.22
395.14	1882.08
395.35	2013.15
395.56	1923.04
395.76	1918.95
395.97	2021.35
396.18	2164.70
396.39	2086.88
396.60	2381.79
396.80	2244.57
397.01	2148.32
397.22	2105.31
397.43	2267.10
397.64	1982.43
397.84	2111.46
398.05	2226.14
398.26	2070.50
398.47	2050.02
398.67	2041.82
398.88	1884.13
399.09	2031.58
399.30	1933.28
399.51	2009.06
399.71	2002.91
399.92	1974.24
400.13	2045.92
400.34	1920.99
400.54	1978.34
400.75	2113.50
400.96	2041.82
401.17	2058.21
401.37	2033.63
401.58	1904.61
401.79	1955.81
402.00	2093.02
402.21	2340.83
402.41	2320.35
402.62	2248.67
402.83	2453.47
403.04	2418.65
403.24	2432.99
403.45	2148.32
403.66	2215.90
403.87	2191.33
404.07	2205.66
404.28	2230.24
404.49	2213.85
404.70	2099.17
404.90	2058.21
405.11	2043.87
405.32	2029.54
405.52	1949.67
405.73	1861.60
405.94	1959.91
406.15	1957.86
406.35	2084.83
406.56	2019.30
406.77	1996.77
406.98	1988.58
407.18	1923.04
407.39	2052.06
407.60	1943.52
407.80	1970.15
408.01	1961.95
408.22	2004.96
408.43	1923.04
408.63	2033.63
408.84	1939.43
409.05	1984.48
409.25	1974.24
409.46	1832.93
409.67	1908.71
409.88	1912.80
410.08	1988.58
410.29	1877.99
410.50	2011.11
410.70	1980.39
410.91	1908.71
411.12	2023.39
411.32	1988.58
411.53	1925.09
411.74	2029.54
411.95	2056.16
412.15	2058.21
412.36	2066.40
412.57	2043.87
412.77	2142.18
412.98	2039.78
413.19	1959.91
413.39	2033.63
413.60	1970.15
413.81	2152.42
414.01	1920.99
414.22	1953.76
414.43	2072.54
414.63	1951.71
414.84	2072.54
415.05	1992.67
415.25	1904.61
415.46	1976.29
415.67	1875.94
415.87	2064.35
416.08	1947.62
416.29	1949.67
416.49	1966.05
416.70	1953.76
416.91	1996.77
417.11	1896.42
417.32	2058.21
417.53	2058.21
417.73	2027.49
417.94	2004.96
418.15	2039.78
418.35	2007.01
418.56	1972.19
418.77	2093.02
418.97	1970.15
419.18	1941.47
419.38	1800.16
419.59	1996.77
419.80	2080.74
420.00	1968.10
420.21	2000.87
420.42	2168.80
420.62	2033.63
420.83	1943.52
421.04	1929.19
421.24	1945.57
421.45	2023.39
421.65	1955.81
421.86	1943.52
422.07	1916.90
422.27	1918.95
422.48	1970.15
422.69	1853.41
422.89	1920.99
423.10	1964.00
423.30	1953.76
423.51	1959.91
423.72	2011.11
423.92	1947.62
424.13	1816.55
424.33	1925.09
424.54	1992.67
424.75	2013.15
424.95	2058.21
425.16	1964.00
425.36	1904.61
425.57	2099.17
425.78	1931.23
425.98	2058.21
426.19	1888.23
426.39	1894.37
426.60	1974.24
426.81	2058.21
427.01	2064.35
427.22	1886.18
427.42	1804.26
427.63	1888.23
427.83	2007.01
428.04	2062.30
428.25	1980.39
428.45	2027.49
428.66	2074.59
428.86	1898.47
429.07	1937.38
429.28	1923.04
429.48	2035.68
429.69	1941.47
429.89	2007.01
430.10	1867.75
430.30	2000.87
430.51	1980.39
430.71	1898.47
430.92	1966.05
431.13	1861.60
431.33	1949.67
431.54	2017.25
431.74	2097.12
431.95	2146.27
432.15	1853.41
432.36	1939.43
432.56	1982.43
432.77	2084.83
432.98	2164.70
433.18	1888.23
433.39	1931.23
433.59	1966.05
433.80	2052.06
434.00	2097.12
434.21	1953.76
434.41	1910.75
434.62	2097.12
434.82	1871.84
435.03	1900.52
435.23	1994.72
435.44	1804.26
435.64	1912.80
435.85	1992.67
436.06	1994.72
436.26	2064.35
436.47	1992.67
436.67	1908.71
436.88	1980.39
437.08	2025.44
437.29	2066.40
437.49	2011.11
437.70	2064.35
437.90	1978.34
438.11	2119.65
438.31	2080.74
438.52	2172.89
438.72	2160.61
438.93	2199.52
439.13	2058.21
439.34	2148.32
439.54	1998.82
439.75	2086.88
439.95	2025.44
440.16	2060.26
440.36	2068.45
440.57	2095.07
440.77	1998.82
440.98	1943.52
441.18	1949.67
441.39	1935.33
441.59	1906.66
441.80	2115.55
442.00	2025.44
442.21	2033.63
442.41	1877.99
442.62	2056.16
442.82	1951.71
443.02	1910.75
443.23	1980.39
443.43	2086.88
443.64	2123.74
443.84	1937.38
444.05	2131.94
444.25	2009.06
444.46	2013.15
444.66	1890.28
444.87	2031.58
445.07	1894.37
445.28	2023.39
445.48	2054.11
445.69	2095.07
445.89	2205.66
446.09	1996.77
446.30	2244.57
446.50	2678.74
446.71	4081.60
446.91	5287.86
447.12	5943.21
447.32	6547.36
447.53	5875.62
447.73	4796.34
447.93	4364.22
448.14	3942.34
448.34	3798.98
448.55	3344.33
448.75	3327.95
448.96	3209.17
449.16	2940.88
449.36	2660.31
449.57	2371.55
449.77	2131.94
449.98	2025.44
450.18	2088.93
450.39	2084.83
450.59	2047.97
450.79	2041.82
451.00	1863.65
451.20	1994.72
451.41	1959.91
451.61	2156.51
451.81	1978.34
452.02	1900.52
452.22	2007.01
452.43	1959.91
452.63	1914.85
