SpectraSuite Data File
++++++++++++++++++++++++++++++++++++
Date: Wed May 04 22:45:59 CEST 2016
User: root
Dark Spectrum Present: No
Reference Spectrum Present: No
Number of Sampled Component Spectra: 1
Spectrometers: USB4C02835
Integration Time (usec): 100000 (USB4C02835)
Spectra Averaged: 1 (USB4C02835)
Boxcar Smoothing: 0 (USB4C02835)
Correct for Electrical Dark: No (USB4C02835)
Strobe/Lamp Enabled: No (USB4C02835)
Correct for Detector Non-linearity: No (USB4C02835)
Correct for Stray Light: No (USB4C02835)
Number of Pixels in Processed Spectrum: 3648
>>>>>Begin Processed Spectral Data<<<<<
177.47	1595.37
177.69	1595.37
177.91	1595.37
178.13	1587.18
178.36	1595.37
178.58	1900.52
178.80	1988.58
179.02	1841.12
179.24	1869.80
179.46	1912.80
179.68	2035.68
179.90	1972.19
180.13	1957.86
180.35	1886.18
180.57	1953.76
180.79	2105.31
181.01	1966.05
181.23	1957.86
181.45	2011.11
181.67	2015.20
181.90	2017.25
182.12	1920.99
182.34	1933.28
182.56	1994.72
182.78	1955.81
183.00	1908.71
183.22	1869.80
183.44	1880.04
183.66	2193.37
183.89	2058.21
184.11	1873.89
184.33	2027.49
184.55	1959.91
184.77	1941.47
184.99	1943.52
185.21	1931.23
185.43	2117.60
185.65	1937.38
185.87	1929.19
186.10	2170.85
186.32	2074.59
186.54	1939.43
186.76	1957.86
186.98	2086.88
187.20	1916.90
187.42	1959.91
187.64	1955.81
187.86	1988.58
188.08	2041.82
188.30	1964.00
188.52	1912.80
188.75	2037.73
188.97	2084.83
189.19	1900.52
189.41	1918.95
189.63	1912.80
189.85	1857.51
190.07	1853.41
190.29	1843.17
190.51	2000.87
190.73	1826.79
190.95	2021.35
191.17	1920.99
191.39	1832.93
191.61	2041.82
191.84	1875.94
192.06	1927.14
192.28	1794.02
192.50	2191.33
192.72	1929.19
192.94	1914.85
193.16	1982.43
193.38	1996.77
193.60	1925.09
193.82	1945.57
194.04	2119.65
194.26	1974.24
194.48	1945.57
194.70	1910.75
194.92	1978.34
195.14	2031.58
195.36	1943.52
195.58	1959.91
195.80	1959.91
196.02	1912.80
196.24	1865.70
196.46	2000.87
196.69	1927.14
196.91	2166.75
197.13	1974.24
197.35	1920.99
197.57	2025.44
197.79	2039.78
198.01	1951.71
198.23	1970.15
198.45	1929.19
198.67	1910.75
198.89	1886.18
199.11	1980.39
199.33	1830.88
199.55	1847.27
199.77	1880.04
199.99	2013.15
200.21	2007.01
200.43	2035.68
200.65	1894.37
200.87	1851.36
201.09	1923.04
201.31	1898.47
201.53	2029.54
201.75	2025.44
201.97	1873.89
202.19	1959.91
202.41	1916.90
202.63	2000.87
202.85	2015.20
203.07	1923.04
203.29	1888.23
203.51	1935.33
203.73	1853.41
203.95	2244.57
204.17	1974.24
204.39	1986.53
204.61	1923.04
204.83	1937.38
205.05	2039.78
205.27	1959.91
205.49	2072.54
205.71	1968.10
205.93	1939.43
206.15	1865.70
206.37	1978.34
206.59	1929.19
206.81	1826.79
207.03	1892.32
207.25	1871.84
207.47	1968.10
207.69	1900.52
207.91	2041.82
208.13	2056.16
208.34	1912.80
208.56	1822.69
208.78	1957.86
209.00	1972.19
209.22	1947.62
209.44	1867.75
209.66	1947.62
209.88	1966.05
210.10	1951.71
210.32	1884.13
210.54	2029.54
210.76	1886.18
210.98	2007.01
211.20	1847.27
211.42	1945.57
211.64	2103.26
211.86	1998.82
212.08	2019.30
212.30	1964.00
212.52	1933.28
212.74	1974.24
212.96	1890.28
213.17	1935.33
213.39	2097.12
213.61	2084.83
213.83	1920.99
214.05	1970.15
214.27	2019.30
214.49	1808.36
214.71	1777.64
214.93	2050.02
215.15	1984.48
215.37	2086.88
215.59	1904.61
215.81	2015.20
216.03	2101.22
216.24	1964.00
216.46	1898.47
216.68	1920.99
216.90	2043.87
217.12	2070.50
217.34	1925.09
217.56	1984.48
217.78	2054.11
218.00	2050.02
218.22	1970.15
218.44	1920.99
218.66	1951.71
218.87	2082.78
219.09	1908.71
219.31	1957.86
219.53	1947.62
219.75	1898.47
219.97	1941.47
220.19	1996.77
220.41	2025.44
220.63	2027.49
220.85	1923.04
221.06	1933.28
221.28	2123.74
221.50	2043.87
221.72	1912.80
221.94	1927.14
222.16	1996.77
222.38	2021.35
222.60	2009.06
222.82	1935.33
223.03	1978.34
223.25	1853.41
223.47	1951.71
223.69	2066.40
223.91	1998.82
224.13	1968.10
224.35	1818.60
224.57	2033.63
224.78	1974.24
225.00	1957.86
225.22	1972.19
225.44	1916.90
225.66	2031.58
225.88	1935.33
226.10	1990.63
226.32	1873.89
226.53	2078.69
226.75	1873.89
226.97	1908.71
227.19	1920.99
227.41	1896.42
227.63	1964.00
227.85	1791.97
228.06	1892.32
228.28	1964.00
228.50	2050.02
228.72	1865.70
228.94	1906.66
229.16	1802.21
229.37	1951.71
229.59	1935.33
229.81	2076.64
230.03	1986.53
230.25	1884.13
230.47	1859.56
230.69	1839.08
230.90	1996.77
231.12	1945.57
231.34	1980.39
231.56	1953.76
231.78	1908.71
232.00	1941.47
232.21	1927.14
232.43	1955.81
232.65	1806.31
232.87	1998.82
233.09	1877.99
233.30	1896.42
233.52	2074.59
233.74	1943.52
233.96	1877.99
234.18	1933.28
234.40	1869.80
234.61	2183.13
234.83	1865.70
235.05	1839.08
235.27	2109.41
235.49	1994.72
235.70	1894.37
235.92	2043.87
236.14	2072.54
236.36	2170.85
236.58	1865.70
236.79	1916.90
237.01	1955.81
237.23	1935.33
237.45	2072.54
237.67	1964.00
237.88	2043.87
238.10	2125.79
238.32	1851.36
238.54	1888.23
238.76	1984.48
238.97	1961.95
239.19	1927.14
239.41	1998.82
239.63	2088.93
239.85	1918.95
240.06	1798.12
240.28	1959.91
240.50	2000.87
240.72	1976.29
240.93	1859.56
241.15	2029.54
241.37	1972.19
241.59	2109.41
241.81	1990.63
242.02	1918.95
242.24	1990.63
242.46	2017.25
242.68	1875.94
242.89	1982.43
243.11	1982.43
243.33	1988.58
243.55	2058.21
243.76	1949.67
243.98	1894.37
244.20	1920.99
244.42	1912.80
244.64	1998.82
244.85	1896.42
245.07	1984.48
245.29	1947.62
245.51	2050.02
245.72	1994.72
245.94	2011.11
246.16	1957.86
246.38	1968.10
246.59	1841.12
246.81	1908.71
247.03	1933.28
247.24	1791.97
247.46	1877.99
247.68	1937.38
247.90	1865.70
248.11	1845.22
248.33	1992.67
248.55	1970.15
248.77	1877.99
248.98	1951.71
249.20	2080.74
249.42	1947.62
249.64	2002.91
249.85	1910.75
250.07	1970.15
250.29	2027.49
250.50	2027.49
250.72	1972.19
250.94	2047.97
251.16	2111.46
251.37	1894.37
251.59	1972.19
251.81	2017.25
252.02	2064.35
252.24	1863.65
252.46	2101.22
252.68	1964.00
252.89	1953.76
253.11	1771.49
253.33	2035.68
253.54	2115.55
253.76	1816.55
253.98	1888.23
254.20	1912.80
254.41	1798.12
254.63	1920.99
254.85	1861.60
255.06	1978.34
255.28	1986.53
255.50	1974.24
255.71	1947.62
255.93	1822.69
256.15	1933.28
256.36	2066.40
256.58	1882.08
256.80	1992.67
257.02	1972.19
257.23	1947.62
257.45	1902.56
257.67	1996.77
257.88	1890.28
258.10	2056.16
258.32	1908.71
258.53	1929.19
258.75	2078.69
258.97	1923.04
259.18	1976.29
259.40	1863.65
259.62	2097.12
259.83	2033.63
260.05	1933.28
260.27	2314.20
260.48	1935.33
260.70	1994.72
260.92	1939.43
261.13	1914.85
261.35	1988.58
261.57	1957.86
261.78	1900.52
262.00	1906.66
262.22	1974.24
262.43	1863.65
262.65	1904.61
262.86	1931.23
263.08	2123.74
263.30	1947.62
263.51	1771.49
263.73	1822.69
263.95	2095.07
264.16	1920.99
264.38	1904.61
264.60	1900.52
264.81	1937.38
265.03	2011.11
265.25	2000.87
265.46	1923.04
265.68	2037.73
265.89	2031.58
266.11	1812.45
266.33	1990.63
266.54	2027.49
266.76	1914.85
266.98	1933.28
267.19	2031.58
267.41	1992.67
267.62	1976.29
267.84	1818.60
268.06	1984.48
268.27	1957.86
268.49	2017.25
268.70	1970.15
268.92	1880.04
269.14	1884.13
269.35	1900.52
269.57	1923.04
269.79	1961.95
270.00	1937.38
270.22	2113.50
270.43	1920.99
270.65	1773.54
270.87	2070.50
271.08	1990.63
271.30	2021.35
271.51	1994.72
271.73	1976.29
271.95	1994.72
272.16	1986.53
272.38	2056.16
272.59	1949.67
272.81	2013.15
273.02	1968.10
273.24	1994.72
273.46	2041.82
273.67	1906.66
273.89	1951.71
274.10	1935.33
274.32	1996.77
274.54	2021.35
274.75	1937.38
274.97	1925.09
275.18	2021.35
275.40	2054.11
275.61	2002.91
275.83	1978.34
276.05	1918.95
276.26	1974.24
276.48	1894.37
276.69	1916.90
276.91	1882.08
277.12	2015.20
277.34	1964.00
277.55	1980.39
277.77	1996.77
277.99	1869.80
278.20	1869.80
278.42	1894.37
278.63	1925.09
278.85	1888.23
279.06	1853.41
279.28	1988.58
279.49	2004.96
279.71	2054.11
279.93	1984.48
280.14	1939.43
280.36	1894.37
280.57	2025.44
280.79	2015.20
281.00	1980.39
281.22	1898.47
281.43	2025.44
281.65	1761.25
281.86	1812.45
282.08	2009.06
282.29	2101.22
282.51	1916.90
282.73	1955.81
282.94	1871.84
283.16	2011.11
283.37	2080.74
283.59	1978.34
283.80	2009.06
284.02	1984.48
284.23	1966.05
284.45	1955.81
284.66	1839.08
284.88	1945.57
285.09	1970.15
285.31	2043.87
285.52	2029.54
285.74	1851.36
285.95	1986.53
286.17	1959.91
286.38	2023.39
286.60	1904.61
286.81	1880.04
287.03	1968.10
287.24	1923.04
287.46	2002.91
287.67	1923.04
287.89	2025.44
288.10	2064.35
288.32	1966.05
288.53	1980.39
288.75	1955.81
288.96	2031.58
289.18	1953.76
289.39	1951.71
289.61	2015.20
289.82	2236.38
290.04	2082.78
290.25	1830.88
290.47	1904.61
290.68	1908.71
290.90	2037.73
291.11	1779.68
291.33	2019.30
291.54	1861.60
291.76	1896.42
291.97	1957.86
292.18	1929.19
292.40	1904.61
292.61	1886.18
292.83	2113.50
293.04	1918.95
293.26	2025.44
293.47	1877.99
293.69	1826.79
293.90	1920.99
294.12	2045.92
294.33	1937.38
294.55	1951.71
294.76	1968.10
294.97	2080.74
295.19	2097.12
295.40	1927.14
295.62	1984.48
295.83	2009.06
296.05	1939.43
296.26	2023.39
296.48	1914.85
296.69	1988.58
296.90	1906.66
297.12	2009.06
297.33	2031.58
297.55	1916.90
297.76	1978.34
297.98	2050.02
298.19	1964.00
298.41	1937.38
298.62	1957.86
298.83	2056.16
299.05	1937.38
299.26	1816.55
299.48	1916.90
299.69	2004.96
299.90	1949.67
300.12	1972.19
300.33	2031.58
300.55	1933.28
300.76	2007.01
300.98	1843.17
301.19	2013.15
301.40	1916.90
301.62	1976.29
301.83	2037.73
302.05	1929.19
302.26	1951.71
302.47	1824.74
302.69	1869.80
302.90	1955.81
303.12	1814.50
303.33	2056.16
303.54	2105.31
303.76	1968.10
303.97	2011.11
304.19	2166.75
304.40	1849.32
304.61	2002.91
304.83	2113.50
305.04	2025.44
305.26	2080.74
305.47	1906.66
305.68	1935.33
305.90	1980.39
306.11	2060.26
306.33	1990.63
306.54	1964.00
306.75	1849.32
306.97	1785.83
307.18	1869.80
307.39	1857.51
307.61	2027.49
307.82	1970.15
308.04	2068.45
308.25	1890.28
308.46	2045.92
308.68	1982.43
308.89	1986.53
309.10	2078.69
309.32	1980.39
309.53	1988.58
309.74	1890.28
309.96	1837.03
310.17	2033.63
310.39	1964.00
310.60	1992.67
310.81	2009.06
311.03	1888.23
311.24	2019.30
311.45	1943.52
311.67	2039.78
311.88	1943.52
312.09	1931.23
312.31	1918.95
312.52	1943.52
312.73	1890.28
312.95	1802.21
313.16	1896.42
313.37	2125.79
313.59	2031.58
313.80	1978.34
314.01	2095.07
314.23	1933.28
314.44	1859.56
314.65	1882.08
314.87	1853.41
315.08	1912.80
315.29	1914.85
315.51	1839.08
315.72	1843.17
315.93	2041.82
316.15	2045.92
316.36	1943.52
316.57	1996.77
316.79	2027.49
317.00	1951.71
317.21	2009.06
317.43	1912.80
317.64	1964.00
317.85	1914.85
318.07	1851.36
318.28	2021.35
318.49	2154.46
318.70	2236.38
318.92	2125.79
319.13	2131.94
319.34	2052.06
319.56	2043.87
319.77	2097.12
319.98	2090.98
320.20	2066.40
320.41	2078.69
320.62	2052.06
320.83	1972.19
321.05	2168.80
321.26	1964.00
321.47	1964.00
321.69	2058.21
321.90	1916.90
322.11	1871.84
322.32	1966.05
322.54	2066.40
322.75	1959.91
322.96	2117.60
323.18	1839.08
323.39	1769.44
323.60	1851.36
323.81	1945.57
324.03	1894.37
324.24	2002.91
324.45	1914.85
324.66	1957.86
324.88	2043.87
325.09	2131.94
325.30	1918.95
325.52	1916.90
325.73	2029.54
325.94	1949.67
326.15	1884.13
326.37	1927.14
326.58	2037.73
326.79	2031.58
327.00	1978.34
327.22	1931.23
327.43	1818.60
327.64	1830.88
327.85	1996.77
328.07	1986.53
328.28	2125.79
328.49	1877.99
328.70	1953.76
328.92	1931.23
329.13	1916.90
329.34	1996.77
329.55	2064.35
329.76	2056.16
329.98	1920.99
330.19	2109.41
330.40	1974.24
330.61	1990.63
330.83	2021.35
331.04	1943.52
331.25	2031.58
331.46	1955.81
331.68	1877.99
331.89	2029.54
332.10	1955.81
332.31	1869.80
332.52	1873.89
332.74	2027.49
332.95	1826.79
333.16	1916.90
333.37	2011.11
333.58	1869.80
333.80	1951.71
334.01	1832.93
334.22	1873.89
334.43	1886.18
334.64	1916.90
334.86	1847.27
335.07	1892.32
335.28	2068.45
335.49	1851.36
335.70	1992.67
335.92	2023.39
336.13	2119.65
336.34	2033.63
336.55	1976.29
336.76	1957.86
336.98	1853.41
337.19	1974.24
337.40	2152.42
337.61	2185.18
337.82	1869.80
338.04	2009.06
338.25	1847.27
338.46	1968.10
338.67	1904.61
338.88	1900.52
339.09	1867.75
339.31	1863.65
339.52	1884.13
339.73	1886.18
339.94	1882.08
340.15	2084.83
340.36	1902.56
340.58	2009.06
340.79	1908.71
341.00	1959.91
341.21	1869.80
341.42	2101.22
341.63	1935.33
341.85	2013.15
342.06	1986.53
342.27	1843.17
342.48	2068.45
342.69	1863.65
342.90	1968.10
343.12	2009.06
343.33	1974.24
343.54	2101.22
343.75	2076.64
343.96	1943.52
344.17	1949.67
344.38	1941.47
344.60	1869.80
344.81	1873.89
345.02	1943.52
345.23	2066.40
345.44	2150.37
345.65	2031.58
345.86	2007.01
346.07	2129.89
346.29	1961.95
346.50	2007.01
346.71	2009.06
346.92	2037.73
347.13	2125.79
347.34	1916.90
347.55	1918.95
347.76	2035.68
347.98	1886.18
348.19	1837.03
348.40	2131.94
348.61	1904.61
348.82	2095.07
349.03	1951.71
349.24	1894.37
349.45	2025.44
349.66	1841.12
349.88	1898.47
350.09	1929.19
350.30	2084.83
350.51	1992.67
350.72	2035.68
350.93	1959.91
351.14	1908.71
351.35	1984.48
351.56	1925.09
351.77	1894.37
351.99	1988.58
352.20	2062.30
352.41	2070.50
352.62	1785.83
352.83	1863.65
353.04	1898.47
353.25	1933.28
353.46	2090.98
353.67	1990.63
353.88	1834.98
354.09	1972.19
354.30	1961.95
354.52	2000.87
354.73	1929.19
354.94	1964.00
355.15	2027.49
355.36	2076.64
355.57	1918.95
355.78	1953.76
355.99	1920.99
356.20	1939.43
356.41	1984.48
356.62	1980.39
356.83	1929.19
357.04	2037.73
357.25	1851.36
357.46	1949.67
357.68	1920.99
357.89	1859.56
358.10	1984.48
358.31	1925.09
358.52	1914.85
358.73	1898.47
358.94	1857.51
359.15	1945.57
359.36	1953.76
359.57	1957.86
359.78	1929.19
359.99	1972.19
360.20	1880.04
360.41	2021.35
360.62	2060.26
360.83	1949.67
361.04	2041.82
361.25	1937.38
361.46	2080.74
361.67	1964.00
361.88	2031.58
362.09	2033.63
362.30	1976.29
362.51	1869.80
362.72	1923.04
362.93	2039.78
363.14	2050.02
363.35	2031.58
363.56	1906.66
363.78	1943.52
363.99	2031.58
364.20	1949.67
364.41	2007.01
364.62	2113.50
364.83	2033.63
365.04	1947.62
365.25	1972.19
365.46	2082.78
365.67	1892.32
365.88	1996.77
366.09	2019.30
366.30	1986.53
366.51	2033.63
366.72	1925.09
366.93	1941.47
367.14	1978.34
367.35	2154.46
367.56	2019.30
367.77	2056.16
367.98	1951.71
368.18	1976.29
368.39	1964.00
368.60	1892.32
368.81	1984.48
369.02	1892.32
369.23	1955.81
369.44	1828.84
369.65	1988.58
369.86	2013.15
370.07	2023.39
370.28	1910.75
370.49	1986.53
370.70	1984.48
370.91	1871.84
371.12	1834.98
371.33	2127.84
371.54	1974.24
371.75	2076.64
371.96	1826.79
372.17	1976.29
372.38	1980.39
372.59	1945.57
372.80	1916.90
373.01	1935.33
373.22	1906.66
373.43	2027.49
373.64	1847.27
373.85	2068.45
374.06	2086.88
374.26	2039.78
374.47	1933.28
374.68	2056.16
374.89	1964.00
375.10	1886.18
375.31	1949.67
375.52	1933.28
375.73	2068.45
375.94	1908.71
376.15	1992.67
376.36	1900.52
376.57	1933.28
376.78	1871.84
376.99	2011.11
377.20	2060.26
377.40	1943.52
377.61	2078.69
377.82	1822.69
378.03	2052.06
378.24	2021.35
378.45	1990.63
378.66	1961.95
378.87	1847.27
379.08	1843.17
379.29	1937.38
379.50	2031.58
379.71	1933.28
379.91	2035.68
380.12	1920.99
380.33	1959.91
380.54	1953.76
380.75	1970.15
380.96	1964.00
381.17	2007.01
381.38	1951.71
381.59	1992.67
381.80	1978.34
382.00	2156.51
382.21	2007.01
382.42	2189.28
382.63	2191.33
382.84	2027.49
383.05	2039.78
383.26	2076.64
383.47	1966.05
383.68	2080.74
383.88	2017.25
384.09	2037.73
384.30	2127.84
384.51	2013.15
384.72	1920.99
384.93	1894.37
385.14	2027.49
385.35	2078.69
385.55	1865.70
385.76	2119.65
385.97	1912.80
386.18	1863.65
386.39	1894.37
386.60	1964.00
386.81	2095.07
387.02	1961.95
387.22	1925.09
387.43	2052.06
387.64	2023.39
387.85	2107.36
388.06	2285.53
388.27	3901.38
388.48	8580.99
388.68	11818.83
388.89	14223.14
389.10	15169.30
389.31	13860.65
389.52	10893.15
389.73	9312.11
389.93	8517.50
390.14	7856.01
390.35	7196.56
390.56	6389.66
390.77	5136.31
390.98	4091.84
391.18	3205.07
391.39	2578.39
391.60	2152.42
391.81	2123.74
392.02	1939.43
392.23	2103.26
392.43	2019.30
392.64	1982.43
392.85	1959.91
393.06	2127.84
393.27	1984.48
393.47	1918.95
393.68	1910.75
393.89	1884.13
394.10	2041.82
394.31	1888.23
394.52	1918.95
394.72	1966.05
394.93	2041.82
395.14	1865.70
395.35	2009.06
395.56	1953.76
395.76	1998.82
395.97	2002.91
396.18	2113.50
396.39	2107.36
396.60	2412.51
396.80	2234.33
397.01	2136.03
397.22	2183.13
397.43	2181.09
397.64	2033.63
397.84	2045.92
398.05	2181.09
398.26	2002.91
398.47	2052.06
398.67	2004.96
398.88	2000.87
399.09	2000.87
399.30	1933.28
399.51	1994.72
399.71	1912.80
399.92	1939.43
400.13	1920.99
400.34	1980.39
400.54	2072.54
400.75	2154.46
400.96	2011.11
401.17	2103.26
401.37	1966.05
401.58	2037.73
401.79	1906.66
402.00	2105.31
402.21	2310.11
402.41	2293.72
402.62	2432.99
402.83	2461.66
403.04	2445.27
403.24	2482.14
403.45	2097.12
403.66	2236.38
403.87	2119.65
404.07	2181.09
404.28	2260.96
404.49	2187.23
404.70	2097.12
404.90	2009.06
405.11	1968.10
405.32	2009.06
405.52	1916.90
405.73	1912.80
405.94	1902.56
406.15	1959.91
406.35	1980.39
406.56	2023.39
406.77	1992.67
406.98	1931.23
407.18	1871.84
407.39	2166.75
407.60	1923.04
407.80	2064.35
408.01	1914.85
408.22	2025.44
408.43	1869.80
408.63	1959.91
408.84	1910.75
409.05	1943.52
409.25	1888.23
409.46	1955.81
409.67	1955.81
409.88	1875.94
410.08	1966.05
410.29	1925.09
410.50	2066.40
410.70	2041.82
410.91	1945.57
411.12	2015.20
411.32	1888.23
411.53	1929.19
411.74	2025.44
411.95	2154.46
412.15	2107.36
412.36	2078.69
412.57	2019.30
412.77	2086.88
412.98	2076.64
413.19	1927.14
413.39	1978.34
413.60	2021.35
413.81	2078.69
414.01	1912.80
414.22	2039.78
414.43	2060.26
414.63	2011.11
414.84	2064.35
415.05	2000.87
415.25	1892.32
415.46	2052.06
415.67	1925.09
415.87	2029.54
416.08	1927.14
416.29	1832.93
416.49	1994.72
416.70	1935.33
416.91	1927.14
417.11	2029.54
417.32	2035.68
417.53	1980.39
417.73	1966.05
417.94	1937.38
418.15	2007.01
418.35	1939.43
418.56	1970.15
418.77	2138.08
418.97	1943.52
419.18	1902.56
419.38	1763.30
419.59	1949.67
419.80	2078.69
420.00	1920.99
420.21	1933.28
420.42	2045.92
420.62	2013.15
420.83	1927.14
421.04	1904.61
421.24	1867.75
421.45	1978.34
421.65	1955.81
421.86	1951.71
422.07	1992.67
422.27	1959.91
422.48	1884.13
422.69	1896.42
422.89	2007.01
423.10	1892.32
423.30	1871.84
423.51	1943.52
423.72	1990.63
423.92	2043.87
424.13	1843.17
424.33	2084.83
424.54	1992.67
424.75	1988.58
424.95	2068.45
425.16	1976.29
425.36	2037.73
425.57	2082.78
425.78	1978.34
425.98	1994.72
426.19	1968.10
426.39	1869.80
426.60	2017.25
426.81	2047.97
427.01	1951.71
427.22	1869.80
427.42	1816.55
427.63	1968.10
427.83	2064.35
428.04	2115.55
428.25	2086.88
428.45	2068.45
428.66	2023.39
428.86	1984.48
429.07	1980.39
429.28	1933.28
429.48	1961.95
429.69	1912.80
429.89	2021.35
430.10	1855.46
430.30	2029.54
430.51	1955.81
430.71	1890.28
430.92	1996.77
431.13	1857.51
431.33	2023.39
431.54	1974.24
431.74	2027.49
431.95	2136.03
432.15	1871.84
432.36	2017.25
432.56	1959.91
432.77	2058.21
432.98	2121.70
433.18	2013.15
433.39	2002.91
433.59	1904.61
433.80	2105.31
434.00	2136.03
434.21	1923.04
434.41	1933.28
434.62	2217.95
434.82	1910.75
435.03	1789.92
435.23	2000.87
435.44	1859.56
435.64	1937.38
435.85	1966.05
436.06	1980.39
436.26	2007.01
436.47	1929.19
436.67	1918.95
436.88	1916.90
437.08	2037.73
437.29	2097.12
437.49	2013.15
437.70	2047.97
437.90	2002.91
438.11	2111.46
438.31	2105.31
438.52	2166.75
438.72	2082.78
438.93	2269.15
439.13	2017.25
439.34	2113.50
439.54	1937.38
439.75	2064.35
439.95	2025.44
440.16	1943.52
440.36	2007.01
440.57	2045.92
440.77	2037.73
440.98	1972.19
441.18	1972.19
441.39	1916.90
441.59	1900.52
441.80	2160.61
442.00	1955.81
442.21	2031.58
442.41	1906.66
442.62	2095.07
442.82	1888.23
443.02	1996.77
443.23	2023.39
443.43	1957.86
443.64	2082.78
443.84	1920.99
444.05	2111.46
444.25	2033.63
444.46	2035.68
444.66	1955.81
444.87	2142.18
445.07	1861.60
445.28	1933.28
445.48	2121.70
445.69	2017.25
445.89	2166.75
446.09	2007.01
446.30	2240.48
446.50	2498.52
446.71	4112.32
446.91	5238.70
447.12	6111.14
447.32	6305.70
447.53	5941.16
447.73	4956.08
447.93	4261.82
448.14	3899.33
448.34	3762.12
448.55	3379.15
448.75	3278.80
448.96	3266.51
449.16	2830.29
449.36	2629.59
449.57	2363.36
449.77	2138.08
449.98	1964.00
450.18	2115.55
450.39	2023.39
450.59	2056.16
450.79	2033.63
451.00	1964.00
451.20	2031.58
451.41	1998.82
451.61	1970.15
451.81	1988.58
452.02	1978.34
452.22	1996.77
452.43	1980.39
452.63	1914.85
