SpectraSuite Data File
++++++++++++++++++++++++++++++++++++
Date: Wed May 04 22:45:35 CEST 2016
User: root
Dark Spectrum Present: No
Reference Spectrum Present: No
Number of Sampled Component Spectra: 1
Spectrometers: USB4C02835
Integration Time (usec): 100000 (USB4C02835)
Spectra Averaged: 1 (USB4C02835)
Boxcar Smoothing: 0 (USB4C02835)
Correct for Electrical Dark: No (USB4C02835)
Strobe/Lamp Enabled: No (USB4C02835)
Correct for Detector Non-linearity: No (USB4C02835)
Correct for Stray Light: No (USB4C02835)
Number of Pixels in Processed Spectrum: 3648
>>>>>Begin Processed Spectral Data<<<<<
177.47	1673.19
177.69	1673.19
177.91	1673.19
178.13	1646.57
178.36	1617.90
178.58	1927.14
178.80	2013.15
179.02	1904.61
179.24	1894.37
179.46	1910.75
179.68	1982.43
179.90	1843.17
180.13	1982.43
180.35	1877.99
180.57	1871.84
180.79	1996.77
181.01	1976.29
181.23	1949.67
181.45	2033.63
181.67	2052.06
181.90	1994.72
182.12	1877.99
182.34	1902.56
182.56	2029.54
182.78	2047.97
183.00	1941.47
183.22	1980.39
183.44	1875.94
183.66	2183.13
183.89	2007.01
184.11	2000.87
184.33	1937.38
184.55	2019.30
184.77	1894.37
184.99	1957.86
185.21	1933.28
185.43	2148.32
185.65	1902.56
185.87	1953.76
186.10	2162.66
186.32	2146.27
186.54	1947.62
186.76	2029.54
186.98	2103.26
187.20	1920.99
187.42	1892.32
187.64	1992.67
187.86	2027.49
188.08	2013.15
188.30	1982.43
188.52	1972.19
188.75	2076.64
188.97	2119.65
189.19	1884.13
189.41	1820.64
189.63	1972.19
189.85	1892.32
190.07	1888.23
190.29	1824.74
190.51	1988.58
190.73	1867.75
190.95	2097.12
191.17	2002.91
191.39	1853.41
191.61	1968.10
191.84	1984.48
192.06	1972.19
192.28	1808.36
192.50	2201.57
192.72	2011.11
192.94	1906.66
193.16	2047.97
193.38	1988.58
193.60	1871.84
193.82	1937.38
194.04	2004.96
194.26	1937.38
194.48	1902.56
194.70	1984.48
194.92	1945.57
195.14	1941.47
195.36	1853.41
195.58	1964.00
195.80	1912.80
196.02	1906.66
196.24	1914.85
196.46	1925.09
196.69	1898.47
196.91	2164.70
197.13	1914.85
197.35	1855.46
197.57	2086.88
197.79	1986.53
198.01	1896.42
198.23	2035.68
198.45	2029.54
198.67	1964.00
198.89	1959.91
199.11	1961.95
199.33	1955.81
199.55	1796.07
199.77	1890.28
199.99	2023.39
200.21	1912.80
200.43	1937.38
200.65	1892.32
200.87	1794.02
201.09	1923.04
201.31	2045.92
201.53	1953.76
201.75	1939.43
201.97	1857.51
202.19	1990.63
202.41	1990.63
202.63	2103.26
202.85	1961.95
203.07	1964.00
203.29	1951.71
203.51	1869.80
203.73	1857.51
203.95	2187.23
204.17	2043.87
204.39	1863.65
204.61	1931.23
204.83	1923.04
205.05	2031.58
205.27	1986.53
205.49	2158.56
205.71	1980.39
205.93	1828.84
206.15	1949.67
206.37	1931.23
206.59	1902.56
206.81	1800.16
207.03	1873.89
207.25	1904.61
207.47	2033.63
207.69	1912.80
207.91	2039.78
208.13	2013.15
208.34	1916.90
208.56	2031.58
208.78	1976.29
209.00	1925.09
209.22	1855.46
209.44	1933.28
209.66	1974.24
209.88	1914.85
210.10	1914.85
210.32	1925.09
210.54	2072.54
210.76	1992.67
210.98	2045.92
211.20	1865.70
211.42	2000.87
211.64	2050.02
211.86	1935.33
212.08	2002.91
212.30	1796.07
212.52	1918.95
212.74	2013.15
212.96	1982.43
213.17	2017.25
213.39	1947.62
213.61	2060.26
213.83	1939.43
214.05	1988.58
214.27	2054.11
214.49	1884.13
214.71	1865.70
214.93	2052.06
215.15	1898.47
215.37	2011.11
215.59	1869.80
215.81	2000.87
216.03	2072.54
216.24	1984.48
216.46	1964.00
216.68	1984.48
216.90	2058.21
217.12	2070.50
217.34	1918.95
217.56	1912.80
217.78	2007.01
218.00	1931.23
218.22	1959.91
218.44	1961.95
218.66	2015.20
218.87	2068.45
219.09	1886.18
219.31	1888.23
219.53	1966.05
219.75	1894.37
219.97	1966.05
220.19	2009.06
220.41	1923.04
220.63	2095.07
220.85	1927.14
221.06	1933.28
221.28	2000.87
221.50	2033.63
221.72	1890.28
221.94	1914.85
222.16	1990.63
222.38	1970.15
222.60	2007.01
222.82	1892.32
223.03	2029.54
223.25	1937.38
223.47	1949.67
223.69	2078.69
223.91	1998.82
224.13	2019.30
224.35	1914.85
224.57	1976.29
224.78	1916.90
225.00	1882.08
225.22	1890.28
225.44	1957.86
225.66	2027.49
225.88	1877.99
226.10	1980.39
226.32	1968.10
226.53	2039.78
226.75	1906.66
226.97	1949.67
227.19	1949.67
227.41	1804.26
227.63	1947.62
227.85	1816.55
228.06	1978.34
228.28	2066.40
228.50	2043.87
228.72	1837.03
228.94	1896.42
229.16	1906.66
229.37	1923.04
229.59	1892.32
229.81	2041.82
230.03	1914.85
230.25	1937.38
230.47	1847.27
230.69	1931.23
230.90	2054.11
231.12	1898.47
231.34	1933.28
231.56	1988.58
231.78	1867.75
232.00	1939.43
232.21	1902.56
232.43	1949.67
232.65	1865.70
232.87	2027.49
233.09	1880.04
233.30	1908.71
233.52	2084.83
233.74	1996.77
233.96	1949.67
234.18	2019.30
234.40	1998.82
234.61	2035.68
234.83	1822.69
235.05	1859.56
235.27	2107.36
235.49	2017.25
235.70	1908.71
235.92	2015.20
236.14	2064.35
236.36	2052.06
236.58	1865.70
236.79	2025.44
237.01	1957.86
237.23	1910.75
237.45	2133.98
237.67	1873.89
237.88	1929.19
238.10	2099.17
238.32	1888.23
238.54	1929.19
238.76	1980.39
238.97	1916.90
239.19	1886.18
239.41	1996.77
239.63	2060.26
239.85	1961.95
240.06	1984.48
240.28	1886.18
240.50	2025.44
240.72	1994.72
240.93	1863.65
241.15	2035.68
241.37	1959.91
241.59	2052.06
241.81	1943.52
242.02	1972.19
242.24	2004.96
242.46	1972.19
242.68	1871.84
242.89	1914.85
243.11	1943.52
243.33	2023.39
243.55	1992.67
243.76	1939.43
243.98	1902.56
244.20	1982.43
244.42	1943.52
244.64	1904.61
244.85	1914.85
245.07	1910.75
245.29	1955.81
245.51	1935.33
245.72	1992.67
245.94	2019.30
246.16	1914.85
246.38	1980.39
246.59	1867.75
246.81	1931.23
247.03	1847.27
247.24	1830.88
247.46	1931.23
247.68	2007.01
247.90	1929.19
248.11	1961.95
248.33	2060.26
248.55	1927.14
248.77	2011.11
248.98	2037.73
249.20	2109.41
249.42	1992.67
249.64	1968.10
249.85	1951.71
250.07	1892.32
250.29	2041.82
250.50	2019.30
250.72	1902.56
250.94	1978.34
251.16	2103.26
251.37	2033.63
251.59	2041.82
251.81	1974.24
252.02	2068.45
252.24	1884.13
252.46	1986.53
252.68	1908.71
252.89	1933.28
253.11	1826.79
253.33	2070.50
253.54	2103.26
253.76	1837.03
253.98	1914.85
254.20	1902.56
254.41	1857.51
254.63	1888.23
254.85	1898.47
255.06	1935.33
255.28	2041.82
255.50	1923.04
255.71	1867.75
255.93	1908.71
256.15	1925.09
256.36	1998.82
256.58	1966.05
256.80	1974.24
257.02	1867.75
257.23	1900.52
257.45	1947.62
257.67	1966.05
257.88	1906.66
258.10	1900.52
258.32	1900.52
258.53	1918.95
258.75	2088.93
258.97	1927.14
259.18	1818.60
259.40	1990.63
259.62	2070.50
259.83	2099.17
260.05	1929.19
260.27	2355.16
260.48	2035.68
260.70	1869.80
260.92	1941.47
261.13	1957.86
261.35	2047.97
261.57	2029.54
261.78	1810.40
262.00	1849.32
262.22	1994.72
262.43	1951.71
262.65	1914.85
262.86	1925.09
263.08	2176.99
263.30	2041.82
263.51	1808.36
263.73	1925.09
263.95	2179.04
264.16	1900.52
264.38	1986.53
264.60	1968.10
264.81	1937.38
265.03	2045.92
265.25	2045.92
265.46	1902.56
265.68	2052.06
265.89	1949.67
266.11	1843.17
266.33	2015.20
266.54	2086.88
266.76	1931.23
266.98	2007.01
267.19	2054.11
267.41	1957.86
267.62	1904.61
267.84	1859.56
268.06	1925.09
268.27	2027.49
268.49	2074.59
268.70	1923.04
268.92	1933.28
269.14	1945.57
269.35	1861.60
269.57	1925.09
269.79	2068.45
270.00	1953.76
270.22	2097.12
270.43	1923.04
270.65	1845.22
270.87	2000.87
271.08	1955.81
271.30	2052.06
271.51	1978.34
271.73	2017.25
271.95	2002.91
272.16	1906.66
272.38	1986.53
272.59	1935.33
272.81	2056.16
273.02	1923.04
273.24	1937.38
273.46	2101.22
273.67	1869.80
273.89	1972.19
274.10	1787.88
274.32	2068.45
274.54	1943.52
274.75	1974.24
274.97	1927.14
275.18	2090.98
275.40	2101.22
275.61	1916.90
275.83	1918.95
276.05	1869.80
276.26	1939.43
276.48	2043.87
276.69	1970.15
276.91	1861.60
277.12	2054.11
277.34	2090.98
277.55	2037.73
277.77	1923.04
277.99	1890.28
278.20	1859.56
278.42	1855.46
278.63	1884.13
278.85	1925.09
279.06	1830.88
279.28	2043.87
279.49	2047.97
279.71	1980.39
279.93	1990.63
280.14	1871.84
280.36	1884.13
280.57	2082.78
280.79	1976.29
281.00	1920.99
281.22	1904.61
281.43	2011.11
281.65	1783.78
281.86	1914.85
282.08	2041.82
282.29	2084.83
282.51	1832.93
282.73	1949.67
282.94	1845.22
283.16	2047.97
283.37	2025.44
283.59	1939.43
283.80	2025.44
284.02	1910.75
284.23	2023.39
284.45	1837.03
284.66	1896.42
284.88	1937.38
285.09	1943.52
285.31	1998.82
285.52	2015.20
285.74	1896.42
285.95	2019.30
286.17	1998.82
286.38	2031.58
286.60	1894.37
286.81	1886.18
287.03	1998.82
287.24	1974.24
287.46	2009.06
287.67	1943.52
287.89	2027.49
288.10	1935.33
288.32	1935.33
288.53	1972.19
288.75	1953.76
288.96	2054.11
289.18	1855.46
289.39	1970.15
289.61	1978.34
289.82	2058.21
290.04	2041.82
290.25	1941.47
290.47	1972.19
290.68	1927.14
290.90	2070.50
291.11	1888.23
291.33	1990.63
291.54	1892.32
291.76	1908.71
291.97	1974.24
292.18	1992.67
292.40	1945.57
292.61	1906.66
292.83	2101.22
293.04	1974.24
293.26	2050.02
293.47	1976.29
293.69	1949.67
293.90	1894.37
294.12	2035.68
294.33	2023.39
294.55	1953.76
294.76	2113.50
294.97	1972.19
295.19	2150.37
295.40	1908.71
295.62	2023.39
295.83	2041.82
296.05	2004.96
296.26	1996.77
296.48	1966.05
296.69	1974.24
296.90	2025.44
297.12	2043.87
297.33	2050.02
297.55	1955.81
297.76	2041.82
297.98	1996.77
298.19	1990.63
298.41	1957.86
298.62	1886.18
298.83	2011.11
299.05	1943.52
299.26	1916.90
299.48	1890.28
299.69	1998.82
299.90	1916.90
300.12	1875.94
300.33	2050.02
300.55	1961.95
300.76	1984.48
300.98	1843.17
301.19	2045.92
301.40	1920.99
301.62	1869.80
301.83	1900.52
302.05	2021.35
302.26	1892.32
302.47	1914.85
302.69	1988.58
302.90	2045.92
303.12	1779.68
303.33	2041.82
303.54	2095.07
303.76	1908.71
303.97	2007.01
304.19	2052.06
304.40	1875.94
304.61	2002.91
304.83	2084.83
305.04	2025.44
305.26	1978.34
305.47	1902.56
305.68	1896.42
305.90	1882.08
306.11	2082.78
306.33	2015.20
306.54	1830.88
306.75	1877.99
306.97	1816.55
307.18	1865.70
307.39	1929.19
307.61	2039.78
307.82	2000.87
308.04	1966.05
308.25	1888.23
308.46	1957.86
308.68	1937.38
308.89	1912.80
309.10	2088.93
309.32	1957.86
309.53	1933.28
309.74	1984.48
309.96	1953.76
310.17	2052.06
310.39	1978.34
310.60	1978.34
310.81	1923.04
311.03	1869.80
311.24	2111.46
311.45	1943.52
311.67	2072.54
311.88	1976.29
312.09	1931.23
312.31	1916.90
312.52	1992.67
312.73	1923.04
312.95	1853.41
313.16	1923.04
313.37	2043.87
313.59	2033.63
313.80	2037.73
314.01	2136.03
314.23	1964.00
314.44	1892.32
314.65	1869.80
314.87	1912.80
315.08	1931.23
315.29	1892.32
315.51	1828.84
315.72	1855.46
315.93	2068.45
316.15	2062.30
316.36	1877.99
316.57	1902.56
316.79	2007.01
317.00	1984.48
317.21	2017.25
317.43	1943.52
317.64	1996.77
317.85	1914.85
318.07	1886.18
318.28	2037.73
318.49	2068.45
318.70	2297.82
318.92	2228.19
319.13	2146.27
319.34	2185.18
319.56	2025.44
319.77	2195.42
319.98	2107.36
320.20	2150.37
320.41	1947.62
320.62	1998.82
320.83	1912.80
321.05	2121.70
321.26	1959.91
321.47	1959.91
321.69	2113.50
321.90	1882.08
322.11	1945.57
322.32	1900.52
322.54	2080.74
322.75	1939.43
322.96	2234.33
323.18	1826.79
323.39	1779.68
323.60	1880.04
323.81	2050.02
324.03	1894.37
324.24	1941.47
324.45	1912.80
324.66	1890.28
324.88	2037.73
325.09	2017.25
325.30	1939.43
325.52	2004.96
325.73	1964.00
325.94	1923.04
326.15	1855.46
326.37	1882.08
326.58	2082.78
326.79	2107.36
327.00	1906.66
327.22	1957.86
327.43	1853.41
327.64	1857.51
327.85	1970.15
328.07	1998.82
328.28	2099.17
328.49	1925.09
328.70	1857.51
328.92	1968.10
329.13	1980.39
329.34	1959.91
329.55	2054.11
329.76	2037.73
329.98	1916.90
330.19	2052.06
330.40	2015.20
330.61	1992.67
330.83	2062.30
331.04	1855.46
331.25	1949.67
331.46	1939.43
331.68	1853.41
331.89	2052.06
332.10	1935.33
332.31	1880.04
332.52	1972.19
332.74	2078.69
332.95	1814.50
333.16	1902.56
333.37	2047.97
333.58	2011.11
333.80	1968.10
334.01	1875.94
334.22	1949.67
334.43	1914.85
334.64	1914.85
334.86	1857.51
335.07	1859.56
335.28	2041.82
335.49	1867.75
335.70	1996.77
335.92	2062.30
336.13	2150.37
336.34	2064.35
336.55	1898.47
336.76	1943.52
336.98	1884.13
337.19	1925.09
337.40	2029.54
337.61	2119.65
337.82	1847.27
338.04	1986.53
338.25	1865.70
338.46	1988.58
338.67	1972.19
338.88	1869.80
339.09	1927.14
339.31	1894.37
339.52	1851.36
339.73	1906.66
339.94	1937.38
340.15	1957.86
340.36	1943.52
340.58	1980.39
340.79	1869.80
341.00	1992.67
341.21	1918.95
341.42	2076.64
341.63	1906.66
341.85	1988.58
342.06	1961.95
342.27	1937.38
342.48	2047.97
342.69	1906.66
342.90	2021.35
343.12	1964.00
343.33	1992.67
343.54	2004.96
343.75	2041.82
343.96	1998.82
344.17	1916.90
344.38	1927.14
344.60	1863.65
344.81	1916.90
345.02	1980.39
345.23	2062.30
345.44	2195.42
345.65	1978.34
345.86	1951.71
346.07	1898.47
346.29	1841.12
346.50	2033.63
346.71	1972.19
346.92	2107.36
347.13	2099.17
347.34	1949.67
347.55	1902.56
347.76	2017.25
347.98	1884.13
348.19	1882.08
348.40	2066.40
348.61	1908.71
348.82	2062.30
349.03	2035.68
349.24	1906.66
349.45	2136.03
349.66	1832.93
349.88	1980.39
350.09	1914.85
350.30	2068.45
350.51	2023.39
350.72	1964.00
350.93	1992.67
351.14	1998.82
351.35	2000.87
351.56	1941.47
351.77	1929.19
351.99	2027.49
352.20	2103.26
352.41	2013.15
352.62	1822.69
352.83	1972.19
353.04	1968.10
353.25	1957.86
353.46	1992.67
353.67	2078.69
353.88	1843.17
354.09	2033.63
354.30	1986.53
354.52	1984.48
354.73	2011.11
354.94	1898.47
355.15	1941.47
355.36	2082.78
355.57	1943.52
355.78	1955.81
355.99	1914.85
356.20	1884.13
356.41	2125.79
356.62	1902.56
356.83	1986.53
357.04	2056.16
357.25	1791.97
357.46	1902.56
357.68	1880.04
357.89	1970.15
358.10	1974.24
358.31	1996.77
358.52	1988.58
358.73	1834.98
358.94	1822.69
359.15	1988.58
359.36	2047.97
359.57	1982.43
359.78	1902.56
359.99	1974.24
360.20	1888.23
360.41	1947.62
360.62	1914.85
360.83	1941.47
361.04	1914.85
361.25	1978.34
361.46	2142.18
361.67	2047.97
361.88	2009.06
362.09	2078.69
362.30	1980.39
362.51	1923.04
362.72	1959.91
362.93	2025.44
363.14	1968.10
363.35	2021.35
363.56	1898.47
363.78	2025.44
363.99	1998.82
364.20	1923.04
364.41	1943.52
364.62	2140.13
364.83	1982.43
365.04	1910.75
365.25	2013.15
365.46	2133.98
365.67	1865.70
365.88	1892.32
366.09	1990.63
366.30	1957.86
366.51	1955.81
366.72	1816.55
366.93	2023.39
367.14	1972.19
367.35	2031.58
367.56	1961.95
367.77	2033.63
367.98	1882.08
368.18	1984.48
368.39	2007.01
368.60	1841.12
368.81	2007.01
369.02	2041.82
369.23	1939.43
369.44	1849.32
369.65	1933.28
369.86	1916.90
370.07	1939.43
370.28	1865.70
370.49	2004.96
370.70	2019.30
370.91	1832.93
371.12	1871.84
371.33	2031.58
371.54	1890.28
371.75	2093.02
371.96	1812.45
372.17	1910.75
372.38	1937.38
372.59	1890.28
372.80	1929.19
373.01	1978.34
373.22	1923.04
373.43	1986.53
373.64	1875.94
373.85	2078.69
374.06	2033.63
374.26	1986.53
374.47	1886.18
374.68	2062.30
374.89	1875.94
375.10	1964.00
375.31	2064.35
375.52	1933.28
375.73	1933.28
375.94	1865.70
376.15	1990.63
376.36	1886.18
376.57	1918.95
376.78	1877.99
376.99	1935.33
377.20	2086.88
377.40	1959.91
377.61	2080.74
377.82	1861.60
378.03	2076.64
378.24	2084.83
378.45	1998.82
378.66	2011.11
378.87	1851.36
379.08	1841.12
379.29	1966.05
379.50	2043.87
379.71	1902.56
379.91	2041.82
380.12	1902.56
380.33	2054.11
380.54	1923.04
380.75	1902.56
380.96	1931.23
381.17	2013.15
381.38	1955.81
381.59	2037.73
381.80	2050.02
382.00	2189.28
382.21	2076.64
382.42	2105.31
382.63	2195.42
382.84	2021.35
383.05	2150.37
383.26	2076.64
383.47	2015.20
383.68	2031.58
383.88	1998.82
384.09	2004.96
384.30	2060.26
384.51	1978.34
384.72	1947.62
384.93	1798.12
385.14	2078.69
385.35	2023.39
385.55	1855.46
385.76	2021.35
385.97	1990.63
386.18	1918.95
386.39	1888.23
386.60	1910.75
386.81	1968.10
387.02	1875.94
387.22	1923.04
387.43	2127.84
387.64	2125.79
387.85	2150.37
388.06	2244.57
388.27	3917.76
388.48	8687.48
388.68	12156.74
388.89	14188.33
389.10	15537.94
389.31	13870.89
389.52	11159.38
389.73	9625.45
389.93	8587.13
390.14	8025.99
390.35	7233.43
390.56	6569.88
390.77	5302.19
390.98	4095.94
391.18	3233.74
391.39	2613.21
391.60	2111.46
391.81	2097.12
392.02	1923.04
392.23	2267.10
392.43	2062.30
392.64	2097.12
392.85	1976.29
393.06	2035.68
393.27	1980.39
393.47	1882.08
393.68	1935.33
393.89	1888.23
394.10	2025.44
394.31	1920.99
394.52	1869.80
394.72	1966.05
394.93	2041.82
395.14	1882.08
395.35	1966.05
395.56	1920.99
395.76	1937.38
395.97	1935.33
396.18	2133.98
396.39	2086.88
396.60	2316.25
396.80	2158.56
397.01	2164.70
397.22	2162.66
397.43	2111.46
397.64	1982.43
397.84	2052.06
398.05	2117.60
398.26	2009.06
398.47	2070.50
398.67	1959.91
398.88	1978.34
399.09	2045.92
399.30	1974.24
399.51	2013.15
399.71	1943.52
399.92	1914.85
400.13	2035.68
400.34	1941.47
400.54	1920.99
400.75	2176.99
400.96	2007.01
401.17	2111.46
401.37	2009.06
401.58	1906.66
401.79	1943.52
402.00	2064.35
402.21	2269.15
402.41	2340.83
402.62	2346.97
402.83	2449.37
403.04	2412.51
403.24	2504.67
403.45	2213.85
403.66	2238.43
403.87	2150.37
404.07	2269.15
404.28	2258.91
404.49	2107.36
404.70	2017.25
404.90	2041.82
405.11	2009.06
405.32	1986.53
405.52	1904.61
405.73	1964.00
405.94	1951.71
406.15	1945.57
406.35	1998.82
406.56	2000.87
406.77	2074.59
406.98	1972.19
407.18	1904.61
407.39	2058.21
407.60	1972.19
407.80	1914.85
408.01	1894.37
408.22	2025.44
408.43	1939.43
408.63	2041.82
408.84	2045.92
409.05	2037.73
409.25	1832.93
409.46	1894.37
409.67	1916.90
409.88	1957.86
410.08	2021.35
410.29	1947.62
410.50	2062.30
410.70	2041.82
410.91	1890.28
411.12	2041.82
411.32	1972.19
411.53	1906.66
411.74	2105.31
411.95	2125.79
412.15	2045.92
412.36	1996.77
412.57	2142.18
412.77	2078.69
412.98	1914.85
413.19	1947.62
413.39	2056.16
413.60	1955.81
413.81	2095.07
414.01	2004.96
414.22	1959.91
414.43	2025.44
414.63	1898.47
414.84	2109.41
415.05	2025.44
415.25	1945.57
415.46	2023.39
415.67	1931.23
415.87	1986.53
416.08	1994.72
416.29	1937.38
416.49	2011.11
416.70	1976.29
416.91	1961.95
417.11	1923.04
417.32	1986.53
417.53	2043.87
417.73	2017.25
417.94	1939.43
418.15	2023.39
418.35	1894.37
418.56	1949.67
418.77	2080.74
418.97	2013.15
419.18	1877.99
419.38	1783.78
419.59	1998.82
419.80	2144.22
420.00	1865.70
420.21	2031.58
420.42	2099.17
420.62	1961.95
420.83	1869.80
421.04	1927.14
421.24	1910.75
421.45	2004.96
421.65	1964.00
421.86	1896.42
422.07	1992.67
422.27	2013.15
422.48	1957.86
422.69	1937.38
422.89	1941.47
423.10	1996.77
423.30	1898.47
423.51	1941.47
423.72	2009.06
423.92	1931.23
424.13	1890.28
424.33	2039.78
424.54	2023.39
424.75	1920.99
424.95	2054.11
425.16	2019.30
425.36	1972.19
425.57	2011.11
425.78	2054.11
425.98	2115.55
426.19	1912.80
426.39	1945.57
426.60	1918.95
426.81	2031.58
427.01	1966.05
427.22	1925.09
427.42	1912.80
427.63	1964.00
427.83	1970.15
428.04	2043.87
428.25	1982.43
428.45	2080.74
428.66	2027.49
428.86	1970.15
429.07	1937.38
429.28	2013.15
429.48	1912.80
429.69	1896.42
429.89	1937.38
430.10	1906.66
430.30	2076.64
430.51	2019.30
430.71	1925.09
430.92	1972.19
431.13	1914.85
431.33	2039.78
431.54	1955.81
431.74	2097.12
431.95	2105.31
432.15	1873.89
432.36	1927.14
432.56	1984.48
432.77	2099.17
432.98	2220.00
433.18	1970.15
433.39	1933.28
433.59	1990.63
433.80	2162.66
434.00	2129.89
434.21	1972.19
434.41	1920.99
434.62	2121.70
434.82	1929.19
435.03	1884.13
435.23	1998.82
435.44	1882.08
435.64	1949.67
435.85	1986.53
436.06	1988.58
436.26	2105.31
436.47	1910.75
436.67	1949.67
436.88	1935.33
437.08	2025.44
437.29	2062.30
437.49	1943.52
437.70	2037.73
437.90	1978.34
438.11	2131.94
438.31	2045.92
438.52	2131.94
438.72	2181.09
438.93	2250.72
439.13	2093.02
439.34	2211.81
439.54	2027.49
439.75	2131.94
439.95	2090.98
440.16	1949.67
440.36	2002.91
440.57	2041.82
440.77	1947.62
440.98	2009.06
441.18	1978.34
441.39	1849.32
441.59	1943.52
441.80	2144.22
442.00	1984.48
442.21	2056.16
442.41	1904.61
442.62	2066.40
442.82	1955.81
443.02	2027.49
443.23	2043.87
443.43	2062.30
443.64	2078.69
443.84	1877.99
444.05	2183.13
444.25	1908.71
444.46	1992.67
444.66	1980.39
444.87	2138.08
445.07	1955.81
445.28	1951.71
445.48	2101.22
445.69	2088.93
445.89	2140.13
446.09	2011.11
446.30	2248.67
446.50	2559.96
446.71	4186.05
446.91	5257.14
447.12	6199.20
447.32	6528.92
447.53	5873.57
447.73	4962.23
447.93	4329.41
448.14	4048.83
448.34	3715.02
448.55	3305.42
448.75	3370.96
448.96	3155.92
449.16	2916.31
449.36	2629.59
449.57	2469.85
449.77	2158.56
449.98	2029.54
450.18	2074.59
450.39	2029.54
450.59	2043.87
450.79	1982.43
451.00	1861.60
451.20	2013.15
451.41	1968.10
451.61	1978.34
451.81	1916.90
452.02	1972.19
452.22	1925.09
452.43	1945.57
452.63	1880.04
