SpectraSuite Data File
++++++++++++++++++++++++++++++++++++
Date: Wed May 04 22:45:58 CEST 2016
User: root
Dark Spectrum Present: No
Reference Spectrum Present: No
Number of Sampled Component Spectra: 1
Spectrometers: USB4C02835
Integration Time (usec): 100000 (USB4C02835)
Spectra Averaged: 1 (USB4C02835)
Boxcar Smoothing: 0 (USB4C02835)
Correct for Electrical Dark: No (USB4C02835)
Strobe/Lamp Enabled: No (USB4C02835)
Correct for Detector Non-linearity: No (USB4C02835)
Correct for Stray Light: No (USB4C02835)
Number of Pixels in Processed Spectrum: 3648
>>>>>Begin Processed Spectral Data<<<<<
177.47	1509.35
177.69	1509.35
177.91	1509.35
178.13	1669.09
178.36	1677.29
178.58	1890.28
178.80	1984.48
179.02	1839.08
179.24	1914.85
179.46	1894.37
179.68	2015.20
179.90	1964.00
180.13	2015.20
180.35	1863.65
180.57	1880.04
180.79	2043.87
181.01	1953.76
181.23	1888.23
181.45	2033.63
181.67	2000.87
181.90	1980.39
182.12	1929.19
182.34	1830.88
182.56	1910.75
182.78	2004.96
183.00	1906.66
183.22	1964.00
183.44	1810.40
183.66	2064.35
183.89	2007.01
184.11	1961.95
184.33	1988.58
184.55	2025.44
184.77	1898.47
184.99	1890.28
185.21	1908.71
185.43	2205.66
185.65	1865.70
185.87	1910.75
186.10	2146.27
186.32	2017.25
186.54	2041.82
186.76	1980.39
186.98	2056.16
187.20	1880.04
187.42	1916.90
187.64	1996.77
187.86	1978.34
188.08	2029.54
188.30	1961.95
188.52	1904.61
188.75	2066.40
188.97	2011.11
189.19	1955.81
189.41	1882.08
189.63	1918.95
189.85	1890.28
190.07	1841.12
190.29	1855.46
190.51	1931.23
190.73	1816.55
190.95	1951.71
191.17	1980.39
191.39	1826.79
191.61	1900.52
191.84	1925.09
192.06	1964.00
192.28	1855.46
192.50	2172.89
192.72	2058.21
192.94	2000.87
193.16	2013.15
193.38	1968.10
193.60	1931.23
193.82	1943.52
194.04	2029.54
194.26	1998.82
194.48	1927.14
194.70	1945.57
194.92	1908.71
195.14	1992.67
195.36	1855.46
195.58	1949.67
195.80	1902.56
196.02	1912.80
196.24	1902.56
196.46	1982.43
196.69	1935.33
196.91	2164.70
197.13	1873.89
197.35	1925.09
197.57	2068.45
197.79	2035.68
198.01	1955.81
198.23	1927.14
198.45	1961.95
198.67	1851.36
198.89	1892.32
199.11	1923.04
199.33	1888.23
199.55	1828.84
199.77	1953.76
199.99	1996.77
200.21	1884.13
200.43	1925.09
200.65	1855.46
200.87	1771.49
201.09	1941.47
201.31	1869.80
201.53	1933.28
201.75	1941.47
201.97	2007.01
202.19	2002.91
202.41	1978.34
202.63	2068.45
202.85	2033.63
203.07	2007.01
203.29	1886.18
203.51	1849.32
203.73	1847.27
203.95	2228.19
204.17	1937.38
204.39	1906.66
204.61	1957.86
204.83	1886.18
205.05	1949.67
205.27	2002.91
205.49	2189.28
205.71	1976.29
205.93	1841.12
206.15	1931.23
206.37	1937.38
206.59	1970.15
206.81	1880.04
207.03	1873.89
207.25	1880.04
207.47	2047.97
207.69	1972.19
207.91	2072.54
208.13	2039.78
208.34	1986.53
208.56	1859.56
208.78	1935.33
209.00	1904.61
209.22	1953.76
209.44	1927.14
209.66	1925.09
209.88	1984.48
210.10	1947.62
210.32	1931.23
210.54	2052.06
210.76	1904.61
210.98	1978.34
211.20	1791.97
211.42	1964.00
211.64	2074.59
211.86	1927.14
212.08	2004.96
212.30	1949.67
212.52	1976.29
212.74	2093.02
212.96	1951.71
213.17	1943.52
213.39	2072.54
213.61	2166.75
213.83	1890.28
214.05	1929.19
214.27	2002.91
214.49	1910.75
214.71	1880.04
214.93	2019.30
215.15	1966.05
215.37	1966.05
215.59	1822.69
215.81	1968.10
216.03	2072.54
216.24	2015.20
216.46	1929.19
216.68	1943.52
216.90	1998.82
217.12	2007.01
217.34	1945.57
217.56	2050.02
217.78	1974.24
218.00	2045.92
218.22	1988.58
218.44	1978.34
218.66	2013.15
218.87	2066.40
219.09	1871.84
219.31	2000.87
219.53	1984.48
219.75	2007.01
219.97	1892.32
220.19	1945.57
220.41	1949.67
220.63	2115.55
220.85	1955.81
221.06	1839.08
221.28	1998.82
221.50	1998.82
221.72	1920.99
221.94	1861.60
222.16	2035.68
222.38	2045.92
222.60	1939.43
222.82	1947.62
223.03	2090.98
223.25	1853.41
223.47	1974.24
223.69	2078.69
223.91	2054.11
224.13	2004.96
224.35	1943.52
224.57	2035.68
224.78	1992.67
225.00	1826.79
225.22	1933.28
225.44	1996.77
225.66	1986.53
225.88	1918.95
226.10	1970.15
226.32	1880.04
226.53	2037.73
226.75	1964.00
226.97	1929.19
227.19	1898.47
227.41	1923.04
227.63	1935.33
227.85	1816.55
228.06	1986.53
228.28	1890.28
228.50	2007.01
228.72	1902.56
228.94	1873.89
229.16	1796.07
229.37	1861.60
229.59	1867.75
229.81	2088.93
230.03	1877.99
230.25	1912.80
230.47	1789.92
230.69	1845.22
230.90	2027.49
231.12	1890.28
231.34	1929.19
231.56	2004.96
231.78	1867.75
232.00	2021.35
232.21	1902.56
232.43	1943.52
232.65	1783.78
232.87	2076.64
233.09	1888.23
233.30	1959.91
233.52	1910.75
233.74	1951.71
233.96	1955.81
234.18	1964.00
234.40	2002.91
234.61	2093.02
234.83	1880.04
235.05	1896.42
235.27	2113.50
235.49	1978.34
235.70	1871.84
235.92	2007.01
236.14	1986.53
236.36	2191.33
236.58	1834.98
236.79	1992.67
237.01	1908.71
237.23	1945.57
237.45	2013.15
237.67	1877.99
237.88	1949.67
238.10	2129.89
238.32	1851.36
238.54	1908.71
238.76	1916.90
238.97	1939.43
239.19	1849.32
239.41	1988.58
239.63	2074.59
239.85	1943.52
240.06	1988.58
240.28	1945.57
240.50	2023.39
240.72	1978.34
240.93	1896.42
241.15	1992.67
241.37	1941.47
241.59	2121.70
241.81	1888.23
242.02	1906.66
242.24	1988.58
242.46	1935.33
242.68	1933.28
242.89	1918.95
243.11	2029.54
243.33	1945.57
243.55	1939.43
243.76	1937.38
243.98	1916.90
244.20	1925.09
244.42	1923.04
244.64	2025.44
244.85	1828.84
245.07	1902.56
245.29	1945.57
245.51	1894.37
245.72	1902.56
245.94	2086.88
246.16	1945.57
246.38	1918.95
246.59	2002.91
246.81	1837.03
247.03	1832.93
247.24	1765.35
247.46	1884.13
247.68	1916.90
247.90	1906.66
248.11	1912.80
248.33	1988.58
248.55	1927.14
248.77	1949.67
248.98	1980.39
249.20	2097.12
249.42	1931.23
249.64	2000.87
249.85	1935.33
250.07	1972.19
250.29	2007.01
250.50	2047.97
250.72	1937.38
250.94	1978.34
251.16	2230.24
251.37	2007.01
251.59	1970.15
251.81	1964.00
252.02	2113.50
252.24	1925.09
252.46	1984.48
252.68	1949.67
252.89	1904.61
253.11	1824.74
253.33	2072.54
253.54	2070.50
253.76	1951.71
253.98	1916.90
254.20	1933.28
254.41	1865.70
254.63	1914.85
254.85	1875.94
255.06	1910.75
255.28	2011.11
255.50	1859.56
255.71	1949.67
255.93	1939.43
256.15	1947.62
256.36	2007.01
256.58	1927.14
256.80	1982.43
257.02	1941.47
257.23	1888.23
257.45	1992.67
257.67	2027.49
257.88	1902.56
258.10	1986.53
258.32	1912.80
258.53	1918.95
258.75	2054.11
258.97	1900.52
259.18	1931.23
259.40	1916.90
259.62	2084.83
259.83	2088.93
260.05	1892.32
260.27	2232.29
260.48	2080.74
260.70	1925.09
260.92	1916.90
261.13	1966.05
261.35	1992.67
261.57	2027.49
261.78	1798.12
262.00	1894.37
262.22	1984.48
262.43	1875.94
262.65	1918.95
262.86	1923.04
263.08	2072.54
263.30	1947.62
263.51	1865.70
263.73	1875.94
263.95	2086.88
264.16	1882.08
264.38	1867.75
264.60	1918.95
264.81	1923.04
265.03	2043.87
265.25	2011.11
265.46	1959.91
265.68	2095.07
265.89	2041.82
266.11	1826.79
266.33	1970.15
266.54	2007.01
266.76	1957.86
266.98	1966.05
267.19	2039.78
267.41	2007.01
267.62	1927.14
267.84	1824.74
268.06	1945.57
268.27	1918.95
268.49	2064.35
268.70	1998.82
268.92	1908.71
269.14	1867.75
269.35	1865.70
269.57	1935.33
269.79	2052.06
270.00	1877.99
270.22	1968.10
270.43	1849.32
270.65	1818.60
270.87	2004.96
271.08	2015.20
271.30	1978.34
271.51	1931.23
271.73	2023.39
271.95	2105.31
272.16	1914.85
272.38	1943.52
272.59	1851.36
272.81	2062.30
273.02	1966.05
273.24	1994.72
273.46	2023.39
273.67	1859.56
273.89	1953.76
274.10	1871.84
274.32	2088.93
274.54	1912.80
274.75	1935.33
274.97	1886.18
275.18	1925.09
275.40	1994.72
275.61	1935.33
275.83	1957.86
276.05	1804.26
276.26	1923.04
276.48	1959.91
276.69	1984.48
276.91	1961.95
277.12	2004.96
277.34	1980.39
277.55	2021.35
277.77	1980.39
277.99	1857.51
278.20	1943.52
278.42	1834.98
278.63	1888.23
278.85	1894.37
279.06	1832.93
279.28	2013.15
279.49	2039.78
279.71	1992.67
279.93	1947.62
280.14	2009.06
280.36	1882.08
280.57	2060.26
280.79	2023.39
281.00	1902.56
281.22	1912.80
281.43	2086.88
281.65	1759.21
281.86	1834.98
282.08	1988.58
282.29	2076.64
282.51	1863.65
282.73	1896.42
282.94	1935.33
283.16	2002.91
283.37	2007.01
283.59	1939.43
283.80	2047.97
284.02	1892.32
284.23	1988.58
284.45	1980.39
284.66	1902.56
284.88	1808.36
285.09	1970.15
285.31	1980.39
285.52	2017.25
285.74	1853.41
285.95	1972.19
286.17	1939.43
286.38	2035.68
286.60	1896.42
286.81	1953.76
287.03	1961.95
287.24	1929.19
287.46	1968.10
287.67	1986.53
287.89	2088.93
288.10	1882.08
288.32	1992.67
288.53	2041.82
288.75	1961.95
288.96	2066.40
289.18	1941.47
289.39	1949.67
289.61	2068.45
289.82	2183.13
290.04	2035.68
290.25	1855.46
290.47	1933.28
290.68	2013.15
290.90	1998.82
291.11	1845.22
291.33	2047.97
291.54	1884.13
291.76	1863.65
291.97	1933.28
292.18	1935.33
292.40	1892.32
292.61	1957.86
292.83	2101.22
293.04	2029.54
293.26	2009.06
293.47	1945.57
293.69	1912.80
293.90	1916.90
294.12	2050.02
294.33	1920.99
294.55	1920.99
294.76	1992.67
294.97	2082.78
295.19	2140.13
295.40	1961.95
295.62	1980.39
295.83	1959.91
296.05	1933.28
296.26	2029.54
296.48	1927.14
296.69	2023.39
296.90	1951.71
297.12	2013.15
297.33	2086.88
297.55	2023.39
297.76	2027.49
297.98	2129.89
298.19	1984.48
298.41	1943.52
298.62	1892.32
298.83	2084.83
299.05	1994.72
299.26	1898.47
299.48	1923.04
299.69	2013.15
299.90	1984.48
300.12	1890.28
300.33	2029.54
300.55	1949.67
300.76	1966.05
300.98	1851.36
301.19	2019.30
301.40	1902.56
301.62	1914.85
301.83	1988.58
302.05	2009.06
302.26	1923.04
302.47	1984.48
302.69	1859.56
302.90	2011.11
303.12	1892.32
303.33	2031.58
303.54	2111.46
303.76	1959.91
303.97	1947.62
304.19	2119.65
304.40	1830.88
304.61	1998.82
304.83	2140.13
305.04	2021.35
305.26	2025.44
305.47	1998.82
305.68	1943.52
305.90	1908.71
306.11	2056.16
306.33	1964.00
306.54	1978.34
306.75	1929.19
306.97	1796.07
307.18	1914.85
307.39	1943.52
307.61	2019.30
307.82	1968.10
308.04	2045.92
308.25	1880.04
308.46	2054.11
308.68	1861.60
308.89	2011.11
309.10	1988.58
309.32	1949.67
309.53	1945.57
309.74	1994.72
309.96	1927.14
310.17	2068.45
310.39	1925.09
310.60	1914.85
310.81	1968.10
311.03	1841.12
311.24	2004.96
311.45	1994.72
311.67	2119.65
311.88	1994.72
312.09	1931.23
312.31	1984.48
312.52	1937.38
312.73	1955.81
312.95	1839.08
313.16	1931.23
313.37	2045.92
313.59	1939.43
313.80	2021.35
314.01	2101.22
314.23	1959.91
314.44	1906.66
314.65	1884.13
314.87	1877.99
315.08	1880.04
315.29	1982.43
315.51	1884.13
315.72	1910.75
315.93	2068.45
316.15	2072.54
316.36	1937.38
316.57	1964.00
316.79	2017.25
317.00	1810.40
317.21	1976.29
317.43	1910.75
317.64	1916.90
317.85	1939.43
318.07	1818.60
318.28	1957.86
318.49	2072.54
318.70	2222.05
318.92	2160.61
319.13	2113.50
319.34	2136.03
319.56	2078.69
319.77	2158.56
319.98	2060.26
320.20	2056.16
320.41	2070.50
320.62	2095.07
320.83	1900.52
321.05	2123.74
321.26	1982.43
321.47	1927.14
321.69	2033.63
321.90	1861.60
322.11	1890.28
322.32	1970.15
322.54	2068.45
322.75	1943.52
322.96	2111.46
323.18	1845.22
323.39	1914.85
323.60	1847.27
323.81	2031.58
324.03	1968.10
324.24	1951.71
324.45	1959.91
324.66	1935.33
324.88	1943.52
325.09	2039.78
325.30	1996.77
325.52	1951.71
325.73	1943.52
325.94	1851.36
326.15	1855.46
326.37	1916.90
326.58	1974.24
326.79	2066.40
327.00	1910.75
327.22	1947.62
327.43	1904.61
327.64	1810.40
327.85	1972.19
328.07	1941.47
328.28	2023.39
328.49	1920.99
328.70	1890.28
328.92	1925.09
329.13	1992.67
329.34	1886.18
329.55	2004.96
329.76	2047.97
329.98	1925.09
330.19	2078.69
330.40	1978.34
330.61	1953.76
330.83	2007.01
331.04	1927.14
331.25	1982.43
331.46	1869.80
331.68	1933.28
331.89	2013.15
332.10	2056.16
332.31	1806.31
332.52	2066.40
332.74	2050.02
332.95	1857.51
333.16	1920.99
333.37	2007.01
333.58	1937.38
333.80	1888.23
334.01	1857.51
334.22	2013.15
334.43	1941.47
334.64	1982.43
334.86	1853.41
335.07	1857.51
335.28	2125.79
335.49	1904.61
335.70	2050.02
335.92	1982.43
336.13	2133.98
336.34	1929.19
336.55	1941.47
336.76	1918.95
336.98	1824.74
337.19	2013.15
337.40	2144.22
337.61	2125.79
337.82	1923.04
338.04	2060.26
338.25	1816.55
338.46	1966.05
338.67	1875.94
338.88	1916.90
339.09	1830.88
339.31	1947.62
339.52	1877.99
339.73	1857.51
339.94	1877.99
340.15	1978.34
340.36	1847.27
340.58	1992.67
340.79	1880.04
341.00	1941.47
341.21	1853.41
341.42	2037.73
341.63	1918.95
341.85	1982.43
342.06	1949.67
342.27	1869.80
342.48	1927.14
342.69	1898.47
342.90	2000.87
343.12	1994.72
343.33	1955.81
343.54	2070.50
343.75	2066.40
343.96	1918.95
344.17	1906.66
344.38	1972.19
344.60	1880.04
344.81	1802.21
345.02	2021.35
345.23	2043.87
345.44	2174.94
345.65	2004.96
345.86	1998.82
346.07	1984.48
346.29	1853.41
346.50	1992.67
346.71	2023.39
346.92	2197.47
347.13	2162.66
347.34	1935.33
347.55	1875.94
347.76	1986.53
347.98	1849.32
348.19	1918.95
348.40	2074.59
348.61	1908.71
348.82	2107.36
349.03	1972.19
349.24	1884.13
349.45	2095.07
349.66	1847.27
349.88	1941.47
350.09	1904.61
350.30	2045.92
350.51	2054.11
350.72	1949.67
350.93	2023.39
351.14	1918.95
351.35	1925.09
351.56	1939.43
351.77	1945.57
351.99	2015.20
352.20	2047.97
352.41	2009.06
352.62	1798.12
352.83	2056.16
353.04	1955.81
353.25	1920.99
353.46	2068.45
353.67	2041.82
353.88	1877.99
354.09	1996.77
354.30	1994.72
354.52	2043.87
354.73	1886.18
354.94	1906.66
355.15	2013.15
355.36	2037.73
355.57	1925.09
355.78	1935.33
355.99	1984.48
356.20	1929.19
356.41	2002.91
356.62	2013.15
356.83	1918.95
357.04	2080.74
357.25	1855.46
357.46	1984.48
357.68	1759.21
357.89	1892.32
358.10	1894.37
358.31	1976.29
358.52	1998.82
358.73	1871.84
358.94	1861.60
359.15	1918.95
359.36	2019.30
359.57	1912.80
359.78	1935.33
359.99	1947.62
360.20	1857.51
360.41	1964.00
360.62	2066.40
360.83	2004.96
361.04	1994.72
361.25	2004.96
361.46	2121.70
361.67	1982.43
361.88	1931.23
362.09	2023.39
362.30	1996.77
362.51	1900.52
362.72	1992.67
362.93	2029.54
363.14	1990.63
363.35	1947.62
363.56	1877.99
363.78	2039.78
363.99	1943.52
364.20	1894.37
364.41	1980.39
364.62	2105.31
364.83	1943.52
365.04	1912.80
365.25	1953.76
365.46	2105.31
365.67	1871.84
365.88	1994.72
366.09	1951.71
366.30	1943.52
366.51	1947.62
366.72	1902.56
366.93	1906.66
367.14	2007.01
367.35	2047.97
367.56	2011.11
367.77	2082.78
367.98	1857.51
368.18	2002.91
368.39	2017.25
368.60	1892.32
368.81	1984.48
369.02	1984.48
369.23	1978.34
369.44	1896.42
369.65	1900.52
369.86	1974.24
370.07	2045.92
370.28	1935.33
370.49	2058.21
370.70	2017.25
370.91	1923.04
371.12	1867.75
371.33	2129.89
371.54	1851.36
371.75	2111.46
371.96	1771.49
372.17	1968.10
372.38	1923.04
372.59	2002.91
372.80	1884.13
373.01	1949.67
373.22	1992.67
373.43	1978.34
373.64	1857.51
373.85	2109.41
374.06	2113.50
374.26	2033.63
374.47	1933.28
374.68	2000.87
374.89	1992.67
375.10	1857.51
375.31	2021.35
375.52	2019.30
375.73	1970.15
375.94	1918.95
376.15	2052.06
376.36	1927.14
376.57	1884.13
376.78	1945.57
376.99	1968.10
377.20	2019.30
377.40	1877.99
377.61	2107.36
377.82	1902.56
378.03	2027.49
378.24	1980.39
378.45	1939.43
378.66	1994.72
378.87	1847.27
379.08	1728.49
379.29	1976.29
379.50	1990.63
379.71	1900.52
379.91	2019.30
380.12	1920.99
380.33	1974.24
380.54	1980.39
380.75	1898.47
380.96	1906.66
381.17	2029.54
381.38	1941.47
381.59	1959.91
381.80	1986.53
382.00	2207.71
382.21	1992.67
382.42	2144.22
382.63	2144.22
382.84	1988.58
383.05	2074.59
383.26	2082.78
383.47	1974.24
383.68	1970.15
383.88	2050.02
384.09	2017.25
384.30	2156.51
384.51	1947.62
384.72	1923.04
384.93	1839.08
385.14	2013.15
385.35	2023.39
385.55	1923.04
385.76	2025.44
385.97	1990.63
386.18	1841.12
386.39	1851.36
386.60	1908.71
386.81	1957.86
387.02	1949.67
387.22	1923.04
387.43	2088.93
387.64	1998.82
387.85	2086.88
388.06	2185.18
388.27	3895.24
388.48	8621.95
388.68	11929.42
388.89	14110.50
389.10	15306.52
389.31	13928.24
389.52	11089.75
389.73	9652.08
389.93	8544.13
390.14	7903.11
390.35	7221.14
390.56	6461.34
390.77	5328.81
390.98	4014.02
391.18	3233.74
391.39	2535.39
391.60	2174.94
391.81	2146.27
392.02	1955.81
392.23	2140.13
392.43	1939.43
392.64	2113.50
392.85	1980.39
393.06	2119.65
393.27	1894.37
393.47	1937.38
393.68	1908.71
393.89	1961.95
394.10	2039.78
394.31	1902.56
394.52	1910.75
394.72	1886.18
394.93	2123.74
395.14	1859.56
395.35	2027.49
395.56	1898.47
395.76	1896.42
395.97	1951.71
396.18	2095.07
396.39	2148.32
396.60	2418.65
396.80	2215.90
397.01	2213.85
397.22	2179.04
397.43	2052.06
397.64	2047.97
397.84	2066.40
398.05	2125.79
398.26	2021.35
398.47	2080.74
398.67	2009.06
398.88	1929.19
399.09	1972.19
399.30	1982.43
399.51	1992.67
399.71	1904.61
399.92	2004.96
400.13	1888.23
400.34	1941.47
400.54	1988.58
400.75	2082.78
400.96	1982.43
401.17	2045.92
401.37	1964.00
401.58	2031.58
401.79	1923.04
402.00	2025.44
402.21	2367.45
402.41	2226.14
402.62	2414.56
402.83	2398.17
403.04	2357.21
403.24	2432.99
403.45	2244.57
403.66	2295.77
403.87	2136.03
404.07	2205.66
404.28	2154.46
404.49	2136.03
404.70	2031.58
404.90	1961.95
405.11	2043.87
405.32	2033.63
405.52	1992.67
405.73	1912.80
405.94	1855.46
406.15	1884.13
406.35	2039.78
406.56	1994.72
406.77	2025.44
406.98	1982.43
407.18	1886.18
407.39	2097.12
407.60	1910.75
407.80	2017.25
408.01	1906.66
408.22	1994.72
408.43	1898.47
408.63	2070.50
408.84	2070.50
409.05	2017.25
409.25	1863.65
409.46	1904.61
409.67	1875.94
409.88	1931.23
410.08	1988.58
410.29	1927.14
410.50	2033.63
410.70	2023.39
410.91	1869.80
411.12	1982.43
411.32	1996.77
411.53	1947.62
411.74	2066.40
411.95	2099.17
412.15	2138.08
412.36	2080.74
412.57	2043.87
412.77	2072.54
412.98	1990.63
413.19	1976.29
413.39	2084.83
413.60	1974.24
413.81	2050.02
414.01	1920.99
414.22	2039.78
414.43	2058.21
414.63	1990.63
414.84	2000.87
415.05	1941.47
415.25	1834.98
415.46	2068.45
415.67	1869.80
415.87	2004.96
416.08	2017.25
416.29	1927.14
416.49	2060.26
416.70	1990.63
416.91	1904.61
417.11	2027.49
417.32	1974.24
417.53	2062.30
417.73	2070.50
417.94	1980.39
418.15	2019.30
418.35	1937.38
418.56	2041.82
418.77	2119.65
418.97	2000.87
419.18	1968.10
419.38	1851.36
419.59	1916.90
419.80	2115.55
420.00	2002.91
420.21	1935.33
420.42	2033.63
420.62	2021.35
420.83	1867.75
421.04	2013.15
421.24	1964.00
421.45	1984.48
421.65	2007.01
421.86	1970.15
422.07	2045.92
422.27	2054.11
422.48	1959.91
422.69	1947.62
422.89	1974.24
423.10	1953.76
423.30	1816.55
423.51	2050.02
423.72	2009.06
423.92	1912.80
424.13	1851.36
424.33	2052.06
424.54	2113.50
424.75	1951.71
424.95	2131.94
425.16	2011.11
425.36	1898.47
425.57	2009.06
425.78	1984.48
425.98	1990.63
426.19	1931.23
426.39	1902.56
426.60	1986.53
426.81	2131.94
427.01	1968.10
427.22	1941.47
427.42	1843.17
427.63	1974.24
427.83	2004.96
428.04	2109.41
428.25	2029.54
428.45	2009.06
428.66	2095.07
428.86	2009.06
429.07	1900.52
429.28	2027.49
429.48	1925.09
429.69	1910.75
429.89	1994.72
430.10	1894.37
430.30	1949.67
430.51	2070.50
430.71	1865.70
430.92	2007.01
431.13	1964.00
431.33	1998.82
431.54	2007.01
431.74	2021.35
431.95	2142.18
432.15	1900.52
432.36	1970.15
432.56	1959.91
432.77	2043.87
432.98	2136.03
433.18	2029.54
433.39	1951.71
433.59	1988.58
433.80	2058.21
434.00	2095.07
434.21	1855.46
434.41	1916.90
434.62	2160.61
434.82	1947.62
435.03	1898.47
435.23	1972.19
435.44	1802.21
435.64	1937.38
435.85	1998.82
436.06	2029.54
436.26	2013.15
436.47	1966.05
436.67	1908.71
436.88	1937.38
437.08	2121.70
437.29	2070.50
437.49	2017.25
437.70	2000.87
437.90	1966.05
438.11	2193.37
438.31	2041.82
438.52	2185.18
438.72	2244.57
438.93	2252.77
439.13	2017.25
439.34	2107.36
439.54	1984.48
439.75	2007.01
439.95	2060.26
440.16	2015.20
440.36	2088.93
440.57	2004.96
440.77	1990.63
440.98	2039.78
441.18	1996.77
441.39	1830.88
441.59	1886.18
441.80	2115.55
442.00	2004.96
442.21	2054.11
442.41	1910.75
442.62	2009.06
442.82	1886.18
443.02	1949.67
443.23	2019.30
443.43	1908.71
443.64	2060.26
443.84	1937.38
444.05	2103.26
444.25	2019.30
444.46	2056.16
444.66	1974.24
444.87	2099.17
445.07	1865.70
445.28	1970.15
445.48	2009.06
445.69	2015.20
445.89	2185.18
446.09	1994.72
446.30	2224.09
446.50	2598.87
446.71	4190.14
446.91	5326.77
447.12	6145.95
447.32	6483.87
447.53	6061.99
447.73	4884.41
447.93	4327.36
448.14	4020.16
448.34	3856.33
448.55	3422.16
448.75	3393.48
448.96	3209.17
449.16	2924.50
449.36	2643.93
449.57	2330.59
449.77	2105.31
449.98	2011.11
450.18	1980.39
450.39	2074.59
450.59	2062.30
450.79	1998.82
451.00	1937.38
451.20	2023.39
451.41	1943.52
451.61	2025.44
451.81	1945.57
452.02	1910.75
452.22	1898.47
452.43	1927.14
452.63	1968.10
