SpectraSuite Data File
++++++++++++++++++++++++++++++++++++
Date: Wed May 04 22:46:13 CEST 2016
User: root
Dark Spectrum Present: No
Reference Spectrum Present: No
Number of Sampled Component Spectra: 1
Spectrometers: USB4C02835
Integration Time (usec): 100000 (USB4C02835)
Spectra Averaged: 1 (USB4C02835)
Boxcar Smoothing: 0 (USB4C02835)
Correct for Electrical Dark: No (USB4C02835)
Strobe/Lamp Enabled: No (USB4C02835)
Correct for Detector Non-linearity: No (USB4C02835)
Correct for Stray Light: No (USB4C02835)
Number of Pixels in Processed Spectrum: 3648
>>>>>Begin Processed Spectral Data<<<<<
177.47	1589.22
177.69	1589.22
177.91	1589.22
178.13	1621.99
178.36	1585.13
178.58	1920.99
178.80	1957.86
179.02	1779.68
179.24	1931.23
179.46	1927.14
179.68	1996.77
179.90	1978.34
180.13	1966.05
180.35	1834.98
180.57	1898.47
180.79	1992.67
181.01	1843.17
181.23	1978.34
181.45	2007.01
181.67	2045.92
181.90	2013.15
182.12	1849.32
182.34	1828.84
182.56	1974.24
182.78	2031.58
183.00	1884.13
183.22	1910.75
183.44	1800.16
183.66	2170.85
183.89	2142.18
184.11	1955.81
184.33	1964.00
184.55	1978.34
184.77	1923.04
184.99	1892.32
185.21	2004.96
185.43	2154.46
185.65	1970.15
185.87	1894.37
186.10	2123.74
186.32	2084.83
186.54	1945.57
186.76	1972.19
186.98	2088.93
187.20	1890.28
187.42	1951.71
187.64	1984.48
187.86	1927.14
188.08	1976.29
188.30	1900.52
188.52	1925.09
188.75	2025.44
188.97	2062.30
189.19	1853.41
189.41	1908.71
189.63	2023.39
189.85	1908.71
190.07	1927.14
190.29	1828.84
190.51	2027.49
190.73	1892.32
190.95	2084.83
191.17	1968.10
191.39	1904.61
191.61	1974.24
191.84	1818.60
192.06	1951.71
192.28	1871.84
192.50	2121.70
192.72	1933.28
192.94	1888.23
193.16	2088.93
193.38	1984.48
193.60	1871.84
193.82	1951.71
194.04	2084.83
194.26	1949.67
194.48	1959.91
194.70	1937.38
194.92	1972.19
195.14	1980.39
195.36	1894.37
195.58	1970.15
195.80	1869.80
196.02	1959.91
196.24	1933.28
196.46	1918.95
196.69	1886.18
196.91	2228.19
197.13	1871.84
197.35	1910.75
197.57	1990.63
197.79	2011.11
198.01	1939.43
198.23	1851.36
198.45	1925.09
198.67	1863.65
198.89	1908.71
199.11	1966.05
199.33	1918.95
199.55	1773.54
199.77	1935.33
199.99	1984.48
200.21	1949.67
200.43	1923.04
200.65	1884.13
200.87	1796.07
201.09	2011.11
201.31	1896.42
201.53	1990.63
201.75	1957.86
201.97	2000.87
202.19	1910.75
202.41	1957.86
202.63	2084.83
202.85	1980.39
203.07	2007.01
203.29	1882.08
203.51	1882.08
203.73	1941.47
203.95	2197.47
204.17	1982.43
204.39	1964.00
204.61	1951.71
204.83	1884.13
205.05	1980.39
205.27	1951.71
205.49	2133.98
205.71	1910.75
205.93	1826.79
206.15	1896.42
206.37	1966.05
206.59	1964.00
206.81	1873.89
207.03	1834.98
207.25	1923.04
207.47	2025.44
207.69	1943.52
207.91	2054.11
208.13	2090.98
208.34	1968.10
208.56	1814.50
208.78	2007.01
209.00	1857.51
209.22	1990.63
209.44	1931.23
209.66	1947.62
209.88	1968.10
210.10	1986.53
210.32	1935.33
210.54	1955.81
210.76	1970.15
210.98	2027.49
211.20	1849.32
211.42	1927.14
211.64	2050.02
211.86	2033.63
212.08	1955.81
212.30	1984.48
212.52	1906.66
212.74	2033.63
212.96	1918.95
213.17	1980.39
213.39	1980.39
213.61	2090.98
213.83	1916.90
214.05	2043.87
214.27	2050.02
214.49	1888.23
214.71	1908.71
214.93	2009.06
215.15	1955.81
215.37	2058.21
215.59	1839.08
215.81	2000.87
216.03	1984.48
216.24	1906.66
216.46	1869.80
216.68	1951.71
216.90	2021.35
217.12	2111.46
217.34	1863.65
217.56	1966.05
217.78	2080.74
218.00	1982.43
218.22	1964.00
218.44	1916.90
218.66	1982.43
218.87	2107.36
219.09	1961.95
219.31	1914.85
219.53	1966.05
219.75	1941.47
219.97	1892.32
220.19	1976.29
220.41	1863.65
220.63	2025.44
220.85	1990.63
221.06	1896.42
221.28	2082.78
221.50	1988.58
221.72	1931.23
221.94	1996.77
222.16	1992.67
222.38	2058.21
222.60	2017.25
222.82	1939.43
223.03	2027.49
223.25	1908.71
223.47	2019.30
223.69	2084.83
223.91	1990.63
224.13	1947.62
224.35	1882.08
224.57	2031.58
224.78	1970.15
225.00	1923.04
225.22	1966.05
225.44	1894.37
225.66	1988.58
225.88	1912.80
226.10	1972.19
226.32	1943.52
226.53	2015.20
226.75	1923.04
226.97	1966.05
227.19	1929.19
227.41	1957.86
227.63	1961.95
227.85	1877.99
228.06	1943.52
228.28	1970.15
228.50	2013.15
228.72	1886.18
228.94	1908.71
229.16	1826.79
229.37	1959.91
229.59	2021.35
229.81	2035.68
230.03	1966.05
230.25	1851.36
230.47	1822.69
230.69	1869.80
230.90	2060.26
231.12	1935.33
231.34	2019.30
231.56	2031.58
231.78	1902.56
232.00	2007.01
232.21	1957.86
232.43	2017.25
232.65	1824.74
232.87	2070.50
233.09	1863.65
233.30	1923.04
233.52	2023.39
233.74	1996.77
233.96	1896.42
234.18	1959.91
234.40	1849.32
234.61	2099.17
234.83	1853.41
235.05	1894.37
235.27	2099.17
235.49	2033.63
235.70	1912.80
235.92	1980.39
236.14	1998.82
236.36	2129.89
236.58	1826.79
236.79	1970.15
237.01	1945.57
237.23	1923.04
237.45	2045.92
237.67	1904.61
237.88	2009.06
238.10	2158.56
238.32	1937.38
238.54	1943.52
238.76	1916.90
238.97	1859.56
239.19	1974.24
239.41	1980.39
239.63	2056.16
239.85	1912.80
240.06	1849.32
240.28	1935.33
240.50	1955.81
240.72	2031.58
240.93	1927.14
241.15	2009.06
241.37	1937.38
241.59	2011.11
241.81	1939.43
242.02	1939.43
242.24	1986.53
242.46	2060.26
242.68	1892.32
242.89	1935.33
243.11	1998.82
243.33	1929.19
243.55	2007.01
243.76	1957.86
243.98	1945.57
244.20	1898.47
244.42	2002.91
244.64	1916.90
244.85	1822.69
245.07	1834.98
245.29	2058.21
245.51	1980.39
245.72	1986.53
245.94	2058.21
246.16	1955.81
246.38	1996.77
246.59	1857.51
246.81	1902.56
247.03	1941.47
247.24	1875.94
247.46	1920.99
247.68	1988.58
247.90	1914.85
248.11	1955.81
248.33	2058.21
248.55	1916.90
248.77	1970.15
248.98	1941.47
249.20	1976.29
249.42	1957.86
249.64	1964.00
249.85	1875.94
250.07	1920.99
250.29	1978.34
250.50	1939.43
250.72	1916.90
250.94	1990.63
251.16	2111.46
251.37	1933.28
251.59	1927.14
251.81	2009.06
252.02	2095.07
252.24	1898.47
252.46	2027.49
252.68	1912.80
252.89	1875.94
253.11	1923.04
253.33	1976.29
253.54	2068.45
253.76	1871.84
253.98	1906.66
254.20	1914.85
254.41	1875.94
254.63	1945.57
254.85	1925.09
255.06	1806.31
255.28	2002.91
255.50	1982.43
255.71	1888.23
255.93	1798.12
256.15	1875.94
256.36	1943.52
256.58	1945.57
256.80	1923.04
257.02	1931.23
257.23	1972.19
257.45	1931.23
257.67	2060.26
257.88	1890.28
258.10	2025.44
258.32	1939.43
258.53	1994.72
258.75	2097.12
258.97	1863.65
259.18	1929.19
259.40	1906.66
259.62	2117.60
259.83	2004.96
260.05	1935.33
260.27	2330.59
260.48	2045.92
260.70	1931.23
260.92	1849.32
261.13	1906.66
261.35	1902.56
261.57	1992.67
261.78	1898.47
262.00	1884.13
262.22	1927.14
262.43	1927.14
262.65	1888.23
262.86	1908.71
263.08	2148.32
263.30	1939.43
263.51	1763.30
263.73	1869.80
263.95	2090.98
264.16	1892.32
264.38	1898.47
264.60	1945.57
264.81	1892.32
265.03	2082.78
265.25	1966.05
265.46	1882.08
265.68	2037.73
265.89	2015.20
266.11	1773.54
266.33	1912.80
266.54	2015.20
266.76	1974.24
266.98	1949.67
267.19	1990.63
267.41	1957.86
267.62	1935.33
267.84	1898.47
268.06	2002.91
268.27	1906.66
268.49	2027.49
268.70	2078.69
268.92	1947.62
269.14	1964.00
269.35	1849.32
269.57	1951.71
269.79	1898.47
270.00	1892.32
270.22	2119.65
270.43	1871.84
270.65	1763.30
270.87	1941.47
271.08	2039.78
271.30	1947.62
271.51	1978.34
271.73	2043.87
271.95	2017.25
272.16	1961.95
272.38	1951.71
272.59	1900.52
272.81	1992.67
273.02	1974.24
273.24	1974.24
273.46	1961.95
273.67	1865.70
273.89	1859.56
274.10	1910.75
274.32	1996.77
274.54	2041.82
274.75	1970.15
274.97	1978.34
275.18	2066.40
275.40	1959.91
275.61	1894.37
275.83	1976.29
276.05	1880.04
276.26	1986.53
276.48	2025.44
276.69	1964.00
276.91	1900.52
277.12	1972.19
277.34	1990.63
277.55	1978.34
277.77	1957.86
277.99	1980.39
278.20	1863.65
278.42	1822.69
278.63	1898.47
278.85	1935.33
279.06	1875.94
279.28	1966.05
279.49	2052.06
279.71	2052.06
279.93	1961.95
280.14	1961.95
280.36	1925.09
280.57	2027.49
280.79	2000.87
281.00	1859.56
281.22	1916.90
281.43	2050.02
281.65	1720.29
281.86	1849.32
282.08	2035.68
282.29	2056.16
282.51	1877.99
282.73	1865.70
282.94	1794.02
283.16	1984.48
283.37	2070.50
283.59	1996.77
283.80	2027.49
284.02	1957.86
284.23	1968.10
284.45	1937.38
284.66	1794.02
284.88	1945.57
285.09	2015.20
285.31	2015.20
285.52	1957.86
285.74	1845.22
285.95	1949.67
286.17	1964.00
286.38	1984.48
286.60	1939.43
286.81	1912.80
287.03	1910.75
287.24	1947.62
287.46	1994.72
287.67	1984.48
287.89	2041.82
288.10	1953.76
288.32	1978.34
288.53	2007.01
288.75	1974.24
288.96	2109.41
289.18	1957.86
289.39	1900.52
289.61	1980.39
289.82	2072.54
290.04	2047.97
290.25	1867.75
290.47	1951.71
290.68	1941.47
290.90	2011.11
291.11	1871.84
291.33	2047.97
291.54	1888.23
291.76	1826.79
291.97	1955.81
292.18	1947.62
292.40	1861.60
292.61	1925.09
292.83	2193.37
293.04	1941.47
293.26	1982.43
293.47	1937.38
293.69	1912.80
293.90	1923.04
294.12	2017.25
294.33	1986.53
294.55	1912.80
294.76	2066.40
294.97	2017.25
295.19	2129.89
295.40	1931.23
295.62	1980.39
295.83	1970.15
296.05	1925.09
296.26	1984.48
296.48	1832.93
296.69	1955.81
296.90	1892.32
297.12	2025.44
297.33	2000.87
297.55	1998.82
297.76	2015.20
297.98	1959.91
298.19	1882.08
298.41	1976.29
298.62	1937.38
298.83	2066.40
299.05	1966.05
299.26	1966.05
299.48	1890.28
299.69	2029.54
299.90	1951.71
300.12	1951.71
300.33	2021.35
300.55	1990.63
300.76	1949.67
300.98	1935.33
301.19	1966.05
301.40	1935.33
301.62	1898.47
301.83	1923.04
302.05	2000.87
302.26	2000.87
302.47	1894.37
302.69	1894.37
302.90	1978.34
303.12	1812.45
303.33	2031.58
303.54	2150.37
303.76	1916.90
303.97	1949.67
304.19	2037.73
304.40	1894.37
304.61	1951.71
304.83	2103.26
305.04	2021.35
305.26	2039.78
305.47	1929.19
305.68	1906.66
305.90	1834.98
306.11	1996.77
306.33	1929.19
306.54	1937.38
306.75	1867.75
306.97	1920.99
307.18	1902.56
307.39	1898.47
307.61	2007.01
307.82	1898.47
308.04	1996.77
308.25	1877.99
308.46	2039.78
308.68	1955.81
308.89	1939.43
309.10	2058.21
309.32	2027.49
309.53	1964.00
309.74	1986.53
309.96	2004.96
310.17	2068.45
310.39	1941.47
310.60	2058.21
310.81	1968.10
311.03	1830.88
311.24	1978.34
311.45	1902.56
311.67	2088.93
311.88	1986.53
312.09	1925.09
312.31	1914.85
312.52	1966.05
312.73	1925.09
312.95	1865.70
313.16	1830.88
313.37	2088.93
313.59	1994.72
313.80	1990.63
314.01	2052.06
314.23	1943.52
314.44	1929.19
314.65	1888.23
314.87	1882.08
315.08	1959.91
315.29	1906.66
315.51	1951.71
315.72	1898.47
315.93	2082.78
316.15	1992.67
316.36	1873.89
316.57	1937.38
316.79	1961.95
317.00	1923.04
317.21	1966.05
317.43	1871.84
317.64	2009.06
317.85	1943.52
318.07	1918.95
318.28	1951.71
318.49	2090.98
318.70	2240.48
318.92	2131.94
319.13	2080.74
319.34	2129.89
319.56	2125.79
319.77	2129.89
319.98	2113.50
320.20	2039.78
320.41	2058.21
320.62	1943.52
320.83	1906.66
321.05	2076.64
321.26	1996.77
321.47	1984.48
321.69	2088.93
321.90	1898.47
322.11	1902.56
322.32	1966.05
322.54	2025.44
322.75	1927.14
322.96	2199.52
323.18	1820.64
323.39	1796.07
323.60	1849.32
323.81	2080.74
324.03	1875.94
324.24	1968.10
324.45	1957.86
324.66	1914.85
324.88	2043.87
325.09	2088.93
325.30	1970.15
325.52	1968.10
325.73	1968.10
325.94	1839.08
326.15	1800.16
326.37	1847.27
326.58	1998.82
326.79	2029.54
327.00	1908.71
327.22	1988.58
327.43	1939.43
327.64	1898.47
327.85	2002.91
328.07	1998.82
328.28	2136.03
328.49	2009.06
328.70	1918.95
328.92	1970.15
329.13	1890.28
329.34	1986.53
329.55	2103.26
329.76	2070.50
329.98	1931.23
330.19	2009.06
330.40	1978.34
330.61	1955.81
330.83	1984.48
331.04	1890.28
331.25	1974.24
331.46	1923.04
331.68	1925.09
331.89	2058.21
332.10	2013.15
332.31	1853.41
332.52	2015.20
332.74	1990.63
332.95	1941.47
333.16	1916.90
333.37	2041.82
333.58	1947.62
333.80	1849.32
334.01	1834.98
334.22	1902.56
334.43	1920.99
334.64	1984.48
334.86	1845.22
335.07	1890.28
335.28	2019.30
335.49	1828.84
335.70	1968.10
335.92	2058.21
336.13	2176.99
336.34	1996.77
336.55	2013.15
336.76	1945.57
336.98	1779.68
337.19	1949.67
337.40	2056.16
337.61	2111.46
337.82	1888.23
338.04	2011.11
338.25	1800.16
338.46	1980.39
338.67	1935.33
338.88	1923.04
339.09	1880.04
339.31	1896.42
339.52	1882.08
339.73	1910.75
339.94	1931.23
340.15	2043.87
340.36	1931.23
340.58	1935.33
340.79	1943.52
341.00	1982.43
341.21	1890.28
341.42	2029.54
341.63	1847.27
341.85	2047.97
342.06	1986.53
342.27	1916.90
342.48	2027.49
342.69	1880.04
342.90	1920.99
343.12	2043.87
343.33	1964.00
343.54	2103.26
343.75	2033.63
343.96	1916.90
344.17	1884.13
344.38	1941.47
344.60	1886.18
344.81	1896.42
345.02	1927.14
345.23	2074.59
345.44	2105.31
345.65	2045.92
345.86	1970.15
346.07	1957.86
346.29	1939.43
346.50	1992.67
346.71	1959.91
346.92	2031.58
347.13	2136.03
347.34	2047.97
347.55	1972.19
347.76	1949.67
347.98	1894.37
348.19	1988.58
348.40	2062.30
348.61	1974.24
348.82	2011.11
349.03	2004.96
349.24	1972.19
349.45	2047.97
349.66	1753.06
349.88	1982.43
350.09	1863.65
350.30	2090.98
350.51	2068.45
350.72	1966.05
350.93	1933.28
351.14	1923.04
351.35	2060.26
351.56	1961.95
351.77	1900.52
351.99	2025.44
352.20	1992.67
352.41	2070.50
352.62	1912.80
352.83	1914.85
353.04	1865.70
353.25	1947.62
353.46	2027.49
353.67	2045.92
353.88	1845.22
354.09	1976.29
354.30	1925.09
354.52	1947.62
354.73	1943.52
354.94	1941.47
355.15	1906.66
355.36	2045.92
355.57	1882.08
355.78	1896.42
355.99	1851.36
356.20	1916.90
356.41	2013.15
356.62	2047.97
356.83	1902.56
357.04	2039.78
357.25	1820.64
357.46	1927.14
357.68	1826.79
357.89	1882.08
358.10	1974.24
358.31	1978.34
358.52	1880.04
358.73	1765.35
358.94	1867.75
359.15	1888.23
359.36	2084.83
359.57	1953.76
359.78	1951.71
359.99	2078.69
360.20	1880.04
360.41	1972.19
360.62	1935.33
360.83	1945.57
361.04	1949.67
361.25	1939.43
361.46	2011.11
361.67	2007.01
361.88	2009.06
362.09	1957.86
362.30	1931.23
362.51	1931.23
362.72	1918.95
362.93	2045.92
363.14	2084.83
363.35	2015.20
363.56	1851.36
363.78	2043.87
363.99	2058.21
364.20	1931.23
364.41	2013.15
364.62	2066.40
364.83	1986.53
365.04	1875.94
365.25	2023.39
365.46	2146.27
365.67	1906.66
365.88	1947.62
366.09	1943.52
366.30	1867.75
366.51	2021.35
366.72	1824.74
366.93	1900.52
367.14	1980.39
367.35	1955.81
367.56	2015.20
367.77	2029.54
367.98	1925.09
368.18	1974.24
368.39	2007.01
368.60	1898.47
368.81	1972.19
369.02	1972.19
369.23	1892.32
369.44	1937.38
369.65	1861.60
369.86	2002.91
370.07	2041.82
370.28	1847.27
370.49	2031.58
370.70	2025.44
370.91	1906.66
371.12	1877.99
371.33	2097.12
371.54	1974.24
371.75	2037.73
371.96	1732.58
372.17	2021.35
372.38	1990.63
372.59	1964.00
372.80	1855.46
373.01	1968.10
373.22	2007.01
373.43	1925.09
373.64	1769.44
373.85	2072.54
374.06	2041.82
374.26	2017.25
374.47	1974.24
374.68	2097.12
374.89	1939.43
375.10	1933.28
375.31	1927.14
375.52	1916.90
375.73	2017.25
375.94	1867.75
376.15	1955.81
376.36	1906.66
376.57	1859.56
376.78	1873.89
376.99	2019.30
377.20	1998.82
377.40	1916.90
377.61	2074.59
377.82	1898.47
378.03	2047.97
378.24	2033.63
378.45	1941.47
378.66	1929.19
378.87	1894.37
379.08	1886.18
379.29	1968.10
379.50	2033.63
379.71	1900.52
379.91	1970.15
380.12	1933.28
380.33	1990.63
380.54	1953.76
380.75	2050.02
380.96	1933.28
381.17	2084.83
381.38	1935.33
381.59	1968.10
381.80	1966.05
382.00	2101.22
382.21	1998.82
382.42	2131.94
382.63	2148.32
382.84	2013.15
383.05	2023.39
383.26	2133.98
383.47	2000.87
383.68	2029.54
383.88	2007.01
384.09	2109.41
384.30	2086.88
384.51	1961.95
384.72	1847.27
384.93	1857.51
385.14	2031.58
385.35	2074.59
385.55	1976.29
385.76	2101.22
385.97	1990.63
386.18	1908.71
386.39	1964.00
386.60	1972.19
386.81	1959.91
387.02	1880.04
387.22	1906.66
387.43	2097.12
387.64	2066.40
387.85	2129.89
388.06	2310.11
388.27	3817.41
388.48	8537.98
388.68	11898.70
388.89	14298.92
389.10	15167.26
389.31	13950.76
389.52	10870.62
389.73	9543.53
389.93	8669.05
390.14	7829.38
390.35	7081.88
390.56	6336.42
390.77	5257.14
390.98	3966.92
391.18	3121.10
391.39	2582.49
391.60	2152.42
391.81	2101.22
392.02	2000.87
392.23	2142.18
392.43	1931.23
392.64	2156.51
392.85	1937.38
393.06	2076.64
393.27	1912.80
393.47	1953.76
393.68	1892.32
393.89	1892.32
394.10	1982.43
394.31	1933.28
394.52	1888.23
394.72	1937.38
394.93	2007.01
395.14	1892.32
395.35	2027.49
395.56	1908.71
395.76	2060.26
395.97	2015.20
396.18	2074.59
396.39	2164.70
396.60	2318.30
396.80	2275.29
397.01	2183.13
397.22	2152.42
397.43	2125.79
397.64	1955.81
397.84	2133.98
398.05	2115.55
398.26	2052.06
398.47	2039.78
398.67	2105.31
398.88	1976.29
399.09	1943.52
399.30	1935.33
399.51	1992.67
399.71	1933.28
399.92	1910.75
400.13	1986.53
400.34	2029.54
400.54	1949.67
400.75	2119.65
400.96	2004.96
401.17	2070.50
401.37	1933.28
401.58	1914.85
401.79	1966.05
402.00	2117.60
402.21	2353.12
402.41	2324.44
402.62	2373.60
402.83	2453.47
403.04	2351.07
403.24	2473.95
403.45	2234.33
403.66	2326.49
403.87	2220.00
404.07	2160.61
404.28	2222.05
404.49	2220.00
404.70	2148.32
404.90	2031.58
405.11	2066.40
405.32	2050.02
405.52	1902.56
405.73	1914.85
405.94	1986.53
406.15	1943.52
406.35	1996.77
406.56	1994.72
406.77	1986.53
406.98	2023.39
407.18	1931.23
407.39	2115.55
407.60	1937.38
407.80	2027.49
408.01	1888.23
408.22	2011.11
408.43	1904.61
408.63	2047.97
408.84	2015.20
409.05	1980.39
409.25	1898.47
409.46	1910.75
409.67	1945.57
409.88	1972.19
410.08	2060.26
410.29	1949.67
410.50	1990.63
410.70	2029.54
410.91	1880.04
411.12	1982.43
411.32	1966.05
411.53	1943.52
411.74	2107.36
411.95	2084.83
412.15	2056.16
412.36	2099.17
412.57	2066.40
412.77	2078.69
412.98	2056.16
413.19	2029.54
413.39	2072.54
413.60	1949.67
413.81	2127.84
414.01	1939.43
414.22	2039.78
414.43	2050.02
414.63	2021.35
414.84	2064.35
415.05	1980.39
415.25	1785.83
415.46	2050.02
415.67	1910.75
415.87	1974.24
416.08	1933.28
416.29	1947.62
416.49	1947.62
416.70	1947.62
416.91	1957.86
417.11	1949.67
417.32	2043.87
417.53	2058.21
417.73	1912.80
417.94	1953.76
418.15	2093.02
418.35	1935.33
418.56	2023.39
418.77	2095.07
418.97	1920.99
419.18	1888.23
419.38	1794.02
419.59	1964.00
419.80	2027.49
420.00	1978.34
420.21	1884.13
420.42	2025.44
420.62	2039.78
420.83	1945.57
421.04	1966.05
421.24	1976.29
421.45	1978.34
421.65	1990.63
421.86	1992.67
422.07	1976.29
422.27	1970.15
422.48	1961.95
422.69	1923.04
422.89	1988.58
423.10	2004.96
423.30	1849.32
423.51	1929.19
423.72	2009.06
423.92	2021.35
424.13	1882.08
424.33	1918.95
424.54	1945.57
424.75	1970.15
424.95	2076.64
425.16	1976.29
425.36	2015.20
425.57	2002.91
425.78	1964.00
425.98	2015.20
426.19	1914.85
426.39	1935.33
426.60	1939.43
426.81	2050.02
427.01	2066.40
427.22	1847.27
427.42	1845.22
427.63	1908.71
427.83	1998.82
428.04	2039.78
428.25	2019.30
428.45	2090.98
428.66	2035.68
428.86	1937.38
429.07	1906.66
429.28	1968.10
429.48	1951.71
429.69	1882.08
429.89	2050.02
430.10	1873.89
430.30	1955.81
430.51	2017.25
430.71	1841.12
430.92	2002.91
431.13	1966.05
431.33	2033.63
431.54	1959.91
431.74	2113.50
431.95	2025.44
432.15	1830.88
432.36	1877.99
432.56	1976.29
432.77	2127.84
432.98	2107.36
433.18	1978.34
433.39	1931.23
433.59	1908.71
433.80	2213.85
434.00	2082.78
434.21	1959.91
434.41	1920.99
434.62	2115.55
434.82	1892.32
435.03	1984.48
435.23	2002.91
435.44	1886.18
435.64	1908.71
435.85	1906.66
436.06	2060.26
436.26	2004.96
436.47	1931.23
436.67	1824.74
436.88	1943.52
437.08	2099.17
437.29	2154.46
437.49	2056.16
437.70	2072.54
437.90	1910.75
438.11	2068.45
438.31	2017.25
438.52	2166.75
438.72	2170.85
438.93	2183.13
439.13	2086.88
439.34	2164.70
439.54	2047.97
439.75	2054.11
439.95	2039.78
440.16	1920.99
440.36	1990.63
440.57	1972.19
440.77	2033.63
440.98	1941.47
441.18	1982.43
441.39	1974.24
441.59	1925.09
441.80	2152.42
442.00	1990.63
442.21	1998.82
442.41	1925.09
442.62	2015.20
442.82	1857.51
443.02	1941.47
443.23	1943.52
443.43	1966.05
443.64	2082.78
443.84	1966.05
444.05	2148.32
444.25	2015.20
444.46	2025.44
444.66	1947.62
444.87	2150.37
445.07	1908.71
445.28	2002.91
445.48	2099.17
445.69	2015.20
445.89	2228.19
446.09	2019.30
446.30	2246.62
446.50	2672.60
446.71	4175.81
446.91	5515.18
447.12	6125.47
447.32	6449.05
447.53	6033.32
447.73	4874.17
447.93	4405.18
448.14	3915.72
448.34	3753.93
448.55	3297.23
448.75	3416.01
448.96	3157.97
449.16	2768.85
449.36	2619.35
449.57	2316.25
449.77	2172.89
449.98	2086.88
450.18	2037.73
450.39	2074.59
450.59	2068.45
450.79	1945.57
451.00	1996.77
451.20	2004.96
451.41	2064.35
451.61	2004.96
451.81	1976.29
452.02	1888.23
452.22	2027.49
452.43	1945.57
452.63	1961.95
