SpectraSuite Data File
++++++++++++++++++++++++++++++++++++
Date: Wed May 04 22:45:24 CEST 2016
User: root
Dark Spectrum Present: No
Reference Spectrum Present: No
Number of Sampled Component Spectra: 1
Spectrometers: USB4C02835
Integration Time (usec): 100000 (USB4C02835)
Spectra Averaged: 1 (USB4C02835)
Boxcar Smoothing: 0 (USB4C02835)
Correct for Electrical Dark: No (USB4C02835)
Strobe/Lamp Enabled: No (USB4C02835)
Correct for Detector Non-linearity: No (USB4C02835)
Correct for Stray Light: No (USB4C02835)
Number of Pixels in Processed Spectrum: 3648
>>>>>Begin Processed Spectral Data<<<<<
177.47	1578.98
177.69	1578.98
177.91	1578.98
178.13	1581.03
178.36	1624.04
178.58	1865.70
178.80	1978.34
179.02	1910.75
179.24	1908.71
179.46	1890.28
179.68	2023.39
179.90	1998.82
180.13	1955.81
180.35	1816.55
180.57	1834.98
180.79	2019.30
181.01	1892.32
181.23	1988.58
181.45	2093.02
181.67	1974.24
181.90	1966.05
182.12	1875.94
182.34	1834.98
182.56	1953.76
182.78	2009.06
183.00	1949.67
183.22	1916.90
183.44	1839.08
183.66	2195.42
183.89	2023.39
184.11	1916.90
184.33	2029.54
184.55	2035.68
184.77	1953.76
184.99	2023.39
185.21	1920.99
185.43	2095.07
185.65	1884.13
185.87	1990.63
186.10	2101.22
186.32	2158.56
186.54	1951.71
186.76	1892.32
186.98	2056.16
187.20	1986.53
187.42	1892.32
187.64	1986.53
187.86	2011.11
188.08	2041.82
188.30	1906.66
188.52	1890.28
188.75	2009.06
188.97	2090.98
189.19	1931.23
189.41	1994.72
189.63	1941.47
189.85	1988.58
190.07	1908.71
190.29	1898.47
190.51	1947.62
190.73	1824.74
190.95	2033.63
191.17	1935.33
191.39	1873.89
191.61	1867.75
191.84	1912.80
192.06	1961.95
192.28	1877.99
192.50	2187.23
192.72	2017.25
192.94	1992.67
193.16	2000.87
193.38	2076.64
193.60	1839.08
193.82	1898.47
194.04	2013.15
194.26	2009.06
194.48	1923.04
194.70	1906.66
194.92	1914.85
195.14	2074.59
195.36	1855.46
195.58	1935.33
195.80	1974.24
196.02	1951.71
196.24	1908.71
196.46	1986.53
196.69	1972.19
196.91	2109.41
197.13	1937.38
197.35	1880.04
197.57	1980.39
197.79	2009.06
198.01	1970.15
198.23	1996.77
198.45	2017.25
198.67	1849.32
198.89	1888.23
199.11	1986.53
199.33	1910.75
199.55	1748.97
199.77	1931.23
199.99	2002.91
200.21	1929.19
200.43	1943.52
200.65	1845.22
200.87	1826.79
201.09	1984.48
201.31	1931.23
201.53	1988.58
201.75	1918.95
201.97	1961.95
202.19	1978.34
202.41	2021.35
202.63	2140.13
202.85	2015.20
203.07	1945.57
203.29	1884.13
203.51	1894.37
203.73	1947.62
203.95	2240.48
204.17	1970.15
204.39	1974.24
204.61	1875.94
204.83	1945.57
205.05	2002.91
205.27	2004.96
205.49	2090.98
205.71	1957.86
205.93	1867.75
206.15	1914.85
206.37	1912.80
206.59	1935.33
206.81	1880.04
207.03	1861.60
207.25	1851.36
207.47	2013.15
207.69	1931.23
207.91	2070.50
208.13	1964.00
208.34	1841.12
208.56	1847.27
208.78	1951.71
209.00	1984.48
209.22	1884.13
209.44	1929.19
209.66	1918.95
209.88	1996.77
210.10	1953.76
210.32	1935.33
210.54	1947.62
210.76	1978.34
210.98	1933.28
211.20	1816.55
211.42	2002.91
211.64	2033.63
211.86	1937.38
212.08	1996.77
212.30	1951.71
212.52	1927.14
212.74	1986.53
212.96	1941.47
213.17	2023.39
213.39	2021.35
213.61	2039.78
213.83	1923.04
214.05	1961.95
214.27	2047.97
214.49	1908.71
214.71	1937.38
214.93	2037.73
215.15	1984.48
215.37	2058.21
215.59	1873.89
215.81	2011.11
216.03	1984.48
216.24	1994.72
216.46	1910.75
216.68	1957.86
216.90	2007.01
217.12	2068.45
217.34	1920.99
217.56	1970.15
217.78	2047.97
218.00	1966.05
218.22	1929.19
218.44	2025.44
218.66	1996.77
218.87	2088.93
219.09	1951.71
219.31	1939.43
219.53	1949.67
219.75	1941.47
219.97	1892.32
220.19	1968.10
220.41	1875.94
220.63	2058.21
220.85	1986.53
221.06	1925.09
221.28	2066.40
221.50	2011.11
221.72	1951.71
221.94	1994.72
222.16	1912.80
222.38	1998.82
222.60	1939.43
222.82	1959.91
223.03	2039.78
223.25	1851.36
223.47	1935.33
223.69	2031.58
223.91	1998.82
224.13	1968.10
224.35	1886.18
224.57	2009.06
224.78	1955.81
225.00	1830.88
225.22	1910.75
225.44	1882.08
225.66	1966.05
225.88	1957.86
226.10	2015.20
226.32	2002.91
226.53	1980.39
226.75	1992.67
226.97	1951.71
227.19	1900.52
227.41	1861.60
227.63	1900.52
227.85	1834.98
228.06	1931.23
228.28	1980.39
228.50	1994.72
228.72	1865.70
228.94	1920.99
229.16	1800.16
229.37	1849.32
229.59	1867.75
229.81	2080.74
230.03	1957.86
230.25	1929.19
230.47	1818.60
230.69	1855.46
230.90	2015.20
231.12	1943.52
231.34	1935.33
231.56	2000.87
231.78	1855.46
232.00	1937.38
232.21	1937.38
232.43	1896.42
232.65	1798.12
232.87	1978.34
233.09	1824.74
233.30	1912.80
233.52	2066.40
233.74	1974.24
233.96	1898.47
234.18	1955.81
234.40	1937.38
234.61	2168.80
234.83	1824.74
235.05	1859.56
235.27	2125.79
235.49	2050.02
235.70	1937.38
235.92	2009.06
236.14	1976.29
236.36	2129.89
236.58	1855.46
236.79	1990.63
237.01	1920.99
237.23	1951.71
237.45	2076.64
237.67	1908.71
237.88	1972.19
238.10	2131.94
238.32	1892.32
238.54	1892.32
238.76	1920.99
238.97	1812.45
239.19	1826.79
239.41	1992.67
239.63	2052.06
239.85	1941.47
240.06	1906.66
240.28	1867.75
240.50	2103.26
240.72	2002.91
240.93	1966.05
241.15	2019.30
241.37	1990.63
241.59	2031.58
241.81	1908.71
242.02	1808.36
242.24	1957.86
242.46	2045.92
242.68	1890.28
242.89	1941.47
243.11	2060.26
243.33	1908.71
243.55	2011.11
243.76	1941.47
243.98	1877.99
244.20	1914.85
244.42	1933.28
244.64	2000.87
244.85	1910.75
245.07	1783.78
245.29	1951.71
245.51	2011.11
245.72	1964.00
245.94	2054.11
246.16	1996.77
246.38	1998.82
246.59	1890.28
246.81	1941.47
247.03	1892.32
247.24	1849.32
247.46	1906.66
247.68	1914.85
247.90	1912.80
248.11	1953.76
248.33	2095.07
248.55	1873.89
248.77	1914.85
248.98	1980.39
249.20	2060.26
249.42	1972.19
249.64	1964.00
249.85	1939.43
250.07	1923.04
250.29	2004.96
250.50	2000.87
250.72	1875.94
250.94	1990.63
251.16	2090.98
251.37	1937.38
251.59	1964.00
251.81	1939.43
252.02	1998.82
252.24	1863.65
252.46	1998.82
252.68	1933.28
252.89	1945.57
253.11	1873.89
253.33	2070.50
253.54	2154.46
253.76	1853.41
253.98	1941.47
254.20	1904.61
254.41	1904.61
254.63	1988.58
254.85	1802.21
255.06	1980.39
255.28	1982.43
255.50	1953.76
255.71	1906.66
255.93	1904.61
256.15	2029.54
256.36	1998.82
256.58	1886.18
256.80	1988.58
257.02	1920.99
257.23	1884.13
257.45	1877.99
257.67	1933.28
257.88	1931.23
258.10	2013.15
258.32	1931.23
258.53	1927.14
258.75	2078.69
258.97	1888.23
259.18	1882.08
259.40	1957.86
259.62	2084.83
259.83	2000.87
260.05	1949.67
260.27	2195.42
260.48	1994.72
260.70	1871.84
260.92	1886.18
261.13	1902.56
261.35	1970.15
261.57	2017.25
261.78	1775.59
262.00	1867.75
262.22	2056.16
262.43	1839.08
262.65	1945.57
262.86	1947.62
263.08	2070.50
263.30	2002.91
263.51	1783.78
263.73	1871.84
263.95	2052.06
264.16	1894.37
264.38	1875.94
264.60	2002.91
264.81	1927.14
265.03	2037.73
265.25	2013.15
265.46	1925.09
265.68	2066.40
265.89	2002.91
266.11	1789.92
266.33	2025.44
266.54	1998.82
266.76	2099.17
266.98	2019.30
267.19	2009.06
267.41	2043.87
267.62	1896.42
267.84	1816.55
268.06	1966.05
268.27	1992.67
268.49	2058.21
268.70	1986.53
268.92	1941.47
269.14	1869.80
269.35	1834.98
269.57	1980.39
269.79	1947.62
270.00	1976.29
270.22	2154.46
270.43	1837.03
270.65	1769.44
270.87	1970.15
271.08	1988.58
271.30	2031.58
271.51	1920.99
271.73	1984.48
271.95	2070.50
272.16	1927.14
272.38	1992.67
272.59	1880.04
272.81	1951.71
273.02	1984.48
273.24	1873.89
273.46	1986.53
273.67	1904.61
273.89	1894.37
274.10	1908.71
274.32	2025.44
274.54	1964.00
274.75	1972.19
274.97	1896.42
275.18	2013.15
275.40	1998.82
275.61	1947.62
275.83	2029.54
276.05	1837.03
276.26	1902.56
276.48	1943.52
276.69	1941.47
276.91	1927.14
277.12	2066.40
277.34	1968.10
277.55	2111.46
277.77	1980.39
277.99	2000.87
278.20	1888.23
278.42	1861.60
278.63	1933.28
278.85	1824.74
279.06	1916.90
279.28	1914.85
279.49	1966.05
279.71	2064.35
279.93	1951.71
280.14	1910.75
280.36	1877.99
280.57	2027.49
280.79	2027.49
281.00	1945.57
281.22	1929.19
281.43	1906.66
281.65	1832.93
281.86	1857.51
282.08	1959.91
282.29	2115.55
282.51	1929.19
282.73	1843.17
282.94	1857.51
283.16	2064.35
283.37	2058.21
283.59	1920.99
283.80	2015.20
284.02	1892.32
284.23	1957.86
284.45	1920.99
284.66	1898.47
284.88	1945.57
285.09	1957.86
285.31	1955.81
285.52	1972.19
285.74	1849.32
285.95	2031.58
286.17	1947.62
286.38	2015.20
286.60	1988.58
286.81	1902.56
287.03	1970.15
287.24	1875.94
287.46	2002.91
287.67	1951.71
287.89	2136.03
288.10	2023.39
288.32	2027.49
288.53	2115.55
288.75	1996.77
288.96	1998.82
289.18	1935.33
289.39	1939.43
289.61	2052.06
289.82	2133.98
290.04	2058.21
290.25	1851.36
290.47	1941.47
290.68	1964.00
290.90	2054.11
291.11	1884.13
291.33	1986.53
291.54	1931.23
291.76	1892.32
291.97	2009.06
292.18	1916.90
292.40	1939.43
292.61	1906.66
292.83	2148.32
293.04	2027.49
293.26	1976.29
293.47	1949.67
293.69	1882.08
293.90	1964.00
294.12	2023.39
294.33	1943.52
294.55	1888.23
294.76	2074.59
294.97	2041.82
295.19	2082.78
295.40	1873.89
295.62	1964.00
295.83	2047.97
296.05	1910.75
296.26	2002.91
296.48	1853.41
296.69	1935.33
296.90	1976.29
297.12	2009.06
297.33	2031.58
297.55	1994.72
297.76	1996.77
297.98	2033.63
298.19	1992.67
298.41	1877.99
298.62	1935.33
298.83	2086.88
299.05	1982.43
299.26	1959.91
299.48	1841.12
299.69	1939.43
299.90	1929.19
300.12	1931.23
300.33	2064.35
300.55	1986.53
300.76	2041.82
300.98	1937.38
301.19	1986.53
301.40	1972.19
301.62	1914.85
301.83	2027.49
302.05	1941.47
302.26	1961.95
302.47	1972.19
302.69	1892.32
302.90	1898.47
303.12	1873.89
303.33	1902.56
303.54	2140.13
303.76	1908.71
303.97	1943.52
304.19	2090.98
304.40	1837.03
304.61	2004.96
304.83	2072.54
305.04	2080.74
305.26	2002.91
305.47	1857.51
305.68	2043.87
305.90	1884.13
306.11	2058.21
306.33	1892.32
306.54	1865.70
306.75	1929.19
306.97	1853.41
307.18	1843.17
307.39	1892.32
307.61	2007.01
307.82	1894.37
308.04	1970.15
308.25	1902.56
308.46	1947.62
308.68	1964.00
308.89	1972.19
309.10	2047.97
309.32	1937.38
309.53	1904.61
309.74	2009.06
309.96	1869.80
310.17	2095.07
310.39	1966.05
310.60	2027.49
310.81	1966.05
311.03	1871.84
311.24	1994.72
311.45	1980.39
311.67	2097.12
311.88	2017.25
312.09	1886.18
312.31	2007.01
312.52	1931.23
312.73	1982.43
312.95	1810.40
313.16	1990.63
313.37	2027.49
313.59	1972.19
313.80	1986.53
314.01	2066.40
314.23	1898.47
314.44	1914.85
314.65	1816.55
314.87	1837.03
315.08	1937.38
315.29	1939.43
315.51	1910.75
315.72	1806.31
315.93	2138.08
316.15	1961.95
316.36	1918.95
316.57	1947.62
316.79	1935.33
317.00	1996.77
317.21	1978.34
317.43	1886.18
317.64	1941.47
317.85	1966.05
318.07	1783.78
318.28	1931.23
318.49	2088.93
318.70	2240.48
318.92	2129.89
319.13	2203.61
319.34	2203.61
319.56	2066.40
319.77	2103.26
319.98	2101.22
320.20	2111.46
320.41	2074.59
320.62	2080.74
320.83	1933.28
321.05	2121.70
321.26	1988.58
321.47	2025.44
321.69	2117.60
321.90	1804.26
322.11	1877.99
322.32	2015.20
322.54	2056.16
322.75	1925.09
322.96	2154.46
323.18	1873.89
323.39	1753.06
323.60	1859.56
323.81	2043.87
324.03	1906.66
324.24	1947.62
324.45	2050.02
324.66	1910.75
324.88	2031.58
325.09	2060.26
325.30	1941.47
325.52	2015.20
325.73	2056.16
325.94	1906.66
326.15	1810.40
326.37	1890.28
326.58	2115.55
326.79	2060.26
327.00	1859.56
327.22	2004.96
327.43	1935.33
327.64	1837.03
327.85	2013.15
328.07	2052.06
328.28	2121.70
328.49	1902.56
328.70	1988.58
328.92	1910.75
329.13	1929.19
329.34	1964.00
329.55	2045.92
329.76	2019.30
329.98	1886.18
330.19	2056.16
330.40	1996.77
330.61	1980.39
330.83	1920.99
331.04	1898.47
331.25	1959.91
331.46	1931.23
331.68	1849.32
331.89	2054.11
332.10	1959.91
332.31	1826.79
332.52	1945.57
332.74	2093.02
332.95	1912.80
333.16	1933.28
333.37	1982.43
333.58	1988.58
333.80	1908.71
334.01	1851.36
334.22	1916.90
334.43	1990.63
334.64	1939.43
334.86	1877.99
335.07	1869.80
335.28	2129.89
335.49	1808.36
335.70	1986.53
335.92	2086.88
336.13	2121.70
336.34	2052.06
336.55	1935.33
336.76	1964.00
336.98	1828.84
337.19	1898.47
337.40	2025.44
337.61	2099.17
337.82	1910.75
338.04	2045.92
338.25	1841.12
338.46	1949.67
338.67	1968.10
338.88	1886.18
339.09	1865.70
339.31	1873.89
339.52	1914.85
339.73	1906.66
339.94	1959.91
340.15	2056.16
340.36	1937.38
340.58	1986.53
340.79	1949.67
341.00	1970.15
341.21	1859.56
341.42	2095.07
341.63	1959.91
341.85	1968.10
342.06	1947.62
342.27	1900.52
342.48	1937.38
342.69	1896.42
342.90	1980.39
343.12	2004.96
343.33	1839.08
343.54	2045.92
343.75	2146.27
343.96	2004.96
344.17	1904.61
344.38	1947.62
344.60	1947.62
344.81	1855.46
345.02	1990.63
345.23	2109.41
345.44	2150.37
345.65	1957.86
345.86	1988.58
346.07	1941.47
346.29	1808.36
346.50	2002.91
346.71	1978.34
346.92	2078.69
347.13	2052.06
347.34	2009.06
347.55	1978.34
347.76	1964.00
347.98	1890.28
348.19	1923.04
348.40	2031.58
348.61	2017.25
348.82	2043.87
349.03	1974.24
349.24	1826.79
349.45	2090.98
349.66	1871.84
349.88	1904.61
350.09	1941.47
350.30	2007.01
350.51	2023.39
350.72	1982.43
350.93	2013.15
351.14	1857.51
351.35	1916.90
351.56	1865.70
351.77	1943.52
351.99	1937.38
352.20	2099.17
352.41	2070.50
352.62	1779.68
352.83	1867.75
353.04	1882.08
353.25	1884.13
353.46	1990.63
353.67	2023.39
353.88	1822.69
354.09	2004.96
354.30	1929.19
354.52	2007.01
354.73	1918.95
354.94	1892.32
355.15	2025.44
355.36	2131.94
355.57	1914.85
355.78	1974.24
355.99	1984.48
356.20	1925.09
356.41	2023.39
356.62	1916.90
356.83	1925.09
357.04	2109.41
357.25	1849.32
357.46	1884.13
357.68	1806.31
357.89	1916.90
358.10	1961.95
358.31	1964.00
358.52	1925.09
358.73	1867.75
358.94	1890.28
359.15	1869.80
359.36	2007.01
359.57	1990.63
359.78	1910.75
359.99	2002.91
360.20	1859.56
360.41	1935.33
360.62	1994.72
360.83	1970.15
361.04	1957.86
361.25	2039.78
361.46	2021.35
361.67	2050.02
361.88	2054.11
362.09	2064.35
362.30	1959.91
362.51	1974.24
362.72	1927.14
362.93	2041.82
363.14	1976.29
363.35	1964.00
363.56	1910.75
363.78	2013.15
363.99	1937.38
364.20	1886.18
364.41	1994.72
364.62	2064.35
364.83	1988.58
365.04	1953.76
365.25	1935.33
365.46	2119.65
365.67	1871.84
365.88	1920.99
366.09	1877.99
366.30	1970.15
366.51	1943.52
366.72	1826.79
366.93	1968.10
367.14	1974.24
367.35	2115.55
367.56	1955.81
367.77	2033.63
367.98	1953.76
368.18	2002.91
368.39	1914.85
368.60	1894.37
368.81	2035.68
369.02	1949.67
369.23	1990.63
369.44	1918.95
369.65	1959.91
369.86	1916.90
370.07	1951.71
370.28	1859.56
370.49	1994.72
370.70	2084.83
370.91	1925.09
371.12	1923.04
371.33	2062.30
371.54	1894.37
371.75	2029.54
371.96	1816.55
372.17	1964.00
372.38	1931.23
372.59	1935.33
372.80	1976.29
373.01	1902.56
373.22	1894.37
373.43	2000.87
373.64	1910.75
373.85	2121.70
374.06	2084.83
374.26	2029.54
374.47	2029.54
374.68	2043.87
374.89	1996.77
375.10	1935.33
375.31	2101.22
375.52	1986.53
375.73	1937.38
375.94	1888.23
376.15	2035.68
376.36	1941.47
376.57	1822.69
376.78	1951.71
376.99	1902.56
377.20	2041.82
377.40	1892.32
377.61	2103.26
377.82	1888.23
378.03	2015.20
378.24	2029.54
378.45	1939.43
378.66	2007.01
378.87	1841.12
379.08	1849.32
379.29	1861.60
379.50	2039.78
379.71	1918.95
379.91	2119.65
380.12	1972.19
380.33	1984.48
380.54	1974.24
380.75	1904.61
380.96	1945.57
381.17	2041.82
381.38	1978.34
381.59	2084.83
381.80	2015.20
382.00	2162.66
382.21	1976.29
382.42	2164.70
382.63	2211.81
382.84	1980.39
383.05	2050.02
383.26	2103.26
383.47	1988.58
383.68	2070.50
383.88	1986.53
384.09	1964.00
384.30	2101.22
384.51	2017.25
384.72	1964.00
384.93	1947.62
385.14	1998.82
385.35	2021.35
385.55	1892.32
385.76	2074.59
385.97	1964.00
386.18	1880.04
386.39	1869.80
386.60	2009.06
386.81	2015.20
387.02	1953.76
387.22	1896.42
387.43	2088.93
387.64	2007.01
387.85	2133.98
388.06	2295.77
388.27	3987.40
388.48	8726.39
388.68	12339.01
388.89	14417.70
389.10	15511.32
389.31	14020.39
389.52	11038.55
389.73	9637.74
389.93	8671.10
390.14	8028.04
390.35	7133.08
390.56	6477.73
390.77	5326.77
390.98	4071.36
391.18	3213.26
391.39	2504.67
391.60	2185.18
391.81	2127.84
392.02	1931.23
392.23	2138.08
392.43	2058.21
392.64	2009.06
392.85	1888.23
393.06	2066.40
393.27	1996.77
393.47	1953.76
393.68	1904.61
393.89	1898.47
394.10	2035.68
394.31	1968.10
394.52	1974.24
394.72	1890.28
394.93	2064.35
395.14	1920.99
395.35	2039.78
395.56	1939.43
395.76	1900.52
395.97	2023.39
396.18	2123.74
396.39	2140.13
396.60	2381.79
396.80	2258.91
397.01	2195.42
397.22	2220.00
397.43	2131.94
397.64	2050.02
397.84	2039.78
398.05	2228.19
398.26	2023.39
398.47	2088.93
398.67	2062.30
398.88	1927.14
399.09	2002.91
399.30	1961.95
399.51	2029.54
399.71	1908.71
399.92	1992.67
400.13	1980.39
400.34	1910.75
400.54	2009.06
400.75	2045.92
400.96	1988.58
401.17	2074.59
401.37	2013.15
401.58	1943.52
401.79	2031.58
402.00	2111.46
402.21	2291.68
402.41	2265.05
402.62	2322.40
402.83	2422.75
403.04	2451.42
403.24	2484.19
403.45	2127.84
403.66	2269.15
403.87	2170.85
404.07	2187.23
404.28	2209.76
404.49	2242.53
404.70	2015.20
404.90	2068.45
405.11	2015.20
405.32	1980.39
405.52	1906.66
405.73	1920.99
405.94	1927.14
406.15	1955.81
406.35	1964.00
406.56	1961.95
406.77	2013.15
406.98	1992.67
407.18	1931.23
407.39	2080.74
407.60	1894.37
407.80	2025.44
408.01	1943.52
408.22	1935.33
408.43	1955.81
408.63	2058.21
408.84	2021.35
409.05	1951.71
409.25	1961.95
409.46	1925.09
409.67	1875.94
409.88	1927.14
410.08	1947.62
410.29	1916.90
410.50	2039.78
410.70	1988.58
410.91	1888.23
411.12	2004.96
411.32	1970.15
411.53	1937.38
411.74	2097.12
411.95	2058.21
412.15	2056.16
412.36	2146.27
412.57	1990.63
412.77	2086.88
412.98	2011.11
413.19	1939.43
413.39	2000.87
413.60	2041.82
413.81	2023.39
414.01	1935.33
414.22	1968.10
414.43	1984.48
414.63	1935.33
414.84	2043.87
415.05	1904.61
415.25	1828.84
415.46	1964.00
415.67	1957.86
415.87	2017.25
416.08	1918.95
416.29	1920.99
416.49	1994.72
416.70	1912.80
416.91	1861.60
417.11	1988.58
417.32	1974.24
417.53	2045.92
417.73	1980.39
417.94	1990.63
418.15	1974.24
418.35	1984.48
418.56	2000.87
418.77	2101.22
418.97	1900.52
419.18	1912.80
419.38	1785.83
419.59	1978.34
419.80	2054.11
420.00	1910.75
420.21	1904.61
420.42	1998.82
420.62	1939.43
420.83	1914.85
421.04	1908.71
421.24	2029.54
421.45	1982.43
421.65	1947.62
421.86	1882.08
422.07	1978.34
422.27	1935.33
422.48	2045.92
422.69	1951.71
422.89	1968.10
423.10	1886.18
423.30	1847.27
423.51	1945.57
423.72	1996.77
423.92	2074.59
424.13	1875.94
424.33	1953.76
424.54	2031.58
424.75	1998.82
424.95	2043.87
425.16	2017.25
425.36	2011.11
425.57	2043.87
425.78	1996.77
425.98	2037.73
426.19	1912.80
426.39	1855.46
426.60	2027.49
426.81	2029.54
427.01	1902.56
427.22	1869.80
427.42	1845.22
427.63	1929.19
427.83	1949.67
428.04	2080.74
428.25	2064.35
428.45	2084.83
428.66	2050.02
428.86	1978.34
429.07	1927.14
429.28	2019.30
429.48	1904.61
429.69	1937.38
429.89	1996.77
430.10	1865.70
430.30	1923.04
430.51	2029.54
430.71	1939.43
430.92	2015.20
431.13	1888.23
431.33	1976.29
431.54	2000.87
431.74	2078.69
431.95	2127.84
432.15	1937.38
432.36	2017.25
432.56	2033.63
432.77	2097.12
432.98	2076.64
433.18	1992.67
433.39	1959.91
433.59	1964.00
433.80	2060.26
434.00	2127.84
434.21	1943.52
434.41	1892.32
434.62	2125.79
434.82	1925.09
435.03	1863.65
435.23	1996.77
435.44	1859.56
435.64	1982.43
435.85	1929.19
436.06	2007.01
436.26	2019.30
436.47	2009.06
436.67	1841.12
436.88	1959.91
437.08	2041.82
437.29	2113.50
437.49	2037.73
437.70	2068.45
437.90	1972.19
438.11	2105.31
438.31	2064.35
438.52	2148.32
438.72	2148.32
438.93	2263.01
439.13	2041.82
439.34	2136.03
439.54	2060.26
439.75	2084.83
439.95	2058.21
440.16	1892.32
440.36	1918.95
440.57	2023.39
440.77	2019.30
440.98	2050.02
441.18	2047.97
441.39	1918.95
441.59	1877.99
441.80	2136.03
442.00	1966.05
442.21	2076.64
442.41	1869.80
442.62	2054.11
442.82	1916.90
443.02	1941.47
443.23	2000.87
443.43	1994.72
443.64	2152.42
443.84	1945.57
444.05	2154.46
444.25	2000.87
444.46	2009.06
444.66	1966.05
444.87	2058.21
445.07	1855.46
445.28	1978.34
445.48	2103.26
445.69	2019.30
445.89	2189.28
446.09	1941.47
446.30	2195.42
446.50	2648.02
446.71	4143.04
446.91	5253.04
447.12	6141.86
447.32	6645.66
447.53	6061.99
447.73	4904.89
447.93	4298.69
448.14	3979.20
448.34	3743.69
448.55	3297.23
448.75	3395.53
448.96	3241.93
449.16	2858.96
449.36	2703.32
449.57	2297.82
449.77	2103.26
449.98	2076.64
450.18	2037.73
450.39	2058.21
450.59	2097.12
450.79	1972.19
451.00	1916.90
451.20	2009.06
451.41	2015.20
451.61	1947.62
451.81	1961.95
452.02	2019.30
452.22	1947.62
452.43	1935.33
452.63	1945.57
