SpectraSuite Data File
++++++++++++++++++++++++++++++++++++
Date: Thu May 05 16:20:30 CEST 2016
User: root
Dark Spectrum Present: No
Reference Spectrum Present: No
Number of Sampled Component Spectra: 1
Spectrometers: USB4C02835
Integration Time (usec): 100000 (USB4C02835)
Spectra Averaged: 1 (USB4C02835)
Boxcar Smoothing: 0 (USB4C02835)
Correct for Electrical Dark: No (USB4C02835)
Strobe/Lamp Enabled: No (USB4C02835)
Correct for Detector Non-linearity: No (USB4C02835)
Correct for Stray Light: No (USB4C02835)
Number of Pixels in Processed Spectrum: 3648
>>>>>Begin Processed Spectral Data<<<<<
177.47	2039.78
177.69	2039.78
177.91	2039.78
178.13	2052.06
178.36	2093.02
178.58	2570.20
178.80	2662.36
179.02	2537.43
179.24	2570.20
179.46	2437.08
179.68	2545.63
179.90	2680.79
180.13	2748.37
180.35	2412.51
180.57	2478.04
180.79	2834.39
181.01	2668.50
181.23	2535.39
181.45	2572.25
181.67	2840.53
181.90	2844.63
182.12	2525.15
182.34	2328.54
182.56	2828.24
182.78	2813.91
183.00	2496.47
183.22	2516.95
183.44	2420.70
183.66	3151.82
183.89	2607.06
184.11	2568.15
184.33	2801.62
184.55	2889.68
184.77	2502.62
184.99	2469.85
185.21	2729.94
185.43	3096.53
185.65	2557.91
185.87	2459.61
186.10	3041.23
186.32	3098.58
186.54	2592.73
186.76	2600.92
186.98	2871.25
187.20	2695.13
187.42	2502.62
187.64	2469.85
187.86	2760.66
188.08	2830.29
188.30	2463.71
188.52	2576.34
188.75	2965.46
188.97	2891.73
189.19	2523.10
189.41	2492.38
189.63	2895.83
189.85	2658.26
190.07	2353.12
190.29	2363.36
190.51	2729.94
190.73	2516.95
190.95	2645.98
191.17	2543.58
191.39	2508.76
191.61	2711.51
191.84	2594.78
192.06	2635.74
192.28	2572.25
192.50	3248.08
192.72	2637.78
192.94	2580.44
193.16	2883.54
193.38	2719.70
193.60	2412.51
193.82	2666.46
194.04	2914.26
194.26	2797.53
194.48	2564.06
194.70	2525.15
194.92	2686.94
195.14	2799.57
195.36	2430.94
195.58	2572.25
195.80	2699.22
196.02	2576.34
196.24	2420.70
196.46	2609.11
196.69	2707.41
196.91	2981.84
197.13	2605.02
197.35	2447.32
197.57	2955.22
197.79	2861.01
198.01	2535.39
198.23	2512.86
198.45	2799.57
198.67	2514.91
198.89	2398.17
199.11	2543.58
199.33	2695.13
199.55	2432.99
199.77	2467.80
199.99	2658.26
200.21	2697.17
200.43	2762.71
200.65	2469.85
200.87	2351.07
201.09	2709.46
201.31	2658.26
201.53	2545.63
201.75	2584.54
201.97	2727.89
202.19	2705.37
202.41	2531.29
202.63	2666.46
202.85	2822.10
203.07	2738.13
203.29	2488.28
203.51	2406.36
203.73	2637.78
203.95	3139.54
204.17	2455.51
204.39	2586.58
204.61	2768.85
204.83	2635.74
205.05	2662.36
205.27	2529.24
205.49	3026.90
205.71	2672.60
205.93	2449.37
206.15	2432.99
206.37	2736.09
206.59	2695.13
206.81	2424.80
207.03	2457.56
207.25	2521.05
207.47	2762.71
207.69	2525.15
207.91	2699.22
208.13	2908.12
208.34	2678.74
208.56	2445.27
208.78	2523.10
209.00	2594.78
209.22	2648.02
209.44	2525.15
209.66	2463.71
209.88	2695.13
210.10	2746.33
210.32	2523.10
210.54	2527.19
210.76	2619.35
210.98	2787.29
211.20	2406.36
211.42	2633.69
211.64	2879.44
211.86	2772.95
212.08	2578.39
212.30	2523.10
212.52	2641.88
212.74	2901.97
212.96	2600.92
213.17	2576.34
213.39	2729.94
213.61	2940.88
213.83	2600.92
214.05	2353.12
214.27	2879.44
214.49	2609.11
214.71	2412.51
214.93	2551.77
215.15	2744.28
215.37	2826.20
215.59	2396.12
215.81	2559.96
216.03	2977.75
216.24	2711.51
216.46	2502.62
216.68	2510.81
216.90	2924.50
217.12	2891.73
217.34	2486.23
217.56	2639.83
217.78	2940.88
218.00	2781.14
218.22	2590.68
218.44	2650.07
218.66	2709.46
218.87	3047.38
219.09	2543.58
219.31	2529.24
219.53	2750.42
219.75	2629.59
219.97	2578.39
220.19	2541.53
220.41	2688.98
220.63	3010.51
220.85	2605.02
221.06	2543.58
221.28	2914.26
221.50	2777.05
221.72	2557.91
221.94	2482.14
222.16	2797.53
222.38	2936.79
222.60	2463.71
222.82	2557.91
223.03	2873.30
223.25	2596.82
223.47	2566.10
223.69	2662.36
223.91	2910.16
224.13	2738.13
224.35	2482.14
224.57	2693.08
224.78	2891.73
225.00	2574.30
225.22	2650.07
225.44	2473.95
225.66	2881.49
225.88	2613.21
226.10	2588.63
226.32	2564.06
226.53	2885.59
226.75	2695.13
226.97	2523.10
227.19	2564.06
227.41	2658.26
227.63	2594.78
227.85	2344.92
228.06	2557.91
228.28	2766.81
228.50	2723.80
228.72	2381.79
228.94	2514.91
229.16	2506.71
229.37	2578.39
229.59	2437.08
229.81	2750.42
230.03	2678.74
230.25	2467.80
230.47	2338.78
230.69	2465.75
230.90	2826.20
231.12	2633.69
231.34	2572.25
231.56	2549.72
231.78	2617.30
232.00	2740.18
232.21	2500.57
232.43	2551.77
232.65	2389.98
232.87	2756.57
233.09	2402.27
233.30	2424.80
233.52	2836.44
233.74	2654.17
233.96	2541.53
234.18	2652.12
234.40	2756.57
234.61	3076.05
234.83	2394.08
235.05	2463.71
235.27	3121.10
235.49	2932.69
235.70	2412.51
235.92	2555.86
236.14	2809.81
236.36	3127.25
236.58	2396.12
236.79	2586.58
237.01	2691.03
237.23	2729.94
237.45	2701.27
237.67	2478.04
237.88	2764.76
238.10	3078.10
238.32	2486.23
238.54	2527.19
238.76	2711.51
238.97	2586.58
239.19	2435.03
239.41	2609.11
239.63	2944.98
239.85	2641.88
240.06	2482.14
240.28	2473.95
240.50	2897.88
240.72	2772.95
240.93	2449.37
241.15	2658.26
241.37	2842.58
241.59	3014.61
241.81	2545.63
242.02	2586.58
242.24	2731.99
242.46	2848.72
242.68	2432.99
242.89	2482.14
243.11	2861.01
243.33	2731.99
243.55	2607.06
243.76	2537.43
243.98	2541.53
244.20	2609.11
244.42	2521.05
244.64	2473.95
244.85	2521.05
245.07	2627.54
245.29	2539.48
245.51	2564.06
245.72	2744.28
245.94	2848.72
246.16	2502.62
246.38	2566.10
246.59	2611.16
246.81	2582.49
247.03	2453.47
247.24	2351.07
247.46	2719.70
247.68	2695.13
247.90	2521.05
248.11	2592.73
248.33	2818.00
248.55	2760.66
248.77	2562.01
248.98	2625.50
249.20	2918.36
249.42	2670.55
249.64	2441.18
249.85	2451.42
250.07	2658.26
250.29	2797.53
250.50	2596.82
250.72	2469.85
250.94	2727.89
251.16	2979.79
251.37	2502.62
251.59	2639.83
251.81	2795.48
252.02	2856.92
252.24	2426.84
252.46	2678.74
252.68	2580.44
252.89	2641.88
253.11	2385.88
253.33	2643.93
253.54	2867.16
253.76	2576.34
253.98	2459.61
254.20	2471.90
254.41	2527.19
254.63	2691.03
254.85	2408.41
255.06	2512.86
255.28	2826.20
255.50	2686.94
255.71	2490.33
255.93	2426.84
256.15	2695.13
256.36	2764.76
256.58	2322.40
256.80	2521.05
257.02	2670.55
257.23	2758.61
257.45	2584.54
257.67	2555.86
257.88	2631.64
258.10	2723.80
258.32	2496.47
258.53	2551.77
258.75	3000.27
258.97	2619.35
259.18	2539.48
259.40	2506.71
259.62	2949.08
259.83	2957.27
260.05	2545.63
260.27	3168.21
260.48	2906.07
260.70	2521.05
260.92	2439.13
261.13	2494.43
261.35	2822.10
261.57	2807.77
261.78	2437.08
262.00	2422.75
262.22	2889.68
262.43	2637.78
262.65	2449.37
262.86	2475.99
263.08	3053.52
263.30	2703.32
263.51	2363.36
263.73	2496.47
263.95	2951.12
264.16	2627.54
264.38	2430.94
264.60	2514.91
264.81	2754.52
265.03	2908.12
265.25	2836.44
265.46	2500.57
265.68	2942.93
265.89	2799.57
266.11	2396.12
266.33	2525.15
266.54	2875.35
266.76	2746.33
266.98	2537.43
267.19	2623.45
267.41	2820.05
267.62	2693.08
267.84	2445.27
268.06	2617.30
268.27	2731.99
268.49	2856.92
268.70	2523.10
268.92	2498.52
269.14	2605.02
269.35	2500.57
269.57	2537.43
269.79	2553.82
270.00	2662.36
270.22	2947.03
270.43	2437.08
270.65	2289.63
270.87	2750.42
271.08	2871.25
271.30	2623.45
271.51	2535.39
271.73	2807.77
271.95	2912.21
272.16	2465.75
272.38	2656.22
272.59	2768.85
272.81	2856.92
273.02	2498.52
273.24	2586.58
273.46	2879.44
273.67	2625.50
273.89	2346.97
274.10	2539.48
274.32	2904.02
274.54	2752.47
274.75	2588.63
274.97	2613.21
275.18	2789.33
275.40	2832.34
275.61	2488.28
275.83	2699.22
276.05	2490.33
276.26	2666.46
276.48	2570.20
276.69	2605.02
276.91	2711.51
277.12	2951.12
277.34	2762.71
277.55	2783.19
277.77	2731.99
277.99	2750.42
278.20	2521.05
278.42	2555.86
278.63	2555.86
278.85	2541.53
279.06	2461.66
279.28	2723.80
279.49	2883.54
279.71	2844.63
279.93	2740.18
280.14	2621.40
280.36	2559.96
280.57	2795.48
280.79	2619.35
281.00	2543.58
281.22	2619.35
281.43	2887.64
281.65	2383.84
281.86	2537.43
282.08	2854.87
282.29	3022.80
282.51	2449.37
282.73	2471.90
282.94	2519.00
283.16	2793.43
283.37	2807.77
283.59	2588.63
283.80	2799.57
284.02	2705.37
284.23	2645.98
284.45	2645.98
284.66	2596.82
284.88	2625.50
285.09	2660.31
285.31	2654.17
285.52	2770.90
285.74	2590.68
285.95	2711.51
286.17	2672.60
286.38	2852.82
286.60	2596.82
286.81	2557.91
287.03	2596.82
287.24	2734.04
287.46	2803.67
287.67	2709.46
287.89	2873.30
288.10	2654.17
288.32	2744.28
288.53	2762.71
288.75	2619.35
288.96	2867.16
289.18	2633.69
289.39	2617.30
289.61	2584.54
289.82	2951.12
290.04	2990.03
290.25	2490.33
290.47	2643.93
290.68	2725.85
290.90	2879.44
291.11	2521.05
291.33	2723.80
291.54	2693.08
291.76	2660.31
291.97	2660.31
292.18	2709.46
292.40	2611.16
292.61	2600.92
292.83	2924.50
293.04	2656.22
293.26	2820.05
293.47	2684.89
293.69	2521.05
293.90	2543.58
294.12	2838.48
294.33	2715.61
294.55	2672.60
294.76	2770.90
294.97	2912.21
295.19	2990.03
295.40	2609.11
295.62	2744.28
295.83	2846.68
296.05	2580.44
296.26	2815.96
296.48	2594.78
296.69	2631.64
296.90	2707.41
297.12	2684.89
297.33	2701.27
297.55	2729.94
297.76	2803.67
297.98	2688.98
298.19	2723.80
298.41	2650.07
298.62	2574.30
298.83	2797.53
299.05	2711.51
299.26	2688.98
299.48	2588.63
299.69	2756.57
299.90	2656.22
300.12	2645.98
300.33	2856.92
300.55	2631.64
300.76	2680.79
300.98	2635.74
301.19	2836.44
301.40	2578.39
301.62	2605.02
301.83	2703.32
302.05	2729.94
302.26	2572.25
302.47	2670.55
302.69	2582.49
302.90	2707.41
303.12	2408.41
303.33	2686.94
303.54	3057.62
303.76	2607.06
303.97	2637.78
304.19	2811.86
304.40	2605.02
304.61	2830.29
304.83	2744.28
305.04	2701.27
305.26	2801.62
305.47	2729.94
305.68	2631.64
305.90	2539.48
306.11	2899.92
306.33	2695.13
306.54	2465.75
306.75	2564.06
306.97	2559.96
307.18	2586.58
307.39	2615.26
307.61	2629.59
307.82	2674.65
308.04	2760.66
308.25	2543.58
308.46	2648.02
308.68	2797.53
308.89	2666.46
309.10	2746.33
309.32	2656.22
309.53	2738.13
309.74	2762.71
309.96	2559.96
310.17	2738.13
310.39	2570.20
310.60	2797.53
310.81	2760.66
311.03	2559.96
311.24	2744.28
311.45	2684.89
311.67	2842.58
311.88	2648.02
312.09	2711.51
312.31	2588.63
312.52	2598.87
312.73	2639.83
312.95	2498.52
313.16	2662.36
313.37	2809.81
313.59	2695.13
313.80	2818.00
314.01	2967.51
314.23	2605.02
314.44	2553.82
314.65	2596.82
314.87	2607.06
315.08	2621.40
315.29	2486.23
315.51	2617.30
315.72	2545.63
315.93	2725.85
316.15	2701.27
316.36	2605.02
316.57	2772.95
316.79	2731.99
317.00	2559.96
317.21	2787.29
317.43	2584.54
317.64	2682.84
317.85	2523.10
318.07	2594.78
318.28	2645.98
318.49	2717.65
318.70	2926.55
318.92	2756.57
319.13	2764.76
319.34	2734.04
319.56	2635.74
319.77	2830.29
319.98	2881.49
320.20	2842.58
320.41	2666.46
320.62	2770.90
320.83	2467.80
321.05	2842.58
321.26	2668.50
321.47	2760.66
321.69	2858.96
321.90	2545.63
322.11	2545.63
322.32	2772.95
322.54	3051.47
322.75	2607.06
322.96	3200.98
323.18	2486.23
323.39	2465.75
323.60	2486.23
323.81	2699.22
324.03	2564.06
324.24	2664.41
324.45	2715.61
324.66	2574.30
324.88	2930.64
325.09	2930.64
325.30	2570.20
325.52	2559.96
325.73	2770.90
325.94	2672.60
326.15	2437.08
326.37	2576.34
326.58	2797.53
326.79	3012.56
327.00	2523.10
327.22	2660.31
327.43	2617.30
327.64	2586.58
327.85	2695.13
328.07	2668.50
328.28	3028.95
328.49	2672.60
328.70	2592.73
328.92	2633.69
329.13	2693.08
329.34	2713.56
329.55	2783.19
329.76	2799.57
329.98	2717.65
330.19	2930.64
330.40	2713.56
330.61	2691.03
330.83	2768.85
331.04	2637.78
331.25	2768.85
331.46	2594.78
331.68	2596.82
331.89	2824.15
332.10	2662.36
332.31	2488.28
332.52	2670.55
332.74	2820.05
332.95	2535.39
333.16	2627.54
333.37	2871.25
333.58	2643.93
333.80	2625.50
334.01	2408.41
334.22	2686.94
334.43	2613.21
334.64	2527.19
334.86	2488.28
335.07	2627.54
335.28	2934.74
335.49	2463.71
335.70	2674.65
335.92	2922.45
336.13	3012.56
336.34	2760.66
336.55	2613.21
336.76	2768.85
336.98	2424.80
337.19	2643.93
337.40	2775.00
337.61	3051.47
337.82	2637.78
338.04	2768.85
338.25	2418.65
338.46	2678.74
338.67	2740.18
338.88	2488.28
339.09	2559.96
339.31	2643.93
339.52	2541.53
339.73	2432.99
339.94	2570.20
340.15	2797.53
340.36	2682.84
340.58	2627.54
340.79	2570.20
341.00	2799.57
341.21	2590.68
341.42	2844.63
341.63	2572.25
341.85	2801.62
342.06	2705.37
342.27	2596.82
342.48	2748.37
342.69	2568.15
342.90	2775.00
343.12	2809.81
343.33	2625.50
343.54	2869.20
343.75	2955.22
343.96	2629.59
344.17	2543.58
344.38	2633.69
344.60	2564.06
344.81	2424.80
345.02	2629.59
345.23	2936.79
345.44	3088.34
345.65	2656.22
345.86	2684.89
346.07	2656.22
346.29	2662.36
346.50	2670.55
346.71	2736.09
346.92	2973.65
347.13	3030.99
347.34	2602.97
347.55	2484.19
347.76	2793.43
347.98	2467.80
348.19	2557.91
348.40	2758.61
348.61	2615.26
348.82	2990.03
349.03	2654.17
349.24	2527.19
349.45	2992.08
349.66	2471.90
349.88	2535.39
350.09	2531.29
350.30	2916.31
350.51	2924.50
350.72	2742.23
350.93	2533.34
351.14	2641.88
351.35	2777.05
351.56	2582.49
351.77	2643.93
351.99	2662.36
352.20	2918.36
352.41	2793.43
352.62	2471.90
352.83	2709.46
353.04	2695.13
353.25	2588.63
353.46	2594.78
353.67	2908.12
353.88	2439.13
354.09	2629.59
354.30	2713.56
354.52	2807.77
354.73	2686.94
354.94	2510.81
355.15	2682.84
355.36	3047.38
355.57	2676.70
355.78	2648.02
355.99	2559.96
356.20	2660.31
356.41	2891.73
356.62	2719.70
356.83	2574.30
357.04	2893.78
357.25	2516.95
357.46	2539.48
357.68	2488.28
357.89	2580.44
358.10	2658.26
358.31	2539.48
358.52	2672.60
358.73	2525.15
358.94	2533.34
359.15	2611.16
359.36	2680.79
359.57	2668.50
359.78	2731.99
359.99	2711.51
360.20	2541.53
360.41	2744.28
360.62	2762.71
360.83	2717.65
361.04	2711.51
361.25	2807.77
361.46	3014.61
361.67	2738.13
361.88	2643.93
362.09	2893.78
362.30	2736.09
362.51	2564.06
362.72	2688.98
362.93	2873.30
363.14	2822.10
363.35	2672.60
363.56	2473.95
363.78	2922.45
363.99	2850.77
364.20	2621.40
364.41	2670.55
364.62	3080.14
364.83	2772.95
365.04	2576.34
365.25	2578.39
365.46	2994.13
365.67	2658.26
365.88	2645.98
366.09	2535.39
366.30	2703.32
366.51	2668.50
366.72	2562.01
366.93	2654.17
367.14	2676.70
367.35	2899.92
367.56	2656.22
367.77	2717.65
367.98	2719.70
368.18	2742.23
368.39	2764.76
368.60	2557.91
368.81	2863.06
369.02	2731.99
369.23	2662.36
369.44	2525.15
369.65	2623.45
369.86	2832.34
370.07	2740.18
370.28	2475.99
370.49	2725.85
370.70	2832.34
370.91	2537.43
371.12	2402.27
371.33	2805.72
371.54	2590.68
371.75	2744.28
371.96	2379.74
372.17	2731.99
372.38	2695.13
372.59	2711.51
372.80	2539.48
373.01	2656.22
373.22	2738.13
373.43	2619.35
373.64	2400.22
373.85	2912.21
374.06	2961.36
374.26	2783.19
374.47	2727.89
374.68	2949.08
374.89	2678.74
375.10	2645.98
375.31	2697.17
375.52	2705.37
375.73	2734.04
375.94	2484.19
376.15	2777.05
376.36	2635.74
376.57	2627.54
376.78	2637.78
376.99	2635.74
377.20	2899.92
377.40	2797.53
377.61	2904.02
377.82	2641.88
378.03	2901.97
378.24	2832.34
378.45	2664.41
378.66	2641.88
378.87	2482.14
379.08	2514.91
379.29	2557.91
379.50	2781.14
379.71	2754.52
379.91	2768.85
380.12	2688.98
380.33	2664.41
380.54	2772.95
380.75	2637.78
380.96	2592.73
381.17	2660.31
381.38	2705.37
381.59	2758.61
381.80	2639.83
382.00	2809.81
382.21	2742.23
382.42	2965.46
382.63	2916.31
382.84	2670.55
383.05	2883.54
383.26	2920.40
383.47	2678.74
383.68	2639.83
383.88	2670.55
384.09	2686.94
384.30	2818.00
384.51	2637.78
384.72	2676.70
384.93	2482.14
385.14	2676.70
385.35	2824.15
385.55	2490.33
385.76	2848.72
385.97	2545.63
386.18	2533.34
386.39	2580.44
386.60	2752.47
386.81	2629.59
387.02	2566.10
387.22	2564.06
387.43	2826.20
387.64	2658.26
387.85	2875.35
388.06	2838.48
388.27	3973.06
388.48	7532.43
388.68	11032.41
388.89	13360.95
389.10	14522.15
389.31	13741.87
389.52	10839.90
389.73	9611.12
389.93	8470.40
390.14	7993.22
390.35	7075.73
390.56	6352.80
390.77	5287.86
390.98	4054.98
391.18	3420.11
391.39	3127.25
391.60	2764.76
391.81	2795.48
392.02	2703.32
392.23	3014.61
392.43	2809.81
392.64	2736.09
392.85	2791.38
393.06	2971.60
393.27	2701.27
393.47	2650.07
393.68	2711.51
393.89	2654.17
394.10	2883.54
394.31	2611.16
394.52	2596.82
394.72	2713.56
394.93	2944.98
395.14	2582.49
395.35	2754.52
395.56	2484.19
395.76	2754.52
395.97	2654.17
396.18	2709.46
396.39	2820.05
396.60	3221.45
396.80	2936.79
397.01	2797.53
397.22	2949.08
397.43	3047.38
397.64	2662.36
397.84	2676.70
398.05	3016.66
398.26	2672.60
398.47	2688.98
398.67	2801.62
398.88	2713.56
399.09	2904.02
399.30	2600.92
399.51	2709.46
399.71	2719.70
399.92	2656.22
400.13	2705.37
400.34	2623.45
400.54	2701.27
400.75	3018.71
400.96	2684.89
401.17	2926.55
401.37	2791.38
401.58	2680.79
401.79	2680.79
402.00	2748.37
402.21	3125.20
402.41	2973.65
402.62	2906.07
402.83	3004.37
403.04	3117.01
403.24	3338.19
403.45	2711.51
403.66	2971.60
403.87	2883.54
404.07	2932.69
404.28	2830.29
404.49	2856.92
404.70	2856.92
404.90	2912.21
405.11	2691.03
405.32	2705.37
405.52	2633.69
405.73	2641.88
405.94	2572.25
406.15	2650.07
406.35	2854.87
406.56	2893.78
406.77	2680.79
406.98	2619.35
407.18	2639.83
407.39	2899.92
407.60	2674.65
407.80	2740.18
408.01	2691.03
408.22	2799.57
408.43	2529.24
408.63	2711.51
408.84	2838.48
409.05	2881.49
409.25	2545.63
409.46	2494.43
409.67	2711.51
409.88	2605.02
410.08	2660.31
410.29	2578.39
410.50	2826.20
410.70	2820.05
410.91	2523.10
411.12	2684.89
411.32	2719.70
411.53	2605.02
411.74	2643.93
411.95	2772.95
412.15	2717.65
412.36	2897.88
412.57	2740.18
412.77	2873.30
412.98	2697.17
413.19	2643.93
413.39	2693.08
413.60	2701.27
413.81	2928.60
414.01	2496.47
414.22	2734.04
414.43	2807.77
414.63	2744.28
414.84	2908.12
415.05	2611.16
415.25	2504.67
415.46	2801.62
415.67	2676.70
415.87	2643.93
416.08	2607.06
416.29	2668.50
416.49	2854.87
416.70	2697.17
416.91	2623.45
417.11	2781.14
417.32	2899.92
417.53	2801.62
417.73	2736.09
417.94	2703.32
418.15	2688.98
418.35	2672.60
418.56	2656.22
418.77	3170.26
418.97	2686.94
419.18	2654.17
419.38	2420.70
419.59	2752.47
419.80	2875.35
420.00	2656.22
420.21	2668.50
420.42	2981.84
420.62	2758.61
420.83	2578.39
421.04	2613.21
421.24	2674.65
421.45	2854.87
421.65	2662.36
421.86	2598.87
422.07	2885.59
422.27	2729.94
422.48	2668.50
422.69	2482.14
422.89	2779.09
423.10	2725.85
423.30	2631.64
423.51	2772.95
423.72	2781.14
423.92	2832.34
424.13	2496.47
424.33	2678.74
424.54	2928.60
424.75	2686.94
424.95	2953.17
425.16	2654.17
425.36	2656.22
425.57	2805.72
425.78	2791.38
425.98	2711.51
426.19	2711.51
426.39	2615.26
426.60	2717.65
426.81	2789.33
427.01	2803.67
427.22	2650.07
427.42	2506.71
427.63	2598.87
427.83	2908.12
428.04	3022.80
428.25	2750.42
428.45	2818.00
428.66	2854.87
428.86	2676.70
429.07	2680.79
429.28	2676.70
429.48	2721.75
429.69	2617.30
429.89	2752.47
430.10	2613.21
430.30	2797.53
430.51	2856.92
430.71	2645.98
430.92	2695.13
431.13	2652.12
431.33	2832.34
431.54	2656.22
431.74	2809.81
431.95	2973.65
432.15	2559.96
432.36	2629.59
432.56	2756.57
432.77	3061.71
432.98	2994.13
433.18	2664.41
433.39	2637.78
433.59	2691.03
433.80	3104.72
434.00	2897.88
434.21	2559.96
434.41	2600.92
434.62	3035.09
434.82	2502.62
435.03	2607.06
435.23	2805.72
435.44	2523.10
435.64	2596.82
435.85	2676.70
436.06	2918.36
436.26	2813.91
436.47	2656.22
436.67	2580.44
436.88	2668.50
437.08	2889.68
437.29	2775.00
437.49	2723.80
437.70	2854.87
437.90	2719.70
438.11	2889.68
438.31	2807.77
438.52	2879.44
438.72	2914.26
438.93	2957.27
439.13	2674.65
439.34	2906.07
439.54	2717.65
439.75	2805.72
439.95	2719.70
440.16	2627.54
440.36	2686.94
440.57	2734.04
440.77	2688.98
440.98	2664.41
441.18	2873.30
441.39	2564.06
441.59	2512.86
441.80	3121.10
442.00	2684.89
442.21	2752.47
442.41	2527.19
442.62	2908.12
442.82	2660.31
443.02	2611.16
443.23	2719.70
443.43	2738.13
443.64	2871.25
443.84	2504.67
444.05	2691.03
444.25	2725.85
444.46	2713.56
444.66	2621.40
444.87	2942.93
445.07	2531.29
445.28	2680.79
445.48	2830.29
445.69	2654.17
445.89	3061.71
446.09	2643.93
446.30	2934.74
446.50	3114.96
446.71	4612.03
446.91	5832.62
447.12	6561.69
447.32	6801.30
447.53	6567.84
447.73	5537.71
447.93	4800.44
448.14	4499.39
448.34	4579.26
448.55	3862.47
448.75	3823.56
448.96	3651.53
449.16	3479.50
449.36	3246.03
449.57	2910.16
449.77	2693.08
449.98	2609.11
450.18	2781.14
450.39	2693.08
450.59	2766.81
450.79	2684.89
451.00	2695.13
451.20	2824.15
451.41	2654.17
451.61	2834.39
451.81	2672.60
452.02	2719.70
452.22	2639.83
452.43	2635.74
452.63	2686.94
