SpectraSuite Data File
++++++++++++++++++++++++++++++++++++
Date: Thu May 05 16:21:01 CEST 2016
User: root
Dark Spectrum Present: No
Reference Spectrum Present: No
Number of Sampled Component Spectra: 1
Spectrometers: USB4C02835
Integration Time (usec): 100000 (USB4C02835)
Spectra Averaged: 1 (USB4C02835)
Boxcar Smoothing: 0 (USB4C02835)
Correct for Electrical Dark: No (USB4C02835)
Strobe/Lamp Enabled: No (USB4C02835)
Correct for Detector Non-linearity: No (USB4C02835)
Correct for Stray Light: No (USB4C02835)
Number of Pixels in Processed Spectrum: 3648
>>>>>Begin Processed Spectral Data<<<<<
177.47	2027.49
177.69	2027.49
177.91	2027.49
178.13	2074.59
178.36	2115.55
178.58	2596.82
178.80	2727.89
179.02	2525.15
179.24	2553.82
179.46	2475.99
179.68	2478.04
179.90	2623.45
180.13	2721.75
180.35	2437.08
180.57	2478.04
180.79	2908.12
181.01	2652.12
181.23	2541.53
181.45	2645.98
181.67	2777.05
181.90	2867.16
182.12	2490.33
182.34	2357.21
182.56	2781.14
182.78	2828.24
183.00	2519.00
183.22	2527.19
183.44	2426.84
183.66	3141.58
183.89	2602.97
184.11	2541.53
184.33	2838.48
184.55	2928.60
184.77	2445.27
184.99	2508.76
185.21	2641.88
185.43	3168.21
185.65	2506.71
185.87	2424.80
186.10	3016.66
186.32	3059.67
186.54	2580.44
186.76	2643.93
186.98	2840.53
187.20	2709.46
187.42	2516.95
187.64	2475.99
187.86	2768.85
188.08	2883.54
188.30	2469.85
188.52	2500.57
188.75	2920.40
188.97	2934.74
189.19	2514.91
189.41	2471.90
189.63	2731.99
189.85	2701.27
190.07	2439.13
190.29	2383.84
190.51	2775.00
190.73	2551.77
190.95	2588.63
191.17	2553.82
191.39	2547.67
191.61	2684.89
191.84	2475.99
192.06	2605.02
192.28	2502.62
192.50	3192.78
192.72	2549.72
192.94	2531.29
193.16	2906.07
193.38	2764.76
193.60	2400.22
193.82	2572.25
194.04	2953.17
194.26	2670.55
194.48	2469.85
194.70	2478.04
194.92	2742.23
195.14	2844.63
195.36	2418.65
195.58	2508.76
195.80	2686.94
196.02	2639.83
196.24	2480.09
196.46	2531.29
196.69	2670.55
196.91	3092.43
197.13	2451.42
197.35	2463.71
197.57	2981.84
197.79	2693.08
198.01	2492.38
198.23	2586.58
198.45	2758.61
198.67	2512.86
198.89	2375.64
199.11	2586.58
199.33	2611.16
199.55	2441.18
199.77	2523.10
199.99	2697.17
200.21	2652.12
200.43	2754.52
200.65	2432.99
200.87	2435.03
201.09	2807.77
201.31	2758.61
201.53	2549.72
201.75	2562.01
201.97	2770.90
202.19	2688.98
202.41	2523.10
202.63	2682.84
202.85	2846.68
203.07	2750.42
203.29	2553.82
203.51	2455.51
203.73	2570.20
203.95	3153.87
204.17	2473.95
204.39	2650.07
204.61	2727.89
204.83	2662.36
205.05	2568.15
205.27	2564.06
205.49	3084.24
205.71	2756.57
205.93	2469.85
206.15	2457.56
206.37	2723.80
206.59	2615.26
206.81	2422.75
207.03	2422.75
207.25	2578.39
207.47	2822.10
207.69	2498.52
207.91	2717.65
208.13	2918.36
208.34	2707.41
208.56	2416.60
208.78	2465.75
209.00	2662.36
209.22	2695.13
209.44	2529.24
209.66	2445.27
209.88	2717.65
210.10	2652.12
210.32	2523.10
210.54	2607.06
210.76	2652.12
210.98	2852.82
211.20	2418.65
211.42	2596.82
211.64	2922.45
211.86	2811.86
212.08	2578.39
212.30	2529.24
212.52	2615.26
212.74	2781.14
212.96	2531.29
213.17	2592.73
213.39	2879.44
213.61	2967.51
213.83	2527.19
214.05	2428.89
214.27	2916.31
214.49	2627.54
214.71	2414.56
214.93	2703.32
215.15	2744.28
215.37	2830.29
215.59	2387.93
215.81	2600.92
216.03	2914.26
216.24	2731.99
216.46	2500.57
216.68	2535.39
216.90	2785.24
217.12	2828.24
217.34	2488.28
217.56	2654.17
217.78	2877.40
218.00	2809.81
218.22	2582.49
218.44	2633.69
218.66	2684.89
218.87	2998.23
219.09	2469.85
219.31	2607.06
219.53	2793.43
219.75	2623.45
219.97	2549.72
220.19	2459.61
220.41	2691.03
220.63	2961.36
220.85	2555.86
221.06	2564.06
221.28	2930.64
221.50	2756.57
221.72	2451.42
221.94	2398.17
222.16	2707.41
222.38	2891.73
222.60	2512.86
222.82	2541.53
223.03	2822.10
223.25	2615.26
223.47	2467.80
223.69	2787.29
223.91	2828.24
224.13	2766.81
224.35	2441.18
224.57	2717.65
224.78	2848.72
225.00	2592.73
225.22	2584.54
225.44	2449.37
225.66	2858.96
225.88	2680.79
226.10	2654.17
226.32	2555.86
226.53	2990.03
226.75	2648.02
226.97	2555.86
227.19	2580.44
227.41	2625.50
227.63	2584.54
227.85	2396.12
228.06	2521.05
228.28	2707.41
228.50	2889.68
228.72	2346.97
228.94	2482.14
229.16	2465.75
229.37	2527.19
229.59	2482.14
229.81	2785.24
230.03	2613.21
230.25	2588.63
230.47	2416.60
230.69	2447.32
230.90	2805.72
231.12	2639.83
231.34	2486.23
231.56	2633.69
231.78	2547.67
232.00	2729.94
232.21	2596.82
232.43	2525.15
232.65	2463.71
232.87	2725.85
233.09	2422.75
233.30	2420.70
233.52	2775.00
233.74	2717.65
233.96	2469.85
234.18	2633.69
234.40	2748.37
234.61	3061.71
234.83	2398.17
235.05	2416.60
235.27	2985.94
235.49	2904.02
235.70	2482.14
235.92	2555.86
236.14	2840.53
236.36	3026.90
236.58	2416.60
236.79	2666.46
237.01	2750.42
237.23	2731.99
237.45	2775.00
237.67	2584.54
237.88	2848.72
238.10	3043.28
238.32	2449.37
238.54	2490.33
238.76	2721.75
238.97	2596.82
239.19	2461.66
239.41	2568.15
239.63	2815.96
239.85	2719.70
240.06	2578.39
240.28	2482.14
240.50	2850.77
240.72	2707.41
240.93	2389.98
241.15	2701.27
241.37	2717.65
241.59	2879.44
241.81	2516.95
242.02	2559.96
242.24	2734.04
242.46	2891.73
242.68	2387.93
242.89	2475.99
243.11	2940.88
243.33	2678.74
243.55	2519.00
243.76	2486.23
243.98	2590.68
244.20	2668.50
244.42	2482.14
244.64	2527.19
244.85	2527.19
245.07	2631.64
245.29	2533.34
245.51	2514.91
245.72	2729.94
245.94	2813.91
246.16	2547.67
246.38	2623.45
246.59	2627.54
246.81	2570.20
247.03	2428.89
247.24	2377.69
247.46	2629.59
247.68	2787.29
247.90	2465.75
248.11	2482.14
248.33	2867.16
248.55	2740.18
248.77	2619.35
248.98	2580.44
249.20	2971.60
249.42	2783.19
249.64	2498.52
249.85	2480.09
250.07	2609.11
250.29	2895.83
250.50	2545.63
250.72	2451.42
250.94	2791.38
251.16	3123.15
251.37	2494.43
251.59	2596.82
251.81	2779.09
252.02	2912.21
252.24	2502.62
252.46	2684.89
252.68	2600.92
252.89	2641.88
253.11	2340.83
253.33	2664.41
253.54	3008.47
253.76	2562.01
253.98	2455.51
254.20	2596.82
254.41	2574.30
254.63	2705.37
254.85	2406.36
255.06	2533.34
255.28	2785.24
255.50	2658.26
255.71	2541.53
255.93	2314.20
256.15	2654.17
256.36	2795.48
256.58	2449.37
256.80	2514.91
257.02	2668.50
257.23	2686.94
257.45	2506.71
257.67	2537.43
257.88	2635.74
258.10	2824.15
258.32	2582.49
258.53	2631.64
258.75	2869.20
258.97	2506.71
259.18	2437.08
259.40	2506.71
259.62	2977.75
259.83	2906.07
260.05	2555.86
260.27	3192.78
260.48	2869.20
260.70	2549.72
260.92	2408.41
261.13	2570.20
261.35	2820.05
261.57	2754.52
261.78	2385.88
262.00	2447.32
262.22	2783.19
262.43	2641.88
262.65	2533.34
262.86	2494.43
263.08	3080.14
263.30	2717.65
263.51	2344.92
263.73	2439.13
263.95	2990.03
264.16	2578.39
264.38	2424.80
264.60	2519.00
264.81	2674.65
265.03	2815.96
265.25	2789.33
265.46	2443.23
265.68	2938.84
265.89	2787.29
266.11	2447.32
266.33	2539.48
266.54	2877.40
266.76	2760.66
266.98	2574.30
267.19	2664.41
267.41	2785.24
267.62	2660.31
267.84	2342.88
268.06	2643.93
268.27	2740.18
268.49	2916.31
268.70	2596.82
268.92	2519.00
269.14	2586.58
269.35	2568.15
269.57	2580.44
269.79	2572.25
270.00	2613.21
270.22	2987.99
270.43	2392.03
270.65	2379.74
270.87	2731.99
271.08	2856.92
271.30	2676.70
271.51	2553.82
271.73	2803.67
271.95	2955.22
272.16	2486.23
272.38	2623.45
272.59	2639.83
272.81	2842.58
273.02	2475.99
273.24	2566.10
273.46	2906.07
273.67	2570.20
273.89	2373.60
274.10	2490.33
274.32	2883.54
274.54	2695.13
274.75	2605.02
274.97	2523.10
275.18	2850.77
275.40	2762.71
275.61	2547.67
275.83	2699.22
276.05	2600.92
276.26	2705.37
276.48	2617.30
276.69	2615.26
276.91	2609.11
277.12	2897.88
277.34	2684.89
277.55	2672.60
277.77	2695.13
277.99	2660.31
278.20	2594.78
278.42	2502.62
278.63	2602.97
278.85	2535.39
279.06	2482.14
279.28	2635.74
279.49	2842.58
279.71	2858.96
279.93	2658.26
280.14	2623.45
280.36	2582.49
280.57	2791.38
280.79	2701.27
281.00	2523.10
281.22	2588.63
281.43	2895.83
281.65	2346.97
281.86	2559.96
282.08	2824.15
282.29	3035.09
282.51	2432.99
282.73	2531.29
282.94	2469.85
283.16	2815.96
283.37	2740.18
283.59	2662.36
283.80	2852.82
284.02	2752.47
284.23	2686.94
284.45	2619.35
284.66	2611.16
284.88	2555.86
285.09	2637.78
285.31	2668.50
285.52	2752.47
285.74	2482.14
285.95	2693.08
286.17	2645.98
286.38	2875.35
286.60	2654.17
286.81	2588.63
287.03	2596.82
287.24	2600.92
287.46	2865.11
287.67	2703.32
287.89	2738.13
288.10	2785.24
288.32	2723.80
288.53	2809.81
288.75	2635.74
288.96	2822.10
289.18	2586.58
289.39	2494.43
289.61	2707.41
289.82	3129.30
290.04	2981.84
290.25	2500.57
290.47	2693.08
290.68	2725.85
290.90	2928.60
291.11	2422.75
291.33	2742.23
291.54	2582.49
291.76	2615.26
291.97	2699.22
292.18	2691.03
292.40	2670.55
292.61	2537.43
292.83	2912.21
293.04	2680.79
293.26	2785.24
293.47	2654.17
293.69	2512.86
293.90	2568.15
294.12	2947.03
294.33	2695.13
294.55	2682.84
294.76	2731.99
294.97	2947.03
295.19	3063.76
295.40	2588.63
295.62	2631.64
295.83	2906.07
296.05	2586.58
296.26	2729.94
296.48	2619.35
296.69	2736.09
296.90	2695.13
297.12	2779.09
297.33	2777.05
297.55	2789.33
297.76	2793.43
297.98	2635.74
298.19	2662.36
298.41	2740.18
298.62	2570.20
298.83	2795.48
299.05	2654.17
299.26	2645.98
299.48	2578.39
299.69	2678.74
299.90	2633.69
300.12	2637.78
300.33	2760.66
300.55	2570.20
300.76	2629.59
300.98	2572.25
301.19	2863.06
301.40	2535.39
301.62	2557.91
301.83	2830.29
302.05	2777.05
302.26	2508.76
302.47	2611.16
302.69	2559.96
302.90	2703.32
303.12	2371.55
303.33	2596.82
303.54	3045.33
303.76	2684.89
303.97	2641.88
304.19	2826.20
304.40	2572.25
304.61	2838.48
304.83	2779.09
305.04	2695.13
305.26	2791.38
305.47	2625.50
305.68	2519.00
305.90	2484.19
306.11	2926.55
306.33	2658.26
306.54	2510.81
306.75	2533.34
306.97	2504.67
307.18	2680.79
307.39	2523.10
307.61	2670.55
307.82	2676.70
308.04	2809.81
308.25	2549.72
308.46	2738.13
308.68	2709.46
308.89	2691.03
309.10	2752.47
309.32	2660.31
309.53	2686.94
309.74	2789.33
309.96	2588.63
310.17	2762.71
310.39	2592.73
310.60	2893.78
310.81	2674.65
311.03	2455.51
311.24	2854.87
311.45	2787.29
311.67	2787.29
311.88	2740.18
312.09	2633.69
312.31	2703.32
312.52	2590.68
312.73	2555.86
312.95	2521.05
313.16	2680.79
313.37	2727.89
313.59	2709.46
313.80	2861.01
314.01	2942.93
314.23	2562.01
314.44	2582.49
314.65	2473.95
314.87	2580.44
315.08	2568.15
315.29	2516.95
315.51	2553.82
315.72	2516.95
315.93	2752.47
316.15	2662.36
316.36	2652.12
316.57	2746.33
316.79	2588.63
317.00	2607.06
317.21	2791.38
317.43	2629.59
317.64	2559.96
317.85	2578.39
318.07	2676.70
318.28	2645.98
318.49	2719.70
318.70	2883.54
318.92	2727.89
319.13	2809.81
319.34	2879.44
319.56	2660.31
319.77	2820.05
319.98	2811.86
320.20	2772.95
320.41	2766.81
320.62	2750.42
320.83	2504.67
321.05	2842.58
321.26	2625.50
321.47	2643.93
321.69	2836.44
321.90	2539.48
322.11	2586.58
322.32	2742.23
322.54	2969.55
322.75	2578.39
322.96	3155.92
323.18	2559.96
323.39	2461.66
323.60	2523.10
323.81	2715.61
324.03	2693.08
324.24	2609.11
324.45	2791.38
324.66	2572.25
324.88	2940.88
325.09	2985.94
325.30	2553.82
325.52	2613.21
325.73	2762.71
325.94	2590.68
326.15	2480.09
326.37	2484.19
326.58	2916.31
326.79	2996.18
327.00	2482.14
327.22	2584.54
327.43	2596.82
327.64	2621.40
327.85	2744.28
328.07	2699.22
328.28	2998.23
328.49	2531.29
328.70	2523.10
328.92	2631.64
329.13	2709.46
329.34	2848.72
329.55	2805.72
329.76	2607.06
329.98	2627.54
330.19	2963.41
330.40	2664.41
330.61	2668.50
330.83	2789.33
331.04	2576.34
331.25	2695.13
331.46	2580.44
331.68	2488.28
331.89	2848.72
332.10	2682.84
332.31	2498.52
332.52	2633.69
332.74	2844.63
332.95	2439.13
333.16	2625.50
333.37	2779.09
333.58	2625.50
333.80	2674.65
334.01	2471.90
334.22	2727.89
334.43	2580.44
334.64	2582.49
334.86	2537.43
335.07	2609.11
335.28	2912.21
335.49	2498.52
335.70	2684.89
335.92	2932.69
336.13	2990.03
336.34	2703.32
336.55	2643.93
336.76	2777.05
336.98	2455.51
337.19	2643.93
337.40	2785.24
337.61	3092.43
337.82	2658.26
338.04	2650.07
338.25	2441.18
338.46	2695.13
338.67	2641.88
338.88	2441.18
339.09	2521.05
339.31	2686.94
339.52	2471.90
339.73	2510.81
339.94	2637.78
340.15	2805.72
340.36	2705.37
340.58	2613.21
340.79	2453.47
341.00	2783.19
341.21	2545.63
341.42	2906.07
341.63	2625.50
341.85	2873.30
342.06	2734.04
342.27	2564.06
342.48	2744.28
342.69	2574.30
342.90	2809.81
343.12	2850.77
343.33	2588.63
343.54	2953.17
343.75	2891.73
343.96	2654.17
344.17	2473.95
344.38	2697.17
344.60	2584.54
344.81	2553.82
345.02	2629.59
345.23	2873.30
345.44	3084.24
345.65	2707.41
345.86	2701.27
346.07	2818.00
346.29	2637.78
346.50	2715.61
346.71	2727.89
346.92	2897.88
347.13	2973.65
347.34	2660.31
347.55	2537.43
347.76	2811.86
347.98	2496.47
348.19	2596.82
348.40	2779.09
348.61	2650.07
348.82	2992.08
349.03	2631.64
349.24	2521.05
349.45	3059.67
349.66	2451.42
349.88	2621.40
350.09	2590.68
350.30	2920.40
350.51	2885.59
350.72	2768.85
350.93	2637.78
351.14	2656.22
351.35	2783.19
351.56	2713.56
351.77	2621.40
351.99	2834.39
352.20	2924.50
352.41	2731.99
352.62	2396.12
352.83	2695.13
353.04	2674.65
353.25	2557.91
353.46	2742.23
353.67	2875.35
353.88	2488.28
354.09	2607.06
354.30	2648.02
354.52	2836.44
354.73	2695.13
354.94	2600.92
355.15	2680.79
355.36	2969.55
355.57	2627.54
355.78	2559.96
355.99	2609.11
356.20	2682.84
356.41	2996.18
356.62	2674.65
356.83	2584.54
357.04	2957.27
357.25	2457.56
357.46	2598.87
357.68	2514.91
357.89	2568.15
358.10	2639.83
358.31	2605.02
358.52	2609.11
358.73	2568.15
358.94	2615.26
359.15	2582.49
359.36	2750.42
359.57	2717.65
359.78	2713.56
359.99	2731.99
360.20	2527.19
360.41	2668.50
360.62	2785.24
360.83	2686.94
361.04	2688.98
361.25	2828.24
361.46	2885.59
361.67	2768.85
361.88	2666.46
362.09	2879.44
362.30	2744.28
362.51	2547.67
362.72	2648.02
362.93	2891.73
363.14	2744.28
363.35	2652.12
363.56	2559.96
363.78	2971.60
363.99	2936.79
364.20	2580.44
364.41	2725.85
364.62	2971.60
364.83	2744.28
365.04	2578.39
365.25	2619.35
365.46	3022.80
365.67	2617.30
365.88	2717.65
366.09	2584.54
366.30	2744.28
366.51	2781.14
366.72	2582.49
366.93	2498.52
367.14	2725.85
367.35	2942.93
367.56	2572.25
367.77	2768.85
367.98	2731.99
368.18	2789.33
368.39	2789.33
368.60	2512.86
368.81	2828.24
369.02	2779.09
369.23	2592.73
369.44	2371.55
369.65	2629.59
369.86	2772.95
370.07	2658.26
370.28	2578.39
370.49	2836.44
370.70	2664.41
370.91	2566.10
371.12	2478.04
371.33	2846.68
371.54	2641.88
371.75	2731.99
371.96	2357.21
372.17	2764.76
372.38	2766.81
372.59	2607.06
372.80	2553.82
373.01	2695.13
373.22	2768.85
373.43	2555.86
373.64	2478.04
373.85	2957.27
374.06	2930.64
374.26	2744.28
374.47	2635.74
374.68	2875.35
374.89	2822.10
375.10	2592.73
375.31	2680.79
375.52	2760.66
375.73	2801.62
375.94	2496.47
376.15	2768.85
376.36	2574.30
376.57	2656.22
376.78	2568.15
376.99	2697.17
377.20	2916.31
377.40	2764.76
377.61	2944.98
377.82	2465.75
378.03	2930.64
378.24	2854.87
378.45	2682.84
378.66	2695.13
378.87	2506.71
379.08	2525.15
379.29	2586.58
379.50	2742.23
379.71	2791.38
379.91	2904.02
380.12	2559.96
380.33	2641.88
380.54	2750.42
380.75	2721.75
380.96	2607.06
381.17	2768.85
381.38	2719.70
381.59	2695.13
381.80	2609.11
382.00	2883.54
382.21	2815.96
382.42	2938.84
382.63	2914.26
382.84	2691.03
383.05	2846.68
383.26	2854.87
383.47	2670.55
383.68	2629.59
383.88	2775.00
384.09	2756.57
384.30	2834.39
384.51	2703.32
384.72	2607.06
384.93	2580.44
385.14	2688.98
385.35	2799.57
385.55	2582.49
385.76	2904.02
385.97	2609.11
386.18	2455.51
386.39	2629.59
386.60	2615.26
386.81	2600.92
387.02	2527.19
387.22	2555.86
387.43	2781.14
387.64	2811.86
387.85	2828.24
388.06	2877.40
388.27	4032.45
388.48	7569.29
388.68	10897.24
388.89	13305.65
389.10	14477.09
389.31	13786.93
389.52	10930.01
389.73	9369.46
389.93	8693.63
390.14	7884.68
390.35	7284.62
390.56	6234.02
390.77	5218.22
390.98	4069.31
391.18	3448.78
391.39	3135.44
391.60	2731.99
391.81	2850.77
392.02	2619.35
392.23	3082.19
392.43	2834.39
392.64	2828.24
392.85	2723.80
393.06	3018.71
393.27	2760.66
393.47	2547.67
393.68	2705.37
393.89	2686.94
394.10	2951.12
394.31	2611.16
394.52	2529.24
394.72	2695.13
394.93	2969.55
395.14	2527.19
395.35	2707.41
395.56	2613.21
395.76	2701.27
395.97	2723.80
396.18	2695.13
396.39	2848.72
396.60	3176.40
396.80	2881.49
397.01	2783.19
397.22	2834.39
397.43	2826.20
397.64	2607.06
397.84	2795.48
398.05	3043.28
398.26	2715.61
398.47	2709.46
398.67	2824.15
398.88	2680.79
399.09	2887.64
399.30	2574.30
399.51	2670.55
399.71	2639.83
399.92	2797.53
400.13	2691.03
400.34	2670.55
400.54	2731.99
400.75	2951.12
400.96	2727.89
401.17	2897.88
401.37	2822.10
401.58	2723.80
401.79	2654.17
402.00	2742.23
402.21	3147.73
402.41	2967.51
402.62	2977.75
402.83	3055.57
403.04	3049.43
403.24	3291.09
403.45	2725.85
403.66	2889.68
403.87	2977.75
404.07	3086.29
404.28	2893.78
404.49	2901.97
404.70	2764.76
404.90	2795.48
405.11	2543.58
405.32	2736.09
405.52	2662.36
405.73	2605.02
405.94	2549.72
406.15	2676.70
406.35	2781.14
406.56	2885.59
406.77	2668.50
406.98	2738.13
407.18	2631.64
407.39	2957.27
407.60	2688.98
407.80	2703.32
408.01	2686.94
408.22	2818.00
408.43	2586.58
408.63	2748.37
408.84	2893.78
409.05	2830.29
409.25	2623.45
409.46	2580.44
409.67	2695.13
409.88	2662.36
410.08	2701.27
410.29	2578.39
410.50	2871.25
410.70	2766.81
410.91	2537.43
411.12	2666.46
411.32	2727.89
411.53	2562.01
411.74	2592.73
411.95	2768.85
412.15	2826.20
412.36	2793.43
412.57	2789.33
412.77	2822.10
412.98	2701.27
413.19	2662.36
413.39	2705.37
413.60	2691.03
413.81	2916.31
414.01	2600.92
414.22	2701.27
414.43	2709.46
414.63	2691.03
414.84	2885.59
415.05	2629.59
415.25	2478.04
415.46	2881.49
415.67	2684.89
415.87	2668.50
416.08	2635.74
416.29	2613.21
416.49	2865.11
416.70	2662.36
416.91	2648.02
417.11	2727.89
417.32	2826.20
417.53	2717.65
417.73	2650.07
417.94	2756.57
418.15	2734.04
418.35	2729.94
418.56	2621.40
418.77	3145.68
418.97	2701.27
419.18	2596.82
419.38	2365.40
419.59	2660.31
419.80	2963.41
420.00	2652.12
420.21	2676.70
420.42	2908.12
420.62	2832.34
420.83	2629.59
421.04	2605.02
421.24	2674.65
421.45	2891.73
421.65	2633.69
421.86	2629.59
422.07	2830.29
422.27	2838.48
422.48	2566.10
422.69	2525.15
422.89	2686.94
423.10	2637.78
423.30	2557.91
423.51	2652.12
423.72	2815.96
423.92	2848.72
424.13	2473.95
424.33	2639.83
424.54	2807.77
424.75	2707.41
424.95	2766.81
425.16	2600.92
425.36	2727.89
425.57	2850.77
425.78	2715.61
425.98	2740.18
426.19	2664.41
426.39	2512.86
426.60	2777.05
426.81	2740.18
427.01	2818.00
427.22	2613.21
427.42	2426.84
427.63	2584.54
427.83	2842.58
428.04	2914.26
428.25	2750.42
428.45	2787.29
428.66	2885.59
428.86	2768.85
429.07	2664.41
429.28	2650.07
429.48	2672.60
429.69	2635.74
429.89	2707.41
430.10	2590.68
430.30	2838.48
430.51	2889.68
430.71	2605.02
430.92	2691.03
431.13	2699.22
431.33	2801.62
431.54	2705.37
431.74	2809.81
431.95	3018.71
432.15	2602.97
432.36	2715.61
432.56	2631.64
432.77	3020.75
432.98	2922.45
433.18	2672.60
433.39	2557.91
433.59	2654.17
433.80	3059.67
434.00	2944.98
434.21	2637.78
434.41	2729.94
434.62	3088.34
434.82	2637.78
435.03	2670.55
435.23	2785.24
435.44	2510.81
435.64	2652.12
435.85	2738.13
436.06	2822.10
436.26	2934.74
436.47	2672.60
436.67	2629.59
436.88	2684.89
437.08	2799.57
437.29	2758.61
437.49	2791.38
437.70	2910.16
437.90	2725.85
438.11	2787.29
438.31	2725.85
438.52	2840.53
438.72	2949.08
438.93	2912.21
439.13	2787.29
439.34	2811.86
439.54	2633.69
439.75	2768.85
439.95	2752.47
440.16	2514.91
440.36	2758.61
440.57	2676.70
440.77	2664.41
440.98	2766.81
441.18	2820.05
441.39	2543.58
441.59	2496.47
441.80	3039.19
442.00	2748.37
442.21	2764.76
442.41	2516.95
442.62	2838.48
442.82	2592.73
443.02	2627.54
443.23	2688.98
443.43	2641.88
443.64	2944.98
443.84	2613.21
444.05	2772.95
444.25	2783.19
444.46	2674.65
444.66	2652.12
444.87	2830.29
445.07	2531.29
445.28	2678.74
445.48	2914.26
445.69	2734.04
445.89	3067.86
446.09	2701.27
446.30	2940.88
446.50	3043.28
446.71	4612.03
446.91	5662.63
447.12	6422.43
447.32	6795.16
447.53	6502.30
447.73	5435.31
447.93	4755.38
448.14	4564.92
448.34	4431.80
448.55	3760.07
448.75	3919.81
448.96	3561.42
449.16	3418.06
449.36	3235.79
449.57	2922.45
449.77	2703.32
449.98	2672.60
450.18	2809.81
450.39	2701.27
450.59	2869.20
450.79	2721.75
451.00	2678.74
451.20	2793.43
451.41	2631.64
451.61	2791.38
451.81	2740.18
452.02	2623.45
452.22	2691.03
452.43	2617.30
452.63	2607.06
