SpectraSuite Data File
++++++++++++++++++++++++++++++++++++
Date: Thu May 05 16:21:07 CEST 2016
User: root
Dark Spectrum Present: No
Reference Spectrum Present: No
Number of Sampled Component Spectra: 1
Spectrometers: USB4C02835
Integration Time (usec): 100000 (USB4C02835)
Spectra Averaged: 1 (USB4C02835)
Boxcar Smoothing: 0 (USB4C02835)
Correct for Electrical Dark: No (USB4C02835)
Strobe/Lamp Enabled: No (USB4C02835)
Correct for Detector Non-linearity: No (USB4C02835)
Correct for Stray Light: No (USB4C02835)
Number of Pixels in Processed Spectrum: 3648
>>>>>Begin Processed Spectral Data<<<<<
177.47	1959.91
177.69	1959.91
177.91	1959.91
178.13	2068.45
178.36	1964.00
178.58	2621.40
178.80	2672.60
179.02	2482.14
179.24	2562.01
179.46	2543.58
179.68	2576.34
179.90	2699.22
180.13	2643.93
180.35	2447.32
180.57	2406.36
180.79	2852.82
181.01	2758.61
181.23	2486.23
181.45	2691.03
181.67	2811.86
181.90	2828.24
182.12	2492.38
182.34	2359.26
182.56	2809.81
182.78	2686.94
183.00	2418.65
183.22	2543.58
183.44	2412.51
183.66	3174.35
183.89	2652.12
184.11	2555.86
184.33	2762.71
184.55	2867.16
184.77	2467.80
184.99	2543.58
185.21	2578.39
185.43	3100.62
185.65	2523.10
185.87	2482.14
186.10	3076.05
186.32	3018.71
186.54	2582.49
186.76	2559.96
186.98	2897.88
187.20	2699.22
187.42	2521.05
187.64	2568.15
187.86	2744.28
188.08	2842.58
188.30	2420.70
188.52	2529.24
188.75	2914.26
188.97	2901.97
189.19	2512.86
189.41	2516.95
189.63	2754.52
189.85	2736.09
190.07	2418.65
190.29	2383.84
190.51	2744.28
190.73	2543.58
190.95	2627.54
191.17	2588.63
191.39	2512.86
191.61	2686.94
191.84	2572.25
192.06	2607.06
192.28	2469.85
192.50	3188.69
192.72	2594.78
192.94	2504.67
193.16	2914.26
193.38	2729.94
193.60	2428.89
193.82	2598.87
194.04	2836.44
194.26	2731.99
194.48	2496.47
194.70	2506.71
194.92	2666.46
195.14	2777.05
195.36	2422.75
195.58	2570.20
195.80	2703.32
196.02	2627.54
196.24	2455.51
196.46	2572.25
196.69	2643.93
196.91	3094.48
197.13	2531.29
197.35	2572.25
197.57	2967.51
197.79	2856.92
198.01	2586.58
198.23	2588.63
198.45	2766.81
198.67	2590.68
198.89	2418.65
199.11	2553.82
199.33	2600.92
199.55	2418.65
199.77	2490.33
199.99	2701.27
200.21	2668.50
200.43	2684.89
200.65	2457.56
200.87	2392.03
201.09	2738.13
201.31	2731.99
201.53	2562.01
201.75	2547.67
201.97	2764.76
202.19	2744.28
202.41	2639.83
202.63	2658.26
202.85	2813.91
203.07	2754.52
203.29	2568.15
203.51	2439.13
203.73	2615.26
203.95	3176.40
204.17	2527.19
204.39	2654.17
204.61	2670.55
204.83	2645.98
205.05	2654.17
205.27	2521.05
205.49	3063.76
205.71	2693.08
205.93	2447.32
206.15	2469.85
206.37	2758.61
206.59	2617.30
206.81	2447.32
207.03	2475.99
207.25	2576.34
207.47	2844.63
207.69	2559.96
207.91	2674.65
208.13	2953.17
208.34	2633.69
208.56	2437.08
208.78	2539.48
209.00	2568.15
209.22	2676.70
209.44	2559.96
209.66	2529.24
209.88	2680.79
210.10	2635.74
210.32	2441.18
210.54	2617.30
210.76	2734.04
210.98	2770.90
211.20	2338.78
211.42	2521.05
211.64	2908.12
211.86	2791.38
212.08	2523.10
212.30	2418.65
212.52	2656.22
212.74	2744.28
212.96	2586.58
213.17	2514.91
213.39	2881.49
213.61	2990.03
213.83	2535.39
214.05	2406.36
214.27	2877.40
214.49	2523.10
214.71	2435.03
214.93	2627.54
215.15	2713.56
215.37	2893.78
215.59	2449.37
215.81	2592.73
216.03	2906.07
216.24	2621.40
216.46	2494.43
216.68	2545.63
216.90	2848.72
217.12	2856.92
217.34	2482.14
217.56	2648.02
217.78	3002.32
218.00	2928.60
218.22	2539.48
218.44	2633.69
218.66	2834.39
218.87	2973.65
219.09	2519.00
219.31	2490.33
219.53	2801.62
219.75	2643.93
219.97	2516.95
220.19	2576.34
220.41	2654.17
220.63	3010.51
220.85	2488.28
221.06	2613.21
221.28	2944.98
221.50	2813.91
221.72	2459.61
221.94	2367.45
222.16	2695.13
222.38	2781.14
222.60	2570.20
222.82	2551.77
223.03	2809.81
223.25	2645.98
223.47	2451.42
223.69	2695.13
223.91	2904.02
224.13	2811.86
224.35	2439.13
224.57	2797.53
224.78	2869.20
225.00	2572.25
225.22	2572.25
225.44	2482.14
225.66	2801.62
225.88	2645.98
226.10	2611.16
226.32	2502.62
226.53	2924.50
226.75	2697.17
226.97	2523.10
227.19	2496.47
227.41	2643.93
227.63	2656.22
227.85	2328.54
228.06	2521.05
228.28	2637.78
228.50	2875.35
228.72	2404.32
228.94	2533.34
229.16	2484.19
229.37	2555.86
229.59	2381.79
229.81	2709.46
230.03	2719.70
230.25	2502.62
230.47	2361.31
230.69	2412.51
230.90	2842.58
231.12	2590.68
231.34	2557.91
231.56	2590.68
231.78	2605.02
232.00	2729.94
232.21	2594.78
232.43	2523.10
232.65	2432.99
232.87	2711.51
233.09	2349.02
233.30	2535.39
233.52	2914.26
233.74	2742.23
233.96	2441.18
234.18	2600.92
234.40	2760.66
234.61	2994.13
234.83	2478.04
235.05	2406.36
235.27	3160.02
235.49	2875.35
235.70	2406.36
235.92	2611.16
236.14	2824.15
236.36	3117.01
236.58	2383.84
236.79	2613.21
237.01	2695.13
237.23	2660.31
237.45	2736.09
237.67	2523.10
237.88	2674.65
238.10	3055.57
238.32	2387.93
238.54	2451.42
238.76	2736.09
238.97	2607.06
239.19	2453.47
239.41	2592.73
239.63	2899.92
239.85	2652.12
240.06	2535.39
240.28	2539.48
240.50	2822.10
240.72	2764.76
240.93	2484.19
241.15	2537.43
241.37	2699.22
241.59	2879.44
241.81	2482.14
242.02	2525.15
242.24	2686.94
242.46	2842.58
242.68	2375.64
242.89	2525.15
243.11	2830.29
243.33	2727.89
243.55	2521.05
243.76	2559.96
243.98	2664.41
244.20	2736.09
244.42	2484.19
244.64	2557.91
244.85	2439.13
245.07	2580.44
245.29	2449.37
245.51	2562.01
245.72	2783.19
245.94	2852.82
246.16	2537.43
246.38	2549.72
246.59	2707.41
246.81	2650.07
247.03	2475.99
247.24	2314.20
247.46	2701.27
247.68	2738.13
247.90	2455.51
248.11	2570.20
248.33	2764.76
248.55	2711.51
248.77	2602.97
248.98	2631.64
249.20	2891.73
249.42	2856.92
249.64	2432.99
249.85	2523.10
250.07	2617.30
250.29	2744.28
250.50	2539.48
250.72	2404.32
250.94	2719.70
251.16	2918.36
251.37	2486.23
251.59	2566.10
251.81	2803.67
252.02	2832.34
252.24	2432.99
252.46	2535.39
252.68	2617.30
252.89	2627.54
253.11	2385.88
253.33	2711.51
253.54	2961.36
253.76	2586.58
253.98	2523.10
254.20	2523.10
254.41	2596.82
254.63	2797.53
254.85	2439.13
255.06	2590.68
255.28	2662.36
255.50	2684.89
255.71	2498.52
255.93	2410.46
256.15	2693.08
256.36	2762.71
256.58	2408.41
256.80	2457.56
257.02	2672.60
257.23	2686.94
257.45	2596.82
257.67	2598.87
257.88	2666.46
258.10	2717.65
258.32	2469.85
258.53	2502.62
258.75	2924.50
258.97	2633.69
259.18	2473.95
259.40	2494.43
259.62	2949.08
259.83	2899.92
260.05	2543.58
260.27	3131.34
260.48	2887.64
260.70	2541.53
260.92	2406.36
261.13	2537.43
261.35	2842.58
261.57	2781.14
261.78	2414.56
262.00	2492.38
262.22	2803.67
262.43	2557.91
262.65	2516.95
262.86	2580.44
263.08	3102.67
263.30	2656.22
263.51	2371.55
263.73	2445.27
263.95	2940.88
264.16	2580.44
264.38	2428.89
264.60	2410.46
264.81	2711.51
265.03	2822.10
265.25	2842.58
265.46	2512.86
265.68	2861.01
265.89	2813.91
266.11	2527.19
266.33	2498.52
266.54	2887.64
266.76	2820.05
266.98	2602.97
267.19	2605.02
267.41	2910.16
267.62	2645.98
267.84	2379.74
268.06	2576.34
268.27	2731.99
268.49	2848.72
268.70	2555.86
268.92	2543.58
269.14	2588.63
269.35	2564.06
269.57	2588.63
269.79	2629.59
270.00	2588.63
270.22	2904.02
270.43	2379.74
270.65	2381.79
270.87	2711.51
271.08	2844.63
271.30	2629.59
271.51	2535.39
271.73	2811.86
271.95	2932.69
272.16	2555.86
272.38	2666.46
272.59	2592.73
272.81	2809.81
273.02	2490.33
273.24	2619.35
273.46	2848.72
273.67	2535.39
273.89	2396.12
274.10	2490.33
274.32	2887.64
274.54	2699.22
274.75	2619.35
274.97	2547.67
275.18	2809.81
275.40	2764.76
275.61	2535.39
275.83	2684.89
276.05	2467.80
276.26	2699.22
276.48	2611.16
276.69	2598.87
276.91	2674.65
277.12	2990.03
277.34	2598.87
277.55	2719.70
277.77	2709.46
277.99	2752.47
278.20	2598.87
278.42	2519.00
278.63	2615.26
278.85	2553.82
279.06	2531.29
279.28	2666.46
279.49	2865.11
279.71	2973.65
279.93	2738.13
280.14	2699.22
280.36	2559.96
280.57	2809.81
280.79	2645.98
281.00	2545.63
281.22	2711.51
281.43	2869.20
281.65	2336.73
281.86	2510.81
282.08	2736.09
282.29	3076.05
282.51	2504.67
282.73	2547.67
282.94	2482.14
283.16	2875.35
283.37	2701.27
283.59	2621.40
283.80	2736.09
284.02	2707.41
284.23	2715.61
284.45	2639.83
284.66	2611.16
284.88	2672.60
285.09	2555.86
285.31	2711.51
285.52	2815.96
285.74	2545.63
285.95	2867.16
286.17	2691.03
286.38	2842.58
286.60	2760.66
286.81	2617.30
287.03	2523.10
287.24	2707.41
287.46	2865.11
287.67	2703.32
287.89	2822.10
288.10	2705.37
288.32	2721.75
288.53	2801.62
288.75	2639.83
288.96	2932.69
289.18	2588.63
289.39	2523.10
289.61	2648.02
289.82	3086.29
290.04	3018.71
290.25	2457.56
290.47	2658.26
290.68	2725.85
290.90	2809.81
291.11	2414.56
291.33	2717.65
291.54	2557.91
291.76	2566.10
291.97	2750.42
292.18	2711.51
292.40	2680.79
292.61	2596.82
292.83	2897.88
293.04	2713.56
293.26	2740.18
293.47	2670.55
293.69	2539.48
293.90	2484.19
294.12	2897.88
294.33	2709.46
294.55	2633.69
294.76	2781.14
294.97	2908.12
295.19	3014.61
295.40	2541.53
295.62	2680.79
295.83	2879.44
296.05	2625.50
296.26	2711.51
296.48	2547.67
296.69	2727.89
296.90	2668.50
297.12	2660.31
297.33	2744.28
297.55	2711.51
297.76	2777.05
297.98	2695.13
298.19	2705.37
298.41	2656.22
298.62	2564.06
298.83	2768.85
299.05	2688.98
299.26	2600.92
299.48	2619.35
299.69	2703.32
299.90	2611.16
300.12	2572.25
300.33	2803.67
300.55	2578.39
300.76	2627.54
300.98	2510.81
301.19	2842.58
301.40	2645.98
301.62	2600.92
301.83	2729.94
302.05	2668.50
302.26	2682.84
302.47	2697.17
302.69	2539.48
302.90	2797.53
303.12	2480.09
303.33	2738.13
303.54	2942.93
303.76	2662.36
303.97	2643.93
304.19	2797.53
304.40	2609.11
304.61	2824.15
304.83	2770.90
305.04	2791.38
305.26	2719.70
305.47	2707.41
305.68	2586.58
305.90	2467.80
306.11	2863.06
306.33	2691.03
306.54	2482.14
306.75	2463.71
306.97	2523.10
307.18	2574.30
307.39	2570.20
307.61	2678.74
307.82	2691.03
308.04	2727.89
308.25	2482.14
308.46	2746.33
308.68	2703.32
308.89	2789.33
309.10	2770.90
309.32	2693.08
309.53	2766.81
309.74	2832.34
309.96	2559.96
310.17	2803.67
310.39	2635.74
310.60	2818.00
310.81	2586.58
311.03	2590.68
311.24	2840.53
311.45	2725.85
311.67	2867.16
311.88	2664.41
312.09	2637.78
312.31	2703.32
312.52	2623.45
312.73	2533.34
312.95	2510.81
313.16	2625.50
313.37	2846.68
313.59	2815.96
313.80	2850.77
314.01	2924.50
314.23	2551.77
314.44	2459.61
314.65	2613.21
314.87	2619.35
315.08	2572.25
315.29	2605.02
315.51	2580.44
315.72	2510.81
315.93	2754.52
316.15	2652.12
316.36	2643.93
316.57	2736.09
316.79	2652.12
317.00	2617.30
317.21	2772.95
317.43	2619.35
317.64	2660.31
317.85	2551.77
318.07	2568.15
318.28	2691.03
318.49	2764.76
318.70	2842.58
318.92	2772.95
319.13	2865.11
319.34	2777.05
319.56	2662.36
319.77	2809.81
319.98	2854.87
320.20	2758.61
320.41	2731.99
320.62	2785.24
320.83	2637.78
321.05	2770.90
321.26	2686.94
321.47	2719.70
321.69	2901.97
321.90	2498.52
322.11	2596.82
322.32	2633.69
322.54	2938.84
322.75	2551.77
322.96	3168.21
323.18	2508.76
323.39	2539.48
323.60	2484.19
323.81	2752.47
324.03	2613.21
324.24	2701.27
324.45	2705.37
324.66	2672.60
324.88	2875.35
325.09	2891.73
325.30	2654.17
325.52	2594.78
325.73	2729.94
325.94	2531.29
326.15	2459.61
326.37	2541.53
326.58	2850.77
326.79	3028.95
327.00	2562.01
327.22	2594.78
327.43	2684.89
327.64	2625.50
327.85	2688.98
328.07	2607.06
328.28	2981.84
328.49	2611.16
328.70	2643.93
328.92	2494.43
329.13	2734.04
329.34	2846.68
329.55	2858.96
329.76	2746.33
329.98	2779.09
330.19	2957.27
330.40	2742.23
330.61	2652.12
330.83	2918.36
331.04	2625.50
331.25	2586.58
331.46	2586.58
331.68	2592.73
331.89	2899.92
332.10	2654.17
332.31	2455.51
332.52	2699.22
332.74	2883.54
332.95	2387.93
333.16	2572.25
333.37	2955.22
333.58	2559.96
333.80	2619.35
334.01	2357.21
334.22	2662.36
334.43	2654.17
334.64	2551.77
334.86	2564.06
335.07	2588.63
335.28	2961.36
335.49	2455.51
335.70	2670.55
335.92	2912.21
336.13	3030.99
336.34	2701.27
336.55	2643.93
336.76	2799.57
336.98	2475.99
337.19	2641.88
337.40	2805.72
337.61	3141.58
337.82	2590.68
338.04	2680.79
338.25	2490.33
338.46	2736.09
338.67	2637.78
338.88	2523.10
339.09	2461.66
339.31	2645.98
339.52	2555.86
339.73	2521.05
339.94	2619.35
340.15	2807.77
340.36	2596.82
340.58	2600.92
340.79	2467.80
341.00	2820.05
341.21	2619.35
341.42	2777.05
341.63	2564.06
341.85	2824.15
342.06	2779.09
342.27	2539.48
342.48	2822.10
342.69	2557.91
342.90	2754.52
343.12	2811.86
343.33	2557.91
343.54	2875.35
343.75	2965.46
343.96	2719.70
344.17	2557.91
344.38	2695.13
344.60	2562.01
344.81	2480.09
345.02	2650.07
345.23	2934.74
345.44	3071.95
345.65	2680.79
345.86	2668.50
346.07	2750.42
346.29	2631.64
346.50	2736.09
346.71	2695.13
346.92	2914.26
347.13	3102.67
347.34	2686.94
347.55	2543.58
347.76	2793.43
347.98	2500.57
348.19	2613.21
348.40	2756.57
348.61	2674.65
348.82	2936.79
349.03	2701.27
349.24	2494.43
349.45	2990.03
349.66	2422.75
349.88	2527.19
350.09	2529.24
350.30	2971.60
350.51	2996.18
350.72	2775.00
350.93	2529.24
351.14	2590.68
351.35	2762.71
351.56	2643.93
351.77	2625.50
351.99	2815.96
352.20	2920.40
352.41	2777.05
352.62	2471.90
352.83	2719.70
353.04	2709.46
353.25	2545.63
353.46	2588.63
353.67	2822.10
353.88	2482.14
354.09	2547.67
354.30	2607.06
354.52	2818.00
354.73	2688.98
354.94	2564.06
355.15	2662.36
355.36	3004.37
355.57	2645.98
355.78	2609.11
355.99	2586.58
356.20	2666.46
356.41	2895.83
356.62	2691.03
356.83	2621.40
357.04	2893.78
357.25	2455.51
357.46	2596.82
357.68	2496.47
357.89	2594.78
358.10	2719.70
358.31	2625.50
358.52	2574.30
358.73	2619.35
358.94	2545.63
359.15	2596.82
359.36	2670.55
359.57	2736.09
359.78	2715.61
359.99	2793.43
360.20	2516.95
360.41	2701.27
360.62	2756.57
360.83	2705.37
361.04	2643.93
361.25	2777.05
361.46	2973.65
361.67	2738.13
361.88	2609.11
362.09	2818.00
362.30	2807.77
362.51	2521.05
362.72	2662.36
362.93	2838.48
363.14	2887.64
363.35	2666.46
363.56	2504.67
363.78	2916.31
363.99	2779.09
364.20	2502.62
364.41	2703.32
364.62	3008.47
364.83	2725.85
365.04	2572.25
365.25	2637.78
365.46	3004.37
365.67	2566.10
365.88	2758.61
366.09	2510.81
366.30	2617.30
366.51	2672.60
366.72	2582.49
366.93	2572.25
367.14	2750.42
367.35	2949.08
367.56	2611.16
367.77	2781.14
367.98	2660.31
368.18	2717.65
368.39	2619.35
368.60	2455.51
368.81	2777.05
369.02	2652.12
369.23	2590.68
369.44	2537.43
369.65	2641.88
369.86	2820.05
370.07	2781.14
370.28	2584.54
370.49	2834.39
370.70	2848.72
370.91	2449.37
371.12	2482.14
371.33	2826.20
371.54	2605.02
371.75	2715.61
371.96	2387.93
372.17	2756.57
372.38	2625.50
372.59	2648.02
372.80	2637.78
373.01	2721.75
373.22	2734.04
373.43	2590.68
373.64	2566.10
373.85	2979.79
374.06	2932.69
374.26	2775.00
374.47	2725.85
374.68	2932.69
374.89	2734.04
375.10	2596.82
375.31	2766.81
375.52	2711.51
375.73	2734.04
375.94	2475.99
376.15	2799.57
376.36	2660.31
376.57	2658.26
376.78	2596.82
376.99	2580.44
377.20	2916.31
377.40	2764.76
377.61	2875.35
377.82	2553.82
378.03	2920.40
378.24	2836.44
378.45	2691.03
378.66	2576.34
378.87	2504.67
379.08	2539.48
379.29	2562.01
379.50	2854.87
379.71	2658.26
379.91	2822.10
380.12	2666.46
380.33	2760.66
380.54	2695.13
380.75	2664.41
380.96	2617.30
381.17	2668.50
381.38	2703.32
381.59	2592.73
381.80	2584.54
382.00	2850.77
382.21	2809.81
382.42	2910.16
382.63	2885.59
382.84	2674.65
383.05	2873.30
383.26	2908.12
383.47	2701.27
383.68	2615.26
383.88	2805.72
384.09	2711.51
384.30	2852.82
384.51	2717.65
384.72	2695.13
384.93	2605.02
385.14	2680.79
385.35	2867.16
385.55	2539.48
385.76	2953.17
385.97	2637.78
386.18	2469.85
386.39	2676.70
386.60	2672.60
386.81	2574.30
387.02	2525.15
387.22	2486.23
387.43	2830.29
387.64	2789.33
387.85	2818.00
388.06	2828.24
388.27	4110.27
388.48	7481.23
388.68	10866.52
388.89	13418.29
389.10	14370.60
389.31	13565.74
389.52	10833.75
389.73	9359.22
389.93	8494.97
390.14	7776.14
390.35	7024.53
390.56	6303.65
390.77	5173.17
390.98	4079.55
391.18	3454.92
391.39	3147.73
391.60	2752.47
391.81	2904.02
392.02	2674.65
392.23	3121.10
392.43	2723.80
392.64	2789.33
392.85	2701.27
393.06	2914.26
393.27	2674.65
393.47	2578.39
393.68	2664.41
393.89	2598.87
394.10	2881.49
394.31	2574.30
394.52	2553.82
394.72	2600.92
394.93	2897.88
395.14	2523.10
395.35	2725.85
395.56	2617.30
395.76	2734.04
395.97	2588.63
396.18	2750.42
396.39	2764.76
396.60	3153.87
396.80	2920.40
397.01	2826.20
397.22	2842.58
397.43	2959.31
397.64	2570.20
397.84	2662.36
398.05	2973.65
398.26	2650.07
398.47	2746.33
398.67	2822.10
398.88	2809.81
399.09	2731.99
399.30	2623.45
399.51	2635.74
399.71	2648.02
399.92	2621.40
400.13	2684.89
400.34	2580.44
400.54	2695.13
400.75	3071.95
400.96	2639.83
401.17	2891.73
401.37	2760.66
401.58	2678.74
401.79	2611.16
402.00	2766.81
402.21	3194.83
402.41	2971.60
402.62	2867.16
402.83	3110.86
403.04	3135.44
403.24	3387.34
403.45	2740.18
403.66	2961.36
403.87	2832.34
404.07	3004.37
404.28	2938.84
404.49	2992.08
404.70	2820.05
404.90	2818.00
405.11	2621.40
405.32	2772.95
405.52	2643.93
405.73	2652.12
405.94	2576.34
406.15	2709.46
406.35	2861.01
406.56	2871.25
406.77	2691.03
406.98	2727.89
407.18	2613.21
407.39	2897.88
407.60	2691.03
407.80	2764.76
408.01	2686.94
408.22	2838.48
408.43	2586.58
408.63	2752.47
408.84	2891.73
409.05	2807.77
409.25	2607.06
409.46	2545.63
409.67	2600.92
409.88	2598.87
410.08	2678.74
410.29	2576.34
410.50	2846.68
410.70	2760.66
410.91	2506.71
411.12	2703.32
411.32	2758.61
411.53	2578.39
411.74	2701.27
411.95	2742.23
412.15	2758.61
412.36	2760.66
412.57	2678.74
412.77	2852.82
412.98	2637.78
413.19	2762.71
413.39	2742.23
413.60	2684.89
413.81	2926.55
414.01	2594.78
414.22	2643.93
414.43	2820.05
414.63	2719.70
414.84	2891.73
415.05	2664.41
415.25	2502.62
415.46	2752.47
415.67	2551.77
415.87	2705.37
416.08	2668.50
416.29	2654.17
416.49	2781.14
416.70	2645.98
416.91	2631.64
417.11	2736.09
417.32	2861.01
417.53	2717.65
417.73	2725.85
417.94	2627.54
418.15	2772.95
418.35	2678.74
418.56	2701.27
418.77	3071.95
418.97	2760.66
419.18	2691.03
419.38	2338.78
419.59	2695.13
419.80	2926.55
420.00	2574.30
420.21	2676.70
420.42	2867.16
420.62	2695.13
420.83	2572.25
421.04	2580.44
421.24	2719.70
421.45	2916.31
421.65	2656.22
421.86	2635.74
422.07	2820.05
422.27	2834.39
422.48	2590.68
422.69	2559.96
422.89	2752.47
423.10	2627.54
423.30	2590.68
423.51	2699.22
423.72	2789.33
423.92	2783.19
424.13	2480.09
424.33	2627.54
424.54	2951.12
424.75	2686.94
424.95	2830.29
425.16	2662.36
425.36	2719.70
425.57	2893.78
425.78	2719.70
425.98	2709.46
426.19	2664.41
426.39	2586.58
426.60	2783.19
426.81	2787.29
427.01	2777.05
427.22	2686.94
427.42	2469.85
427.63	2525.15
427.83	2826.20
428.04	3022.80
428.25	2799.57
428.45	2746.33
428.66	2834.39
428.86	2674.65
429.07	2627.54
429.28	2660.31
429.48	2715.61
429.69	2670.55
429.89	2701.27
430.10	2582.49
430.30	2863.06
430.51	2889.68
430.71	2600.92
430.92	2645.98
431.13	2680.79
431.33	2820.05
431.54	2738.13
431.74	2877.40
431.95	3047.38
432.15	2570.20
432.36	2629.59
432.56	2719.70
432.77	2940.88
432.98	2932.69
433.18	2752.47
433.39	2650.07
433.59	2693.08
433.80	3084.24
434.00	2914.26
434.21	2629.59
434.41	2623.45
434.62	3059.67
434.82	2547.67
435.03	2541.53
435.23	2766.81
435.44	2512.86
435.64	2662.36
435.85	2676.70
436.06	2856.92
436.26	2809.81
436.47	2586.58
436.67	2559.96
436.88	2666.46
437.08	2803.67
437.29	2750.42
437.49	2813.91
437.70	2861.01
437.90	2705.37
438.11	2795.48
438.31	2754.52
438.52	2932.69
438.72	2908.12
438.93	3018.71
439.13	2744.28
439.34	2932.69
439.54	2693.08
439.75	2721.75
439.95	2738.13
440.16	2652.12
440.36	2777.05
440.57	2639.83
440.77	2707.41
440.98	2695.13
441.18	2746.33
441.39	2555.86
441.59	2482.14
441.80	3020.75
442.00	2731.99
442.21	2746.33
442.41	2482.14
442.62	2916.31
442.82	2676.70
443.02	2605.02
443.23	2654.17
443.43	2602.97
443.64	2867.16
443.84	2543.58
444.05	2789.33
444.25	2666.46
444.46	2678.74
444.66	2631.64
444.87	2854.87
445.07	2586.58
445.28	2758.61
445.48	2850.77
445.69	2684.89
445.89	3129.30
446.09	2713.56
446.30	2936.79
446.50	3094.48
446.71	4677.56
446.91	5595.05
447.12	6526.88
447.32	6750.10
447.53	6520.73
447.73	5410.73
447.93	4771.77
448.14	4476.86
448.34	4454.33
448.55	3882.95
448.75	3768.26
448.96	3684.30
449.16	3432.40
449.36	3301.33
449.57	2873.30
449.77	2789.33
449.98	2678.74
450.18	2783.19
450.39	2672.60
450.59	2844.63
450.79	2746.33
451.00	2605.02
451.20	2797.53
451.41	2643.93
451.61	2793.43
451.81	2756.57
452.02	2611.16
452.22	2697.17
452.43	2670.55
452.63	2615.26
