SpectraSuite Data File
++++++++++++++++++++++++++++++++++++
Date: Thu May 05 16:20:45 CEST 2016
User: root
Dark Spectrum Present: No
Reference Spectrum Present: No
Number of Sampled Component Spectra: 1
Spectrometers: USB4C02835
Integration Time (usec): 100000 (USB4C02835)
Spectra Averaged: 1 (USB4C02835)
Boxcar Smoothing: 0 (USB4C02835)
Correct for Electrical Dark: No (USB4C02835)
Strobe/Lamp Enabled: No (USB4C02835)
Correct for Detector Non-linearity: No (USB4C02835)
Correct for Stray Light: No (USB4C02835)
Number of Pixels in Processed Spectrum: 3648
>>>>>Begin Processed Spectral Data<<<<<
177.47	2064.35
177.69	2064.35
177.91	2064.35
178.13	2068.45
178.36	2031.58
178.58	2592.73
178.80	2744.28
179.02	2498.52
179.24	2607.06
179.46	2451.42
179.68	2449.37
179.90	2719.70
180.13	2799.57
180.35	2367.45
180.57	2441.18
180.79	2824.15
181.01	2648.02
181.23	2523.10
181.45	2609.11
181.67	2883.54
181.90	2920.40
182.12	2498.52
182.34	2381.79
182.56	2826.20
182.78	2740.18
183.00	2435.03
183.22	2461.66
183.44	2502.62
183.66	3164.11
183.89	2619.35
184.11	2519.00
184.33	2815.96
184.55	2961.36
184.77	2539.48
184.99	2457.56
185.21	2664.41
185.43	3117.01
185.65	2519.00
185.87	2496.47
186.10	3014.61
186.32	3135.44
186.54	2590.68
186.76	2582.49
186.98	2858.96
187.20	2668.50
187.42	2465.75
187.64	2502.62
187.86	2854.87
188.08	2957.27
188.30	2439.13
188.52	2488.28
188.75	2916.31
188.97	2877.40
189.19	2437.08
189.41	2478.04
189.63	2813.91
189.85	2705.37
190.07	2449.37
190.29	2408.41
190.51	2676.70
190.73	2478.04
190.95	2693.08
191.17	2531.29
191.39	2422.75
191.61	2713.56
191.84	2439.13
192.06	2615.26
192.28	2490.33
192.50	3170.26
192.72	2631.64
192.94	2539.48
193.16	2926.55
193.38	2738.13
193.60	2443.23
193.82	2580.44
194.04	2897.88
194.26	2742.23
194.48	2478.04
194.70	2545.63
194.92	2650.07
195.14	2809.81
195.36	2459.61
195.58	2607.06
195.80	2686.94
196.02	2680.79
196.24	2480.09
196.46	2535.39
196.69	2605.02
196.91	3117.01
197.13	2473.95
197.35	2523.10
197.57	2918.36
197.79	2873.30
198.01	2498.52
198.23	2533.34
198.45	2705.37
198.67	2598.87
198.89	2404.32
199.11	2590.68
199.33	2633.69
199.55	2465.75
199.77	2480.09
199.99	2721.75
200.21	2660.31
200.43	2682.84
200.65	2328.54
200.87	2381.79
201.09	2725.85
201.31	2713.56
201.53	2521.05
201.75	2584.54
201.97	2793.43
202.19	2670.55
202.41	2588.63
202.63	2729.94
202.85	2756.57
203.07	2750.42
203.29	2576.34
203.51	2424.80
203.73	2602.97
203.95	3100.62
204.17	2467.80
204.39	2621.40
204.61	2725.85
204.83	2527.19
205.05	2588.63
205.27	2519.00
205.49	3039.19
205.71	2762.71
205.93	2426.84
206.15	2408.41
206.37	2795.48
206.59	2701.27
206.81	2410.46
207.03	2420.70
207.25	2578.39
207.47	2754.52
207.69	2521.05
207.91	2731.99
208.13	2922.45
208.34	2609.11
208.56	2471.90
208.78	2480.09
209.00	2707.41
209.22	2678.74
209.44	2498.52
209.66	2486.23
209.88	2693.08
210.10	2613.21
210.32	2492.38
210.54	2600.92
210.76	2670.55
210.98	2891.73
211.20	2365.40
211.42	2662.36
211.64	2936.79
211.86	2850.77
212.08	2541.53
212.30	2555.86
212.52	2645.98
212.74	2807.77
212.96	2555.86
213.17	2543.58
213.39	2811.86
213.61	2953.17
213.83	2523.10
214.05	2422.75
214.27	2906.07
214.49	2617.30
214.71	2457.56
214.93	2619.35
215.15	2703.32
215.37	2879.44
215.59	2449.37
215.81	2600.92
216.03	2904.02
216.24	2686.94
216.46	2539.48
216.68	2617.30
216.90	2895.83
217.12	2901.97
217.34	2525.15
217.56	2594.78
217.78	2998.23
218.00	2787.29
218.22	2557.91
218.44	2635.74
218.66	2750.42
218.87	3037.14
219.09	2529.24
219.31	2549.72
219.53	2709.46
219.75	2678.74
219.97	2514.91
220.19	2557.91
220.41	2639.83
220.63	3000.27
220.85	2488.28
221.06	2449.37
221.28	2947.03
221.50	2838.48
221.72	2557.91
221.94	2392.03
222.16	2742.23
222.38	2834.39
222.60	2469.85
222.82	2543.58
223.03	2920.40
223.25	2627.54
223.47	2559.96
223.69	2631.64
223.91	2797.53
224.13	2748.37
224.35	2465.75
224.57	2664.41
224.78	2863.06
225.00	2484.19
225.22	2586.58
225.44	2467.80
225.66	2867.16
225.88	2643.93
226.10	2650.07
226.32	2553.82
226.53	2971.60
226.75	2701.27
226.97	2545.63
227.19	2566.10
227.41	2645.98
227.63	2684.89
227.85	2324.44
228.06	2594.78
228.28	2789.33
228.50	2906.07
228.72	2402.27
228.94	2543.58
229.16	2508.76
229.37	2531.29
229.59	2459.61
229.81	2770.90
230.03	2703.32
230.25	2555.86
230.47	2402.27
230.69	2469.85
230.90	2883.54
231.12	2713.56
231.34	2555.86
231.56	2658.26
231.78	2564.06
232.00	2707.41
232.21	2551.77
232.43	2588.63
232.65	2400.22
232.87	2731.99
233.09	2447.32
233.30	2449.37
233.52	2801.62
233.74	2664.41
233.96	2492.38
234.18	2641.88
234.40	2711.51
234.61	3067.86
234.83	2420.70
235.05	2463.71
235.27	3082.19
235.49	2879.44
235.70	2414.56
235.92	2555.86
236.14	2768.85
236.36	3051.47
236.58	2414.56
236.79	2621.40
237.01	2738.13
237.23	2727.89
237.45	2705.37
237.67	2488.28
237.88	2781.14
238.10	3051.47
238.32	2471.90
238.54	2473.95
238.76	2676.70
238.97	2645.98
239.19	2430.94
239.41	2566.10
239.63	2875.35
239.85	2641.88
240.06	2586.58
240.28	2527.19
240.50	2928.60
240.72	2709.46
240.93	2420.70
241.15	2637.78
241.37	2648.02
241.59	2920.40
241.81	2502.62
242.02	2559.96
242.24	2762.71
242.46	2834.39
242.68	2404.32
242.89	2451.42
243.11	2914.26
243.33	2662.36
243.55	2519.00
243.76	2580.44
243.98	2562.01
244.20	2738.13
244.42	2467.80
244.64	2527.19
244.85	2564.06
245.07	2605.02
245.29	2453.47
245.51	2541.53
245.72	2748.37
245.94	2887.64
246.16	2498.52
246.38	2588.63
246.59	2660.31
246.81	2613.21
247.03	2461.66
247.24	2381.79
247.46	2607.06
247.68	2693.08
247.90	2455.51
248.11	2559.96
248.33	2846.68
248.55	2721.75
248.77	2576.34
248.98	2662.36
249.20	2996.18
249.42	2674.65
249.64	2539.48
249.85	2582.49
250.07	2684.89
250.29	2867.16
250.50	2570.20
250.72	2457.56
250.94	2717.65
251.16	3084.24
251.37	2557.91
251.59	2594.78
251.81	2779.09
252.02	2936.79
252.24	2543.58
252.46	2621.40
252.68	2639.83
252.89	2645.98
253.11	2371.55
253.33	2688.98
253.54	2928.60
253.76	2482.14
253.98	2541.53
254.20	2478.04
254.41	2514.91
254.63	2699.22
254.85	2351.07
255.06	2680.79
255.28	2660.31
255.50	2635.74
255.71	2512.86
255.93	2447.32
256.15	2738.13
256.36	2858.96
256.58	2498.52
256.80	2490.33
257.02	2820.05
257.23	2736.09
257.45	2570.20
257.67	2578.39
257.88	2598.87
258.10	2727.89
258.32	2471.90
258.53	2602.97
258.75	3006.42
258.97	2619.35
259.18	2500.57
259.40	2473.95
259.62	3012.56
259.83	2867.16
260.05	2512.86
260.27	3203.02
260.48	2922.45
260.70	2564.06
260.92	2453.47
261.13	2547.67
261.35	2736.09
261.57	2758.61
261.78	2447.32
262.00	2480.09
262.22	2799.57
262.43	2555.86
262.65	2572.25
262.86	2498.52
263.08	3168.21
263.30	2742.23
263.51	2408.41
263.73	2490.33
263.95	2944.98
264.16	2441.18
264.38	2455.51
264.60	2443.23
264.81	2777.05
265.03	2912.21
265.25	2793.43
265.46	2449.37
265.68	2967.51
265.89	2832.34
266.11	2420.70
266.33	2486.23
266.54	2891.73
266.76	2955.22
266.98	2588.63
267.19	2662.36
267.41	2834.39
267.62	2693.08
267.84	2340.83
268.06	2650.07
268.27	2807.77
268.49	2828.24
268.70	2568.15
268.92	2541.53
269.14	2600.92
269.35	2490.33
269.57	2568.15
269.79	2611.16
270.00	2701.27
270.22	2910.16
270.43	2355.16
270.65	2361.31
270.87	2818.00
271.08	2844.63
271.30	2613.21
271.51	2504.67
271.73	2842.58
271.95	2912.21
272.16	2488.28
272.38	2619.35
272.59	2582.49
272.81	2752.47
273.02	2506.71
273.24	2617.30
273.46	2807.77
273.67	2465.75
273.89	2344.92
274.10	2498.52
274.32	2910.16
274.54	2742.23
274.75	2510.81
274.97	2525.15
275.18	2809.81
275.40	2832.34
275.61	2564.06
275.83	2602.97
276.05	2570.20
276.26	2766.81
276.48	2605.02
276.69	2611.16
276.91	2654.17
277.12	2891.73
277.34	2672.60
277.55	2723.80
277.77	2783.19
277.99	2695.13
278.20	2588.63
278.42	2543.58
278.63	2627.54
278.85	2529.24
279.06	2519.00
279.28	2648.02
279.49	2940.88
279.71	2848.72
279.93	2697.17
280.14	2701.27
280.36	2549.72
280.57	2867.16
280.79	2662.36
281.00	2533.34
281.22	2627.54
281.43	2885.59
281.65	2396.12
281.86	2545.63
282.08	2777.05
282.29	2963.41
282.51	2506.71
282.73	2498.52
282.94	2564.06
283.16	2840.53
283.37	2756.57
283.59	2572.25
283.80	2840.53
284.02	2691.03
284.23	2650.07
284.45	2584.54
284.66	2609.11
284.88	2660.31
285.09	2607.06
285.31	2607.06
285.52	2746.33
285.74	2541.53
285.95	2746.33
286.17	2693.08
286.38	2848.72
286.60	2672.60
286.81	2559.96
287.03	2523.10
287.24	2703.32
287.46	2766.81
287.67	2594.78
287.89	2764.76
288.10	2697.17
288.32	2682.84
288.53	2797.53
288.75	2729.94
288.96	2762.71
289.18	2613.21
289.39	2564.06
289.61	2711.51
289.82	2985.94
290.04	3067.86
290.25	2521.05
290.47	2627.54
290.68	2680.79
290.90	2949.08
291.11	2392.03
291.33	2699.22
291.54	2529.24
291.76	2670.55
291.97	2627.54
292.18	2672.60
292.40	2668.50
292.61	2686.94
292.83	2832.34
293.04	2621.40
293.26	2777.05
293.47	2654.17
293.69	2541.53
293.90	2551.77
294.12	2842.58
294.33	2664.41
294.55	2693.08
294.76	2793.43
294.97	3008.47
295.19	3088.34
295.40	2574.30
295.62	2643.93
295.83	2854.87
296.05	2598.87
296.26	2717.65
296.48	2529.24
296.69	2621.40
296.90	2674.65
297.12	2744.28
297.33	2693.08
297.55	2785.24
297.76	2746.33
297.98	2701.27
298.19	2572.25
298.41	2719.70
298.62	2566.10
298.83	2818.00
299.05	2668.50
299.26	2594.78
299.48	2619.35
299.69	2693.08
299.90	2613.21
300.12	2559.96
300.33	2775.00
300.55	2629.59
300.76	2686.94
300.98	2514.91
301.19	2785.24
301.40	2621.40
301.62	2594.78
301.83	2781.14
302.05	2729.94
302.26	2596.82
302.47	2588.63
302.69	2516.95
302.90	2703.32
303.12	2373.60
303.33	2707.41
303.54	3000.27
303.76	2684.89
303.97	2582.49
304.19	2768.85
304.40	2555.86
304.61	2766.81
304.83	2797.53
305.04	2666.46
305.26	2793.43
305.47	2699.22
305.68	2635.74
305.90	2471.90
306.11	2877.40
306.33	2703.32
306.54	2539.48
306.75	2576.34
306.97	2535.39
307.18	2568.15
307.39	2594.78
307.61	2750.42
307.82	2623.45
308.04	2858.96
308.25	2539.48
308.46	2682.84
308.68	2645.98
308.89	2721.75
309.10	2650.07
309.32	2664.41
309.53	2721.75
309.74	2736.09
309.96	2535.39
310.17	2756.57
310.39	2656.22
310.60	2863.06
310.81	2629.59
311.03	2545.63
311.24	2828.24
311.45	2705.37
311.67	2832.34
311.88	2725.85
312.09	2727.89
312.31	2613.21
312.52	2584.54
312.73	2537.43
312.95	2527.19
313.16	2600.92
313.37	2760.66
313.59	2717.65
313.80	2785.24
314.01	3018.71
314.23	2613.21
314.44	2545.63
314.65	2555.86
314.87	2625.50
315.08	2600.92
315.29	2592.73
315.51	2553.82
315.72	2463.71
315.93	2727.89
316.15	2658.26
316.36	2654.17
316.57	2688.98
316.79	2607.06
317.00	2568.15
317.21	2746.33
317.43	2631.64
317.64	2625.50
317.85	2637.78
318.07	2627.54
318.28	2648.02
318.49	2742.23
318.70	2836.44
318.92	2803.67
319.13	2791.38
319.34	2828.24
319.56	2666.46
319.77	2871.25
319.98	2803.67
320.20	2768.85
320.41	2746.33
320.62	2799.57
320.83	2609.11
321.05	2863.06
321.26	2725.85
321.47	2727.89
321.69	2901.97
321.90	2498.52
322.11	2629.59
322.32	2793.43
322.54	2932.69
322.75	2596.82
322.96	3121.10
323.18	2506.71
323.39	2502.62
323.60	2498.52
323.81	2658.26
324.03	2633.69
324.24	2734.04
324.45	2738.13
324.66	2582.49
324.88	2863.06
325.09	2908.12
325.30	2611.16
325.52	2594.78
325.73	2752.47
325.94	2531.29
326.15	2500.57
326.37	2496.47
326.58	2838.48
326.79	2875.35
327.00	2598.87
327.22	2625.50
327.43	2641.88
327.64	2643.93
327.85	2652.12
328.07	2631.64
328.28	2914.26
328.49	2641.88
328.70	2695.13
328.92	2607.06
329.13	2619.35
329.34	2750.42
329.55	2777.05
329.76	2738.13
329.98	2719.70
330.19	2942.93
330.40	2611.16
330.61	2645.98
330.83	2818.00
331.04	2566.10
331.25	2576.34
331.46	2572.25
331.68	2588.63
331.89	2840.53
332.10	2627.54
332.31	2516.95
332.52	2580.44
332.74	2852.82
332.95	2441.18
333.16	2580.44
333.37	2830.29
333.58	2617.30
333.80	2580.44
334.01	2443.23
334.22	2670.55
334.43	2621.40
334.64	2537.43
334.86	2555.86
335.07	2541.53
335.28	2920.40
335.49	2488.28
335.70	2693.08
335.92	2940.88
336.13	3071.95
336.34	2686.94
336.55	2688.98
336.76	2785.24
336.98	2416.60
337.19	2600.92
337.40	2736.09
337.61	3104.72
337.82	2643.93
338.04	2703.32
338.25	2533.34
338.46	2678.74
338.67	2668.50
338.88	2498.52
339.09	2535.39
339.31	2650.07
339.52	2502.62
339.73	2570.20
339.94	2598.87
340.15	2930.64
340.36	2625.50
340.58	2703.32
340.79	2631.64
341.00	2854.87
341.21	2525.15
341.42	2785.24
341.63	2600.92
341.85	2793.43
342.06	2705.37
342.27	2547.67
342.48	2742.23
342.69	2621.40
342.90	2801.62
343.12	2875.35
343.33	2502.62
343.54	2801.62
343.75	2897.88
343.96	2602.97
344.17	2545.63
344.38	2789.33
344.60	2652.12
344.81	2574.30
345.02	2584.54
345.23	2897.88
345.44	3022.80
345.65	2701.27
345.86	2588.63
346.07	2795.48
346.29	2625.50
346.50	2738.13
346.71	2713.56
346.92	2942.93
347.13	3063.76
347.34	2703.32
347.55	2535.39
347.76	2701.27
347.98	2551.77
348.19	2658.26
348.40	2729.94
348.61	2686.94
348.82	2924.50
349.03	2693.08
349.24	2416.60
349.45	2987.99
349.66	2447.32
349.88	2635.74
350.09	2496.47
350.30	2934.74
350.51	2826.20
350.72	2688.98
350.93	2588.63
351.14	2664.41
351.35	2791.38
351.56	2602.97
351.77	2590.68
351.99	2760.66
352.20	2879.44
352.41	2721.75
352.62	2471.90
352.83	2760.66
353.04	2756.57
353.25	2588.63
353.46	2639.83
353.67	2858.96
353.88	2455.51
354.09	2617.30
354.30	2652.12
354.52	2875.35
354.73	2707.41
354.94	2578.39
355.15	2539.48
355.36	2914.26
355.57	2674.65
355.78	2588.63
355.99	2508.76
356.20	2686.94
356.41	2848.72
356.62	2625.50
356.83	2660.31
357.04	2908.12
357.25	2508.76
357.46	2629.59
357.68	2527.19
357.89	2602.97
358.10	2686.94
358.31	2615.26
358.52	2639.83
358.73	2590.68
358.94	2617.30
359.15	2547.67
359.36	2656.22
359.57	2699.22
359.78	2699.22
359.99	2746.33
360.20	2490.33
360.41	2723.80
360.62	2789.33
360.83	2674.65
361.04	2664.41
361.25	2858.96
361.46	3000.27
361.67	2695.13
361.88	2633.69
362.09	2818.00
362.30	2746.33
362.51	2600.92
362.72	2652.12
362.93	2803.67
363.14	2775.00
363.35	2748.37
363.56	2633.69
363.78	2861.01
363.99	2832.34
364.20	2551.77
364.41	2699.22
364.62	2998.23
364.83	2756.57
365.04	2639.83
365.25	2637.78
365.46	3022.80
365.67	2633.69
365.88	2746.33
366.09	2551.77
366.30	2699.22
366.51	2729.94
366.72	2496.47
366.93	2686.94
367.14	2772.95
367.35	2987.99
367.56	2594.78
367.77	2809.81
367.98	2682.84
368.18	2852.82
368.39	2682.84
368.60	2482.14
368.81	2682.84
369.02	2838.48
369.23	2697.17
369.44	2451.42
369.65	2695.13
369.86	2697.17
370.07	2760.66
370.28	2564.06
370.49	2797.53
370.70	2848.72
370.91	2490.33
371.12	2496.47
371.33	2906.07
371.54	2564.06
371.75	2789.33
371.96	2449.37
372.17	2738.13
372.38	2748.37
372.59	2645.98
372.80	2533.34
373.01	2602.97
373.22	2766.81
373.43	2645.98
373.64	2428.89
373.85	2858.96
374.06	3026.90
374.26	2754.52
374.47	2660.31
374.68	2983.89
374.89	2703.32
375.10	2605.02
375.31	2715.61
375.52	2721.75
375.73	2777.05
375.94	2527.19
376.15	2797.53
376.36	2584.54
376.57	2564.06
376.78	2643.93
376.99	2643.93
377.20	2863.06
377.40	2705.37
377.61	2809.81
377.82	2541.53
378.03	2969.55
378.24	2775.00
378.45	2680.79
378.66	2662.36
378.87	2420.70
379.08	2557.91
379.29	2523.10
379.50	2731.99
379.71	2703.32
379.91	2883.54
380.12	2680.79
380.33	2668.50
380.54	2723.80
380.75	2766.81
380.96	2553.82
381.17	2713.56
381.38	2734.04
381.59	2764.76
381.80	2602.97
382.00	2772.95
382.21	2734.04
382.42	2863.06
382.63	2961.36
382.84	2641.88
383.05	2936.79
383.26	2875.35
383.47	2686.94
383.68	2637.78
383.88	2811.86
384.09	2678.74
384.30	2873.30
384.51	2727.89
384.72	2711.51
384.93	2566.10
385.14	2656.22
385.35	2748.37
385.55	2600.92
385.76	2854.87
385.97	2668.50
386.18	2492.38
386.39	2566.10
386.60	2633.69
386.81	2631.64
387.02	2598.87
387.22	2553.82
387.43	2766.81
387.64	2678.74
387.85	2824.15
388.06	2783.19
388.27	4028.35
388.48	7481.23
388.68	10788.70
388.89	13424.44
389.10	14628.64
389.31	13788.97
389.52	10952.54
389.73	9322.35
389.93	8568.70
390.14	7864.20
390.35	7153.55
390.56	6401.95
390.77	5267.38
390.98	4003.78
391.18	3405.77
391.39	3172.30
391.60	2717.65
391.81	2807.77
392.02	2594.78
392.23	3080.14
392.43	2785.24
392.64	2858.96
392.85	2623.45
393.06	3026.90
393.27	2678.74
393.47	2686.94
393.68	2633.69
393.89	2705.37
394.10	2830.29
394.31	2611.16
394.52	2555.86
394.72	2719.70
394.93	2961.36
395.14	2506.71
395.35	2799.57
395.56	2627.54
395.76	2703.32
395.97	2717.65
396.18	2713.56
396.39	2848.72
396.60	3209.17
396.80	2895.83
397.01	2811.86
397.22	2844.63
397.43	2879.44
397.64	2607.06
397.84	2748.37
398.05	2955.22
398.26	2746.33
398.47	2727.89
398.67	2836.44
398.88	2699.22
399.09	2789.33
399.30	2562.01
399.51	2736.09
399.71	2611.16
399.92	2713.56
400.13	2697.17
400.34	2621.40
400.54	2746.33
400.75	2975.70
400.96	2654.17
401.17	2987.99
401.37	2766.81
401.58	2674.65
401.79	2701.27
402.00	2709.46
402.21	3102.67
402.41	2854.87
402.62	2940.88
402.83	3020.75
403.04	3112.91
403.24	3358.67
403.45	2779.09
403.66	2938.84
403.87	2889.68
404.07	3051.47
404.28	2861.01
404.49	2924.50
404.70	2799.57
404.90	2813.91
405.11	2803.67
405.32	2748.37
405.52	2611.16
405.73	2699.22
405.94	2596.82
406.15	2705.37
406.35	2871.25
406.56	2858.96
406.77	2684.89
406.98	2721.75
407.18	2574.30
407.39	2924.50
407.60	2658.26
407.80	2748.37
408.01	2627.54
408.22	2754.52
408.43	2539.48
408.63	2664.41
408.84	2891.73
409.05	2846.68
409.25	2594.78
409.46	2588.63
409.67	2623.45
409.88	2648.02
410.08	2670.55
410.29	2590.68
410.50	2818.00
410.70	2826.20
410.91	2508.76
411.12	2615.26
411.32	2699.22
411.53	2555.86
411.74	2695.13
411.95	2729.94
412.15	2740.18
412.36	2791.38
412.57	2760.66
412.77	2852.82
412.98	2678.74
413.19	2650.07
413.39	2707.41
413.60	2678.74
413.81	2949.08
414.01	2570.20
414.22	2699.22
414.43	2783.19
414.63	2666.46
414.84	2844.63
415.05	2637.78
415.25	2578.39
415.46	2858.96
415.67	2621.40
415.87	2705.37
416.08	2629.59
416.29	2713.56
416.49	2818.00
416.70	2588.63
416.91	2574.30
417.11	2666.46
417.32	2938.84
417.53	2719.70
417.73	2654.17
417.94	2693.08
418.15	2719.70
418.35	2682.84
418.56	2731.99
418.77	2949.08
418.97	2760.66
419.18	2678.74
419.38	2422.75
419.59	2643.93
419.80	2965.46
420.00	2555.86
420.21	2562.01
420.42	2971.60
420.62	2731.99
420.83	2596.82
421.04	2654.17
421.24	2656.22
421.45	2908.12
421.65	2682.84
421.86	2662.36
422.07	2932.69
422.27	2832.34
422.48	2588.63
422.69	2551.77
422.89	2746.33
423.10	2637.78
423.30	2564.06
423.51	2617.30
423.72	2791.38
423.92	2838.48
424.13	2457.56
424.33	2695.13
424.54	2885.59
424.75	2789.33
424.95	2875.35
425.16	2701.27
425.36	2727.89
425.57	2967.51
425.78	2768.85
425.98	2811.86
426.19	2830.29
426.39	2617.30
426.60	2633.69
426.81	2799.57
427.01	2813.91
427.22	2660.31
427.42	2398.17
427.63	2547.67
427.83	2842.58
428.04	2942.93
428.25	2815.96
428.45	2684.89
428.66	2832.34
428.86	2701.27
429.07	2682.84
429.28	2688.98
429.48	2693.08
429.69	2586.58
429.89	2676.70
430.10	2539.48
430.30	2793.43
430.51	2854.87
430.71	2539.48
430.92	2682.84
431.13	2688.98
431.33	2908.12
431.54	2672.60
431.74	2869.20
431.95	3090.38
432.15	2547.67
432.36	2686.94
432.56	2674.65
432.77	3084.24
432.98	3051.47
433.18	2805.72
433.39	2615.26
433.59	2676.70
433.80	3041.23
434.00	2809.81
434.21	2650.07
434.41	2656.22
434.62	3084.24
434.82	2535.39
435.03	2553.82
435.23	2793.43
435.44	2467.80
435.64	2639.83
435.85	2678.74
436.06	2815.96
436.26	2889.68
436.47	2682.84
436.67	2564.06
436.88	2621.40
437.08	2904.02
437.29	2840.53
437.49	2729.94
437.70	2891.73
437.90	2801.62
438.11	2910.16
438.31	2641.88
438.52	2938.84
438.72	2856.92
438.93	2938.84
439.13	2631.64
439.34	2834.39
439.54	2719.70
439.75	2750.42
439.95	2770.90
440.16	2611.16
440.36	2772.95
440.57	2686.94
440.77	2643.93
440.98	2756.57
441.18	2809.81
441.39	2562.01
441.59	2602.97
441.80	3006.42
442.00	2711.51
442.21	2758.61
442.41	2582.49
442.62	2971.60
442.82	2621.40
443.02	2686.94
443.23	2746.33
443.43	2721.75
443.64	2918.36
443.84	2523.10
444.05	2779.09
444.25	2662.36
444.46	2752.47
444.66	2648.02
444.87	2883.54
445.07	2564.06
445.28	2668.50
445.48	2777.05
445.69	2750.42
445.89	3125.20
446.09	2691.03
446.30	2930.64
446.50	3157.97
446.71	4552.63
446.91	5613.48
447.12	6471.58
447.32	6778.78
447.53	6576.03
447.73	5345.20
447.93	4782.01
448.14	4595.64
448.34	4497.34
448.55	3796.93
448.75	3891.14
448.96	3622.86
449.16	3407.82
449.36	3293.13
449.57	2889.68
449.77	2711.51
449.98	2686.94
450.18	2865.11
450.39	2666.46
450.59	2840.53
450.79	2764.76
451.00	2668.50
451.20	2830.29
451.41	2586.58
451.61	2779.09
451.81	2740.18
452.02	2650.07
452.22	2662.36
452.43	2744.28
452.63	2637.78
