SpectraSuite Data File
++++++++++++++++++++++++++++++++++++
Date: Thu May 05 16:20:36 CEST 2016
User: root
Dark Spectrum Present: No
Reference Spectrum Present: No
Number of Sampled Component Spectra: 1
Spectrometers: USB4C02835
Integration Time (usec): 100000 (USB4C02835)
Spectra Averaged: 1 (USB4C02835)
Boxcar Smoothing: 0 (USB4C02835)
Correct for Electrical Dark: No (USB4C02835)
Strobe/Lamp Enabled: No (USB4C02835)
Correct for Detector Non-linearity: No (USB4C02835)
Correct for Stray Light: No (USB4C02835)
Number of Pixels in Processed Spectrum: 3648
>>>>>Begin Processed Spectral Data<<<<<
177.47	1955.81
177.69	1955.81
177.91	1955.81
178.13	2007.01
178.36	2023.39
178.58	2504.67
178.80	2686.94
179.02	2543.58
179.24	2566.10
179.46	2504.67
179.68	2547.67
179.90	2727.89
180.13	2680.79
180.35	2430.94
180.57	2555.86
180.79	2785.24
181.01	2797.53
181.23	2478.04
181.45	2582.49
181.67	2856.92
181.90	2824.15
182.12	2619.35
182.34	2308.06
182.56	2793.43
182.78	2785.24
183.00	2463.71
183.22	2478.04
183.44	2566.10
183.66	3100.62
183.89	2684.89
184.11	2576.34
184.33	2838.48
184.55	2832.34
184.77	2519.00
184.99	2580.44
185.21	2652.12
185.43	3006.42
185.65	2514.91
185.87	2449.37
186.10	2940.88
186.32	3028.95
186.54	2621.40
186.76	2596.82
186.98	2887.64
187.20	2721.75
187.42	2596.82
187.64	2506.71
187.86	2791.38
188.08	2840.53
188.30	2394.08
188.52	2580.44
188.75	2947.03
188.97	2899.92
189.19	2457.56
189.41	2570.20
189.63	2799.57
189.85	2693.08
190.07	2367.45
190.29	2365.40
190.51	2766.81
190.73	2543.58
190.95	2682.84
191.17	2533.34
191.39	2521.05
191.61	2648.02
191.84	2566.10
192.06	2693.08
192.28	2523.10
192.50	3147.73
192.72	2664.41
192.94	2631.64
193.16	2899.92
193.38	2791.38
193.60	2486.23
193.82	2539.48
194.04	2924.50
194.26	2770.90
194.48	2459.61
194.70	2486.23
194.92	2707.41
195.14	2861.01
195.36	2510.81
195.58	2615.26
195.80	2686.94
196.02	2637.78
196.24	2455.51
196.46	2527.19
196.69	2674.65
196.91	3098.58
197.13	2600.92
197.35	2586.58
197.57	2932.69
197.79	2805.72
198.01	2641.88
198.23	2525.15
198.45	2834.39
198.67	2615.26
198.89	2408.41
199.11	2607.06
199.33	2605.02
199.55	2404.32
199.77	2480.09
199.99	2609.11
200.21	2686.94
200.43	2721.75
200.65	2457.56
200.87	2387.93
201.09	2750.42
201.31	2660.31
201.53	2541.53
201.75	2584.54
201.97	2781.14
202.19	2803.67
202.41	2551.77
202.63	2637.78
202.85	2797.53
203.07	2711.51
203.29	2555.86
203.51	2478.04
203.73	2623.45
203.95	3096.53
204.17	2494.43
204.39	2588.63
204.61	2662.36
204.83	2705.37
205.05	2746.33
205.27	2543.58
205.49	2961.36
205.71	2721.75
205.93	2383.84
206.15	2494.43
206.37	2754.52
206.59	2723.80
206.81	2400.22
207.03	2392.03
207.25	2605.02
207.47	2797.53
207.69	2521.05
207.91	2697.17
208.13	2840.53
208.34	2557.91
208.56	2490.33
208.78	2519.00
209.00	2654.17
209.22	2645.98
209.44	2537.43
209.66	2529.24
209.88	2701.27
210.10	2805.72
210.32	2467.80
210.54	2596.82
210.76	2756.57
210.98	2895.83
211.20	2283.49
211.42	2582.49
211.64	2912.21
211.86	2783.19
212.08	2545.63
212.30	2531.29
212.52	2666.46
212.74	2723.80
212.96	2633.69
213.17	2549.72
213.39	2824.15
213.61	2944.98
213.83	2508.76
214.05	2346.97
214.27	2899.92
214.49	2600.92
214.71	2475.99
214.93	2594.78
215.15	2750.42
215.37	2895.83
215.59	2387.93
215.81	2545.63
216.03	2895.83
216.24	2736.09
216.46	2521.05
216.68	2574.30
216.90	2899.92
217.12	2832.34
217.34	2510.81
217.56	2652.12
217.78	2963.41
218.00	2738.13
218.22	2586.58
218.44	2570.20
218.66	2791.38
218.87	3057.62
219.09	2543.58
219.31	2475.99
219.53	2748.37
219.75	2652.12
219.97	2543.58
220.19	2574.30
220.41	2738.13
220.63	3008.47
220.85	2437.08
221.06	2527.19
221.28	2850.77
221.50	2861.01
221.72	2525.15
221.94	2478.04
222.16	2822.10
222.38	2897.88
222.60	2529.24
222.82	2631.64
223.03	2914.26
223.25	2588.63
223.47	2586.58
223.69	2703.32
223.91	2838.48
224.13	2750.42
224.35	2473.95
224.57	2676.70
224.78	2764.76
225.00	2580.44
225.22	2531.29
225.44	2445.27
225.66	2908.12
225.88	2629.59
226.10	2629.59
226.32	2420.70
226.53	2938.84
226.75	2650.07
226.97	2551.77
227.19	2576.34
227.41	2621.40
227.63	2693.08
227.85	2361.31
228.06	2531.29
228.28	2777.05
228.50	2934.74
228.72	2359.26
228.94	2525.15
229.16	2498.52
229.37	2549.72
229.59	2437.08
229.81	2699.22
230.03	2621.40
230.25	2576.34
230.47	2334.68
230.69	2422.75
230.90	2834.39
231.12	2660.31
231.34	2488.28
231.56	2664.41
231.78	2668.50
232.00	2705.37
232.21	2541.53
232.43	2584.54
232.65	2490.33
232.87	2779.09
233.09	2437.08
233.30	2441.18
233.52	2887.64
233.74	2701.27
233.96	2512.86
234.18	2598.87
234.40	2688.98
234.61	3033.04
234.83	2447.32
235.05	2467.80
235.27	3108.82
235.49	2879.44
235.70	2484.19
235.92	2539.48
236.14	2777.05
236.36	3090.38
236.58	2420.70
236.79	2531.29
237.01	2703.32
237.23	2701.27
237.45	2707.41
237.67	2506.71
237.88	2713.56
238.10	3041.23
238.32	2389.98
238.54	2516.95
238.76	2699.22
238.97	2623.45
239.19	2445.27
239.41	2633.69
239.63	2871.25
239.85	2662.36
240.06	2531.29
240.28	2521.05
240.50	2869.20
240.72	2709.46
240.93	2410.46
241.15	2637.78
241.37	2787.29
241.59	2924.50
241.81	2494.43
242.02	2539.48
242.24	2762.71
242.46	2840.53
242.68	2328.54
242.89	2455.51
243.11	2928.60
243.33	2680.79
243.55	2539.48
243.76	2529.24
243.98	2574.30
244.20	2682.84
244.42	2447.32
244.64	2504.67
244.85	2527.19
245.07	2551.77
245.29	2572.25
245.51	2453.47
245.72	2727.89
245.94	2830.29
246.16	2496.47
246.38	2535.39
246.59	2572.25
246.81	2559.96
247.03	2430.94
247.24	2375.64
247.46	2684.89
247.68	2717.65
247.90	2414.56
248.11	2506.71
248.33	2865.11
248.55	2693.08
248.77	2506.71
248.98	2631.64
249.20	2908.12
249.42	2684.89
249.64	2596.82
249.85	2488.28
250.07	2652.12
250.29	2873.30
250.50	2576.34
250.72	2473.95
250.94	2676.70
251.16	3051.47
251.37	2523.10
251.59	2611.16
251.81	2777.05
252.02	2947.03
252.24	2465.75
252.46	2605.02
252.68	2584.54
252.89	2600.92
253.11	2324.44
253.33	2637.78
253.54	2910.16
253.76	2498.52
253.98	2465.75
254.20	2496.47
254.41	2592.73
254.63	2684.89
254.85	2357.21
255.06	2605.02
255.28	2746.33
255.50	2656.22
255.71	2500.57
255.93	2428.89
256.15	2715.61
256.36	2852.82
256.58	2389.98
256.80	2480.09
257.02	2678.74
257.23	2602.97
257.45	2559.96
257.67	2588.63
257.88	2609.11
258.10	2791.38
258.32	2543.58
258.53	2625.50
258.75	2981.84
258.97	2609.11
259.18	2426.84
259.40	2525.15
259.62	2965.46
259.83	2944.98
260.05	2463.71
260.27	3117.01
260.48	2863.06
260.70	2543.58
260.92	2387.93
261.13	2568.15
261.35	2736.09
261.57	2811.86
261.78	2383.84
262.00	2418.65
262.22	2797.53
262.43	2613.21
262.65	2617.30
262.86	2490.33
263.08	3035.09
263.30	2756.57
263.51	2340.83
263.73	2521.05
263.95	2990.03
264.16	2623.45
264.38	2424.80
264.60	2432.99
264.81	2664.41
265.03	2883.54
265.25	2854.87
265.46	2510.81
265.68	2873.30
265.89	2807.77
266.11	2375.64
266.33	2490.33
266.54	2904.02
266.76	2828.24
266.98	2615.26
267.19	2693.08
267.41	2834.39
267.62	2670.55
267.84	2310.11
268.06	2701.27
268.27	2760.66
268.49	2891.73
268.70	2617.30
268.92	2488.28
269.14	2523.10
269.35	2557.91
269.57	2547.67
269.79	2568.15
270.00	2570.20
270.22	2850.77
270.43	2443.23
270.65	2357.21
270.87	2723.80
271.08	2801.62
271.30	2592.73
271.51	2592.73
271.73	2772.95
271.95	2934.74
272.16	2455.51
272.38	2660.31
272.59	2645.98
272.81	2834.39
273.02	2457.56
273.24	2547.67
273.46	2967.51
273.67	2584.54
273.89	2367.45
274.10	2545.63
274.32	2920.40
274.54	2723.80
274.75	2627.54
274.97	2502.62
275.18	2781.14
275.40	2803.67
275.61	2510.81
275.83	2648.02
276.05	2662.36
276.26	2637.78
276.48	2613.21
276.69	2594.78
276.91	2641.88
277.12	2947.03
277.34	2670.55
277.55	2731.99
277.77	2840.53
277.99	2652.12
278.20	2584.54
278.42	2547.67
278.63	2562.01
278.85	2625.50
279.06	2547.67
279.28	2643.93
279.49	2791.38
279.71	2813.91
279.93	2641.88
280.14	2629.59
280.36	2564.06
280.57	2803.67
280.79	2772.95
281.00	2527.19
281.22	2611.16
281.43	2891.73
281.65	2387.93
281.86	2553.82
282.08	2736.09
282.29	3063.76
282.51	2455.51
282.73	2478.04
282.94	2471.90
283.16	2758.61
283.37	2742.23
283.59	2615.26
283.80	2738.13
284.02	2799.57
284.23	2588.63
284.45	2617.30
284.66	2615.26
284.88	2594.78
285.09	2564.06
285.31	2678.74
285.52	2824.15
285.74	2525.15
285.95	2711.51
286.17	2621.40
286.38	2904.02
286.60	2736.09
286.81	2512.86
287.03	2605.02
287.24	2686.94
287.46	2719.70
287.67	2609.11
287.89	2805.72
288.10	2750.42
288.32	2746.33
288.53	2809.81
288.75	2643.93
288.96	2861.01
289.18	2637.78
289.39	2484.19
289.61	2652.12
289.82	3102.67
290.04	2955.22
290.25	2498.52
290.47	2703.32
290.68	2731.99
290.90	2818.00
291.11	2398.17
291.33	2654.17
291.54	2562.01
291.76	2658.26
291.97	2711.51
292.18	2654.17
292.40	2711.51
292.61	2570.20
292.83	2842.58
293.04	2717.65
293.26	2697.17
293.47	2617.30
293.69	2490.33
293.90	2492.38
294.12	2848.72
294.33	2641.88
294.55	2674.65
294.76	2770.90
294.97	2940.88
295.19	3010.51
295.40	2605.02
295.62	2674.65
295.83	2842.58
296.05	2668.50
296.26	2781.14
296.48	2580.44
296.69	2652.12
296.90	2641.88
297.12	2748.37
297.33	2779.09
297.55	2815.96
297.76	2875.35
297.98	2666.46
298.19	2650.07
298.41	2734.04
298.62	2590.68
298.83	2699.22
299.05	2643.93
299.26	2676.70
299.48	2596.82
299.69	2701.27
299.90	2613.21
300.12	2545.63
300.33	2824.15
300.55	2637.78
300.76	2688.98
300.98	2553.82
301.19	2758.61
301.40	2551.77
301.62	2572.25
301.83	2764.76
302.05	2783.19
302.26	2594.78
302.47	2703.32
302.69	2568.15
302.90	2764.76
303.12	2381.79
303.33	2684.89
303.54	3063.76
303.76	2613.21
303.97	2678.74
304.19	2750.42
304.40	2572.25
304.61	2813.91
304.83	2740.18
305.04	2723.80
305.26	2801.62
305.47	2605.02
305.68	2695.13
305.90	2527.19
306.11	2901.97
306.33	2672.60
306.54	2514.91
306.75	2580.44
306.97	2537.43
307.18	2592.73
307.39	2613.21
307.61	2688.98
307.82	2652.12
308.04	2828.24
308.25	2545.63
308.46	2701.27
308.68	2697.17
308.89	2734.04
309.10	2699.22
309.32	2607.06
309.53	2766.81
309.74	2768.85
309.96	2629.59
310.17	2746.33
310.39	2656.22
310.60	2811.86
310.81	2635.74
311.03	2492.38
311.24	2854.87
311.45	2822.10
311.67	2809.81
311.88	2676.70
312.09	2678.74
312.31	2602.97
312.52	2598.87
312.73	2539.48
312.95	2568.15
313.16	2600.92
313.37	2736.09
313.59	2711.51
313.80	2863.06
314.01	2973.65
314.23	2645.98
314.44	2504.67
314.65	2545.63
314.87	2555.86
315.08	2564.06
315.29	2557.91
315.51	2592.73
315.72	2445.27
315.93	2738.13
316.15	2672.60
316.36	2629.59
316.57	2686.94
316.79	2719.70
317.00	2559.96
317.21	2797.53
317.43	2576.34
317.64	2633.69
317.85	2484.19
318.07	2600.92
318.28	2756.57
318.49	2648.02
318.70	2813.91
318.92	2785.24
319.13	2838.48
319.34	2795.48
319.56	2654.17
319.77	2906.07
319.98	2863.06
320.20	2815.96
320.41	2754.52
320.62	2791.38
320.83	2572.25
321.05	2818.00
321.26	2703.32
321.47	2684.89
321.69	2914.26
321.90	2498.52
322.11	2572.25
322.32	2834.39
322.54	2955.22
322.75	2506.71
322.96	3258.32
323.18	2514.91
323.39	2435.03
323.60	2486.23
323.81	2641.88
324.03	2639.83
324.24	2818.00
324.45	2652.12
324.66	2605.02
324.88	2856.92
325.09	2957.27
325.30	2662.36
325.52	2553.82
325.73	2836.44
325.94	2541.53
326.15	2457.56
326.37	2498.52
326.58	2869.20
326.79	2883.54
327.00	2473.95
327.22	2600.92
327.43	2641.88
327.64	2570.20
327.85	2674.65
328.07	2662.36
328.28	2994.13
328.49	2713.56
328.70	2619.35
328.92	2609.11
329.13	2711.51
329.34	2789.33
329.55	2775.00
329.76	2727.89
329.98	2670.55
330.19	2947.03
330.40	2721.75
330.61	2713.56
330.83	2875.35
331.04	2625.50
331.25	2695.13
331.46	2631.64
331.68	2543.58
331.89	2912.21
332.10	2680.79
332.31	2502.62
332.52	2752.47
332.74	2811.86
332.95	2478.04
333.16	2613.21
333.37	2858.96
333.58	2643.93
333.80	2631.64
334.01	2445.27
334.22	2729.94
334.43	2568.15
334.64	2580.44
334.86	2535.39
335.07	2619.35
335.28	3002.32
335.49	2498.52
335.70	2705.37
335.92	2858.96
336.13	3037.14
336.34	2711.51
336.55	2629.59
336.76	2746.33
336.98	2478.04
337.19	2572.25
337.40	2752.47
337.61	3151.82
337.82	2654.17
338.04	2727.89
338.25	2490.33
338.46	2695.13
338.67	2684.89
338.88	2586.58
339.09	2596.82
339.31	2684.89
339.52	2574.30
339.73	2498.52
339.94	2613.21
340.15	2838.48
340.36	2633.69
340.58	2674.65
340.79	2527.19
341.00	2875.35
341.21	2570.20
341.42	2820.05
341.63	2531.29
341.85	2815.96
342.06	2766.81
342.27	2570.20
342.48	2762.71
342.69	2537.43
342.90	2746.33
343.12	2809.81
343.33	2584.54
343.54	2852.82
343.75	2875.35
343.96	2670.55
344.17	2568.15
344.38	2688.98
344.60	2633.69
344.81	2533.34
345.02	2559.96
345.23	2848.72
345.44	3076.05
345.65	2652.12
345.86	2680.79
346.07	2760.66
346.29	2639.83
346.50	2688.98
346.71	2621.40
346.92	2891.73
347.13	3110.86
347.34	2633.69
347.55	2551.77
347.76	2811.86
347.98	2498.52
348.19	2623.45
348.40	2760.66
348.61	2654.17
348.82	2969.55
349.03	2660.31
349.24	2541.53
349.45	2967.51
349.66	2480.09
349.88	2555.86
350.09	2576.34
350.30	2947.03
350.51	2852.82
350.72	2678.74
350.93	2691.03
351.14	2637.78
351.35	2818.00
351.56	2605.02
351.77	2629.59
351.99	2858.96
352.20	2983.89
352.41	2736.09
352.62	2453.47
352.83	2705.37
353.04	2709.46
353.25	2654.17
353.46	2717.65
353.67	2834.39
353.88	2428.89
354.09	2596.82
354.30	2693.08
354.52	2930.64
354.73	2670.55
354.94	2521.05
355.15	2643.93
355.36	3016.66
355.57	2600.92
355.78	2592.73
355.99	2449.37
356.20	2662.36
356.41	2920.40
356.62	2699.22
356.83	2658.26
357.04	2906.07
357.25	2508.76
357.46	2615.26
357.68	2492.38
357.89	2555.86
358.10	2652.12
358.31	2566.10
358.52	2559.96
358.73	2514.91
358.94	2504.67
359.15	2609.11
359.36	2695.13
359.57	2717.65
359.78	2721.75
359.99	2727.89
360.20	2521.05
360.41	2645.98
360.62	2744.28
360.83	2652.12
361.04	2611.16
361.25	2801.62
361.46	2951.12
361.67	2731.99
361.88	2660.31
362.09	2781.14
362.30	2742.23
362.51	2527.19
362.72	2613.21
362.93	2867.16
363.14	2768.85
363.35	2707.41
363.56	2564.06
363.78	2863.06
363.99	2959.31
364.20	2652.12
364.41	2648.02
364.62	3020.75
364.83	2779.09
365.04	2631.64
365.25	2613.21
365.46	3000.27
365.67	2605.02
365.88	2711.51
366.09	2570.20
366.30	2654.17
366.51	2764.76
366.72	2459.61
366.93	2549.72
367.14	2736.09
367.35	2947.03
367.56	2600.92
367.77	2719.70
367.98	2781.14
368.18	2795.48
368.39	2746.33
368.60	2584.54
368.81	2844.63
369.02	2795.48
369.23	2627.54
369.44	2443.23
369.65	2639.83
369.86	2772.95
370.07	2766.81
370.28	2545.63
370.49	2746.33
370.70	2822.10
370.91	2467.80
371.12	2465.75
371.33	2867.16
371.54	2633.69
371.75	2699.22
371.96	2432.99
372.17	2742.23
372.38	2619.35
372.59	2615.26
372.80	2588.63
373.01	2586.58
373.22	2676.70
373.43	2596.82
373.64	2445.27
373.85	2852.82
374.06	2836.44
374.26	2799.57
374.47	2725.85
374.68	2875.35
374.89	2738.13
375.10	2654.17
375.31	2731.99
375.52	2707.41
375.73	2736.09
375.94	2475.99
376.15	2734.04
376.36	2549.72
376.57	2629.59
376.78	2602.97
376.99	2670.55
377.20	2830.29
377.40	2678.74
377.61	2752.47
377.82	2525.15
378.03	2973.65
378.24	2815.96
378.45	2699.22
378.66	2633.69
378.87	2492.38
379.08	2482.14
379.29	2602.97
379.50	2736.09
379.71	2664.41
379.91	2867.16
380.12	2627.54
380.33	2666.46
380.54	2629.59
380.75	2584.54
380.96	2531.29
381.17	2674.65
381.38	2723.80
381.59	2727.89
381.80	2621.40
382.00	2861.01
382.21	2785.24
382.42	3037.14
382.63	2918.36
382.84	2729.94
383.05	2865.11
383.26	2971.60
383.47	2672.60
383.68	2650.07
383.88	2877.40
384.09	2750.42
384.30	2836.44
384.51	2707.41
384.72	2564.06
384.93	2590.68
385.14	2709.46
385.35	2805.72
385.55	2490.33
385.76	2865.11
385.97	2551.77
386.18	2494.43
386.39	2611.16
386.60	2623.45
386.81	2602.97
387.02	2525.15
387.22	2551.77
387.43	2809.81
387.64	2758.61
387.85	2842.58
388.06	2777.05
388.27	4104.13
388.48	7606.16
388.68	11274.07
388.89	13418.29
389.10	14284.58
389.31	14075.69
389.52	10813.28
389.73	9381.74
389.93	8593.28
390.14	7880.58
390.35	7120.79
390.56	6360.99
390.77	5244.85
390.98	4112.32
391.18	3528.65
391.39	3203.02
391.60	2756.57
391.81	2795.48
392.02	2633.69
392.23	3092.43
392.43	2707.41
392.64	2750.42
392.85	2699.22
393.06	2936.79
393.27	2762.71
393.47	2590.68
393.68	2674.65
393.89	2619.35
394.10	2867.16
394.31	2580.44
394.52	2594.78
394.72	2654.17
394.93	2908.12
395.14	2506.71
395.35	2693.08
395.56	2658.26
395.76	2680.79
395.97	2621.40
396.18	2727.89
396.39	2734.04
396.60	3239.89
396.80	2807.77
397.01	2844.63
397.22	2887.64
397.43	2899.92
397.64	2633.69
397.84	2715.61
398.05	3069.91
398.26	2717.65
398.47	2744.28
398.67	2740.18
398.88	2731.99
399.09	2858.96
399.30	2521.05
399.51	2666.46
399.71	2654.17
399.92	2703.32
400.13	2758.61
400.34	2551.77
400.54	2701.27
400.75	2973.65
400.96	2686.94
401.17	2883.54
401.37	2809.81
401.58	2658.26
401.79	2592.73
402.00	2699.22
402.21	3149.78
402.41	2836.44
402.62	2955.22
402.83	3041.23
403.04	3030.99
403.24	3297.23
403.45	2752.47
403.66	2990.03
403.87	2885.59
404.07	3000.27
404.28	2889.68
404.49	2840.53
404.70	2801.62
404.90	2842.58
405.11	2721.75
405.32	2707.41
405.52	2625.50
405.73	2541.53
405.94	2541.53
406.15	2705.37
406.35	2818.00
406.56	2838.48
406.77	2615.26
406.98	2664.41
407.18	2533.34
407.39	2990.03
407.60	2656.22
407.80	2766.81
408.01	2672.60
408.22	2811.86
408.43	2553.82
408.63	2729.94
408.84	2889.68
409.05	2793.43
409.25	2584.54
409.46	2639.83
409.67	2703.32
409.88	2654.17
410.08	2711.51
410.29	2648.02
410.50	2844.63
410.70	2828.24
410.91	2500.57
411.12	2721.75
411.32	2762.71
411.53	2547.67
411.74	2717.65
411.95	2701.27
412.15	2807.77
412.36	2867.16
412.57	2822.10
412.77	2809.81
412.98	2617.30
413.19	2531.29
413.39	2662.36
413.60	2643.93
413.81	2924.50
414.01	2613.21
414.22	2664.41
414.43	2727.89
414.63	2691.03
414.84	2779.09
415.05	2670.55
415.25	2439.13
415.46	2828.24
415.67	2688.98
415.87	2709.46
416.08	2609.11
416.29	2602.97
416.49	2754.52
416.70	2660.31
416.91	2611.16
417.11	2691.03
417.32	2914.26
417.53	2725.85
417.73	2676.70
417.94	2772.95
418.15	2777.05
418.35	2611.16
418.56	2742.23
418.77	3039.19
418.97	2703.32
419.18	2670.55
419.38	2355.16
419.59	2758.61
419.80	2908.12
420.00	2627.54
420.21	2715.61
420.42	2947.03
420.62	2770.90
420.83	2664.41
421.04	2594.78
421.24	2682.84
421.45	2799.57
421.65	2731.99
421.86	2541.53
422.07	2889.68
422.27	2744.28
422.48	2607.06
422.69	2506.71
422.89	2742.23
423.10	2625.50
423.30	2570.20
423.51	2707.41
423.72	2781.14
423.92	2838.48
424.13	2541.53
424.33	2562.01
424.54	2875.35
424.75	2711.51
424.95	2856.92
425.16	2609.11
425.36	2645.98
425.57	2842.58
425.78	2846.68
425.98	2695.13
426.19	2697.17
426.39	2592.73
426.60	2750.42
426.81	2770.90
427.01	2834.39
427.22	2598.87
427.42	2494.43
427.63	2537.43
427.83	2867.16
428.04	2944.98
428.25	2715.61
428.45	2803.67
428.66	2869.20
428.86	2723.80
429.07	2645.98
429.28	2656.22
429.48	2734.04
429.69	2600.92
429.89	2723.80
430.10	2527.19
430.30	2744.28
430.51	2858.96
430.71	2625.50
430.92	2686.94
431.13	2645.98
431.33	2785.24
431.54	2715.61
431.74	2797.53
431.95	3084.24
432.15	2645.98
432.36	2650.07
432.56	2725.85
432.77	2990.03
432.98	3012.56
433.18	2682.84
433.39	2541.53
433.59	2637.78
433.80	3049.43
434.00	2865.11
434.21	2670.55
434.41	2600.92
434.62	3071.95
434.82	2574.30
435.03	2600.92
435.23	2744.28
435.44	2473.95
435.64	2670.55
435.85	2750.42
436.06	2863.06
436.26	2856.92
436.47	2699.22
436.67	2643.93
436.88	2668.50
437.08	2879.44
437.29	2779.09
437.49	2707.41
437.70	2840.53
437.90	2658.26
438.11	2832.34
438.31	2744.28
438.52	2906.07
438.72	2912.21
438.93	3033.04
439.13	2645.98
439.34	2951.12
439.54	2703.32
439.75	2754.52
439.95	2775.00
440.16	2621.40
440.36	2742.23
440.57	2678.74
440.77	2662.36
440.98	2789.33
441.18	2871.25
441.39	2580.44
441.59	2553.82
441.80	3092.43
442.00	2762.71
442.21	2695.13
442.41	2465.75
442.62	2924.50
442.82	2549.72
443.02	2619.35
443.23	2668.50
443.43	2680.79
443.64	2910.16
443.84	2574.30
444.05	2789.33
444.25	2744.28
444.46	2725.85
444.66	2629.59
444.87	2850.77
445.07	2502.62
445.28	2686.94
445.48	2781.14
445.69	2652.12
445.89	3092.43
446.09	2629.59
446.30	2998.23
446.50	3104.72
446.71	4528.06
446.91	5627.82
447.12	6373.28
447.32	6760.34
447.53	6551.45
447.73	5490.60
447.93	4847.54
448.14	4573.11
448.34	4515.77
448.55	3848.13
448.75	3850.18
448.96	3669.96
449.16	3334.09
449.36	3229.65
449.57	2822.10
449.77	2736.09
449.98	2654.17
450.18	2865.11
450.39	2686.94
450.59	2828.24
450.79	2744.28
451.00	2682.84
451.20	2801.62
451.41	2576.34
451.61	2836.44
451.81	2617.30
452.02	2602.97
452.22	2656.22
452.43	2660.31
452.63	2574.30
