SpectraSuite Data File
++++++++++++++++++++++++++++++++++++
Date: Thu May 05 16:20:52 CEST 2016
User: root
Dark Spectrum Present: No
Reference Spectrum Present: No
Number of Sampled Component Spectra: 1
Spectrometers: USB4C02835
Integration Time (usec): 100000 (USB4C02835)
Spectra Averaged: 1 (USB4C02835)
Boxcar Smoothing: 0 (USB4C02835)
Correct for Electrical Dark: No (USB4C02835)
Strobe/Lamp Enabled: No (USB4C02835)
Correct for Detector Non-linearity: No (USB4C02835)
Correct for Stray Light: No (USB4C02835)
Number of Pixels in Processed Spectrum: 3648
>>>>>Begin Processed Spectral Data<<<<<
177.47	1974.24
177.69	1974.24
177.91	1974.24
178.13	2078.69
178.36	1957.86
178.58	2545.63
178.80	2783.19
179.02	2537.43
179.24	2549.72
179.46	2408.41
179.68	2519.00
179.90	2715.61
180.13	2705.37
180.35	2373.60
180.57	2455.51
180.79	2852.82
181.01	2686.94
181.23	2566.10
181.45	2652.12
181.67	2820.05
181.90	2836.44
182.12	2543.58
182.34	2342.88
182.56	2793.43
182.78	2768.85
183.00	2494.43
183.22	2555.86
183.44	2430.94
183.66	3123.15
183.89	2625.50
184.11	2492.38
184.33	2799.57
184.55	2824.15
184.77	2420.70
184.99	2490.33
185.21	2654.17
185.43	3086.29
185.65	2521.05
185.87	2480.09
186.10	3162.06
186.32	3018.71
186.54	2605.02
186.76	2602.97
186.98	2850.77
187.20	2607.06
187.42	2516.95
187.64	2453.47
187.86	2688.98
188.08	2850.77
188.30	2457.56
188.52	2592.73
188.75	2863.06
188.97	2885.59
189.19	2480.09
189.41	2484.19
189.63	2703.32
189.85	2691.03
190.07	2447.32
190.29	2318.30
190.51	2793.43
190.73	2545.63
190.95	2631.64
191.17	2537.43
191.39	2574.30
191.61	2744.28
191.84	2547.67
192.06	2533.34
192.28	2461.66
192.50	3166.16
192.72	2590.68
192.94	2533.34
193.16	2934.74
193.38	2787.29
193.60	2480.09
193.82	2635.74
194.04	2887.64
194.26	2815.96
194.48	2541.53
194.70	2543.58
194.92	2705.37
195.14	2818.00
195.36	2490.33
195.58	2605.02
195.80	2668.50
196.02	2594.78
196.24	2510.81
196.46	2531.29
196.69	2621.40
196.91	3090.38
197.13	2514.91
197.35	2576.34
197.57	2996.18
197.79	2777.05
198.01	2539.48
198.23	2535.39
198.45	2727.89
198.67	2590.68
198.89	2369.50
199.11	2607.06
199.33	2645.98
199.55	2447.32
199.77	2508.76
199.99	2674.65
200.21	2731.99
200.43	2748.37
200.65	2469.85
200.87	2392.03
201.09	2664.41
201.31	2643.93
201.53	2613.21
201.75	2611.16
201.97	2783.19
202.19	2777.05
202.41	2590.68
202.63	2705.37
202.85	2772.95
203.07	2740.18
203.29	2596.82
203.51	2394.08
203.73	2658.26
203.95	3084.24
204.17	2465.75
204.39	2586.58
204.61	2701.27
204.83	2648.02
205.05	2617.30
205.27	2617.30
205.49	3039.19
205.71	2740.18
205.93	2342.88
206.15	2482.14
206.37	2711.51
206.59	2750.42
206.81	2389.98
207.03	2322.40
207.25	2555.86
207.47	2789.33
207.69	2621.40
207.91	2723.80
208.13	2979.79
208.34	2609.11
208.56	2451.42
208.78	2570.20
209.00	2615.26
209.22	2676.70
209.44	2531.29
209.66	2455.51
209.88	2621.40
210.10	2605.02
210.32	2514.91
210.54	2639.83
210.76	2670.55
210.98	2848.72
211.20	2320.35
211.42	2551.77
211.64	2959.31
211.86	2826.20
212.08	2557.91
212.30	2559.96
212.52	2621.40
212.74	2766.81
212.96	2598.87
213.17	2602.97
213.39	2828.24
213.61	3008.47
213.83	2588.63
214.05	2459.61
214.27	2801.62
214.49	2572.25
214.71	2535.39
214.93	2641.88
215.15	2709.46
215.37	2858.96
215.59	2396.12
215.81	2596.82
216.03	2914.26
216.24	2725.85
216.46	2527.19
216.68	2564.06
216.90	2760.66
217.12	2871.25
217.34	2482.14
217.56	2602.97
217.78	2897.88
218.00	2824.15
218.22	2557.91
218.44	2555.86
218.66	2713.56
218.87	2996.18
219.09	2527.19
219.31	2510.81
219.53	2797.53
219.75	2736.09
219.97	2586.58
220.19	2582.49
220.41	2695.13
220.63	2928.60
220.85	2484.19
221.06	2514.91
221.28	2938.84
221.50	2770.90
221.72	2525.15
221.94	2406.36
222.16	2645.98
222.38	2965.46
222.60	2469.85
222.82	2578.39
223.03	2791.38
223.25	2527.19
223.47	2488.28
223.69	2752.47
223.91	2846.68
224.13	2777.05
224.35	2422.75
224.57	2680.79
224.78	2748.37
225.00	2594.78
225.22	2531.29
225.44	2484.19
225.66	2760.66
225.88	2680.79
226.10	2600.92
226.32	2545.63
226.53	2916.31
226.75	2664.41
226.97	2545.63
227.19	2566.10
227.41	2617.30
227.63	2699.22
227.85	2363.36
228.06	2467.80
228.28	2734.04
228.50	2889.68
228.72	2361.31
228.94	2422.75
229.16	2478.04
229.37	2643.93
229.59	2457.56
229.81	2721.75
230.03	2633.69
230.25	2482.14
230.47	2441.18
230.69	2521.05
230.90	2854.87
231.12	2664.41
231.34	2641.88
231.56	2596.82
231.78	2562.01
232.00	2691.03
232.21	2490.33
232.43	2564.06
232.65	2441.18
232.87	2750.42
233.09	2396.12
233.30	2424.80
233.52	2922.45
233.74	2660.31
233.96	2432.99
234.18	2666.46
234.40	2654.17
234.61	3055.57
234.83	2412.51
235.05	2408.41
235.27	3067.86
235.49	2869.20
235.70	2478.04
235.92	2613.21
236.14	2824.15
236.36	3125.20
236.58	2422.75
236.79	2516.95
237.01	2711.51
237.23	2600.92
237.45	2744.28
237.67	2541.53
237.88	2791.38
238.10	2998.23
238.32	2480.09
238.54	2459.61
238.76	2748.37
238.97	2594.78
239.19	2457.56
239.41	2521.05
239.63	2764.76
239.85	2613.21
240.06	2545.63
240.28	2465.75
240.50	2885.59
240.72	2691.03
240.93	2441.18
241.15	2635.74
241.37	2738.13
241.59	2865.11
241.81	2537.43
242.02	2514.91
242.24	2715.61
242.46	2867.16
242.68	2338.78
242.89	2539.48
243.11	2828.24
243.33	2736.09
243.55	2521.05
243.76	2602.97
243.98	2570.20
244.20	2748.37
244.42	2498.52
244.64	2543.58
244.85	2512.86
245.07	2553.82
245.29	2525.15
245.51	2545.63
245.72	2750.42
245.94	2809.81
246.16	2559.96
246.38	2531.29
246.59	2703.32
246.81	2650.07
247.03	2443.23
247.24	2379.74
247.46	2562.01
247.68	2701.27
247.90	2449.37
248.11	2508.76
248.33	2736.09
248.55	2699.22
248.77	2580.44
248.98	2666.46
249.20	2996.18
249.42	2705.37
249.64	2467.80
249.85	2426.84
250.07	2564.06
250.29	2871.25
250.50	2629.59
250.72	2406.36
250.94	2772.95
251.16	3043.28
251.37	2492.38
251.59	2508.76
251.81	2830.29
252.02	2865.11
252.24	2471.90
252.46	2660.31
252.68	2621.40
252.89	2637.78
253.11	2408.41
253.33	2631.64
253.54	2975.70
253.76	2527.19
253.98	2543.58
254.20	2471.90
254.41	2551.77
254.63	2697.17
254.85	2408.41
255.06	2607.06
255.28	2756.57
255.50	2688.98
255.71	2512.86
255.93	2373.60
256.15	2711.51
256.36	2744.28
256.58	2432.99
256.80	2463.71
257.02	2725.85
257.23	2652.12
257.45	2551.77
257.67	2625.50
257.88	2578.39
258.10	2758.61
258.32	2469.85
258.53	2600.92
258.75	3037.14
258.97	2623.45
259.18	2480.09
259.40	2461.66
259.62	2965.46
259.83	2934.74
260.05	2592.73
260.27	3151.82
260.48	2828.24
260.70	2592.73
260.92	2422.75
261.13	2506.71
261.35	2799.57
261.57	2766.81
261.78	2416.60
262.00	2416.60
262.22	2760.66
262.43	2555.86
262.65	2496.47
262.86	2588.63
263.08	3045.33
263.30	2631.64
263.51	2410.46
263.73	2449.37
263.95	2916.31
264.16	2607.06
264.38	2414.56
264.60	2494.43
264.81	2654.17
265.03	2861.01
265.25	2820.05
265.46	2447.32
265.68	2916.31
265.89	2834.39
266.11	2383.84
266.33	2422.75
266.54	2856.92
266.76	2844.63
266.98	2516.95
267.19	2678.74
267.41	2879.44
267.62	2686.94
267.84	2297.82
268.06	2617.30
268.27	2740.18
268.49	2938.84
268.70	2572.25
268.92	2529.24
269.14	2633.69
269.35	2492.38
269.57	2588.63
269.79	2584.54
270.00	2625.50
270.22	2955.22
270.43	2428.89
270.65	2398.17
270.87	2791.38
271.08	2832.34
271.30	2625.50
271.51	2529.24
271.73	2791.38
271.95	2887.64
272.16	2469.85
272.38	2617.30
272.59	2699.22
272.81	2807.77
273.02	2516.95
273.24	2631.64
273.46	2850.77
273.67	2631.64
273.89	2357.21
274.10	2498.52
274.32	2838.48
274.54	2736.09
274.75	2635.74
274.97	2596.82
275.18	2846.68
275.40	2785.24
275.61	2533.34
275.83	2629.59
276.05	2574.30
276.26	2703.32
276.48	2635.74
276.69	2525.15
276.91	2664.41
277.12	2918.36
277.34	2637.78
277.55	2729.94
277.77	2797.53
277.99	2736.09
278.20	2564.06
278.42	2473.95
278.63	2645.98
278.85	2570.20
279.06	2594.78
279.28	2725.85
279.49	2842.58
279.71	2863.06
279.93	2713.56
280.14	2654.17
280.36	2639.83
280.57	2844.63
280.79	2668.50
281.00	2519.00
281.22	2674.65
281.43	2863.06
281.65	2355.16
281.86	2582.49
282.08	2805.72
282.29	2944.98
282.51	2482.14
282.73	2430.94
282.94	2547.67
283.16	2869.20
283.37	2715.61
283.59	2666.46
283.80	2695.13
284.02	2746.33
284.23	2660.31
284.45	2596.82
284.66	2559.96
284.88	2605.02
285.09	2582.49
285.31	2719.70
285.52	2803.67
285.74	2453.47
285.95	2748.37
286.17	2672.60
286.38	2830.29
286.60	2684.89
286.81	2494.43
287.03	2580.44
287.24	2742.23
287.46	2850.77
287.67	2717.65
287.89	2844.63
288.10	2697.17
288.32	2713.56
288.53	2752.47
288.75	2633.69
288.96	2770.90
289.18	2656.22
289.39	2570.20
289.61	2668.50
289.82	3043.28
290.04	3002.32
290.25	2506.71
290.47	2523.10
290.68	2727.89
290.90	2826.20
291.11	2430.94
291.33	2711.51
291.54	2674.65
291.76	2703.32
291.97	2635.74
292.18	2660.31
292.40	2725.85
292.61	2668.50
292.83	2867.16
293.04	2662.36
293.26	2691.03
293.47	2625.50
293.69	2496.47
293.90	2533.34
294.12	2830.29
294.33	2662.36
294.55	2676.70
294.76	2834.39
294.97	2951.12
295.19	2977.75
295.40	2598.87
295.62	2609.11
295.83	2834.39
296.05	2611.16
296.26	2762.71
296.48	2562.01
296.69	2715.61
296.90	2711.51
297.12	2742.23
297.33	2789.33
297.55	2764.76
297.76	2826.20
297.98	2662.36
298.19	2703.32
298.41	2731.99
298.62	2510.81
298.83	2803.67
299.05	2707.41
299.26	2631.64
299.48	2572.25
299.69	2643.93
299.90	2596.82
300.12	2594.78
300.33	2871.25
300.55	2621.40
300.76	2676.70
300.98	2578.39
301.19	2840.53
301.40	2519.00
301.62	2492.38
301.83	2811.86
302.05	2738.13
302.26	2590.68
302.47	2668.50
302.69	2547.67
302.90	2711.51
303.12	2439.13
303.33	2740.18
303.54	2987.99
303.76	2615.26
303.97	2631.64
304.19	2854.87
304.40	2568.15
304.61	2742.23
304.83	2797.53
305.04	2691.03
305.26	2834.39
305.47	2621.40
305.68	2652.12
305.90	2525.15
306.11	2932.69
306.33	2660.31
306.54	2494.43
306.75	2510.81
306.97	2482.14
307.18	2631.64
307.39	2580.44
307.61	2660.31
307.82	2731.99
308.04	2807.77
308.25	2504.67
308.46	2648.02
308.68	2721.75
308.89	2715.61
309.10	2758.61
309.32	2684.89
309.53	2731.99
309.74	2777.05
309.96	2580.44
310.17	2734.04
310.39	2637.78
310.60	2729.94
310.81	2611.16
311.03	2457.56
311.24	2838.48
311.45	2715.61
311.67	2871.25
311.88	2656.22
312.09	2705.37
312.31	2629.59
312.52	2600.92
312.73	2557.91
312.95	2539.48
313.16	2617.30
313.37	2670.55
313.59	2676.70
313.80	2793.43
314.01	2961.36
314.23	2572.25
314.44	2471.90
314.65	2523.10
314.87	2535.39
315.08	2549.72
315.29	2645.98
315.51	2602.97
315.72	2510.81
315.93	2625.50
316.15	2674.65
316.36	2555.86
316.57	2740.18
316.79	2605.02
317.00	2473.95
317.21	2807.77
317.43	2611.16
317.64	2678.74
317.85	2650.07
318.07	2615.26
318.28	2621.40
318.49	2688.98
318.70	2813.91
318.92	2758.61
319.13	2789.33
319.34	2764.76
319.56	2699.22
319.77	2744.28
319.98	2867.16
320.20	2785.24
320.41	2799.57
320.62	2777.05
320.83	2617.30
321.05	2797.53
321.26	2656.22
321.47	2711.51
321.69	2942.93
321.90	2441.18
322.11	2541.53
322.32	2705.37
322.54	2953.17
322.75	2578.39
322.96	3241.93
323.18	2486.23
323.39	2473.95
323.60	2506.71
323.81	2623.45
324.03	2703.32
324.24	2731.99
324.45	2686.94
324.66	2635.74
324.88	2891.73
325.09	2955.22
325.30	2582.49
325.52	2625.50
325.73	2699.22
325.94	2594.78
326.15	2498.52
326.37	2578.39
326.58	2844.63
326.79	2994.13
327.00	2492.38
327.22	2664.41
327.43	2537.43
327.64	2553.82
327.85	2709.46
328.07	2613.21
328.28	3006.42
328.49	2666.46
328.70	2619.35
328.92	2662.36
329.13	2672.60
329.34	2899.92
329.55	2789.33
329.76	2703.32
329.98	2686.94
330.19	2906.07
330.40	2731.99
330.61	2580.44
330.83	2887.64
331.04	2598.87
331.25	2717.65
331.46	2582.49
331.68	2510.81
331.89	2891.73
332.10	2654.17
332.31	2498.52
332.52	2664.41
332.74	2879.44
332.95	2488.28
333.16	2635.74
333.37	2818.00
333.58	2748.37
333.80	2680.79
334.01	2351.07
334.22	2713.56
334.43	2576.34
334.64	2586.58
334.86	2541.53
335.07	2625.50
335.28	2979.79
335.49	2529.24
335.70	2703.32
335.92	2930.64
336.13	3088.34
336.34	2688.98
336.55	2619.35
336.76	2842.58
336.98	2439.13
337.19	2697.17
337.40	2666.46
337.61	3110.86
337.82	2695.13
338.04	2680.79
338.25	2443.23
338.46	2723.80
338.67	2621.40
338.88	2549.72
339.09	2551.77
339.31	2654.17
339.52	2531.29
339.73	2498.52
339.94	2639.83
340.15	2801.62
340.36	2590.68
340.58	2684.89
340.79	2527.19
341.00	2811.86
341.21	2467.80
341.42	2789.33
341.63	2629.59
341.85	2828.24
342.06	2734.04
342.27	2578.39
342.48	2727.89
342.69	2557.91
342.90	2752.47
343.12	2723.80
343.33	2537.43
343.54	2834.39
343.75	2869.20
343.96	2668.50
344.17	2564.06
344.38	2668.50
344.60	2625.50
344.81	2529.24
345.02	2625.50
345.23	2899.92
345.44	3063.76
345.65	2740.18
345.86	2641.88
346.07	2799.57
346.29	2615.26
346.50	2742.23
346.71	2695.13
346.92	2899.92
347.13	3133.39
347.34	2678.74
347.55	2488.28
347.76	2791.38
347.98	2478.04
348.19	2637.78
348.40	2729.94
348.61	2654.17
348.82	2942.93
349.03	2748.37
349.24	2461.66
349.45	3002.32
349.66	2490.33
349.88	2562.01
350.09	2537.43
350.30	2951.12
350.51	2877.40
350.72	2656.22
350.93	2688.98
351.14	2717.65
351.35	2731.99
351.56	2645.98
351.77	2682.84
351.99	2762.71
352.20	2863.06
352.41	2709.46
352.62	2357.21
352.83	2736.09
353.04	2750.42
353.25	2607.06
353.46	2641.88
353.67	2893.78
353.88	2490.33
354.09	2557.91
354.30	2652.12
354.52	2756.57
354.73	2658.26
354.94	2541.53
355.15	2693.08
355.36	3076.05
355.57	2650.07
355.78	2627.54
355.99	2490.33
356.20	2666.46
356.41	2879.44
356.62	2662.36
356.83	2670.55
357.04	2899.92
357.25	2475.99
357.46	2572.25
357.68	2488.28
357.89	2613.21
358.10	2744.28
358.31	2586.58
358.52	2598.87
358.73	2555.86
358.94	2523.10
359.15	2564.06
359.36	2658.26
359.57	2744.28
359.78	2693.08
359.99	2746.33
360.20	2519.00
360.41	2686.94
360.62	2762.71
360.83	2719.70
361.04	2613.21
361.25	2723.80
361.46	2932.69
361.67	2768.85
361.88	2666.46
362.09	2815.96
362.30	2764.76
362.51	2627.54
362.72	2648.02
362.93	2832.34
363.14	2818.00
363.35	2645.98
363.56	2527.19
363.78	2889.68
363.99	2832.34
364.20	2629.59
364.41	2727.89
364.62	3051.47
364.83	2785.24
365.04	2600.92
365.25	2578.39
365.46	3026.90
365.67	2494.43
365.88	2697.17
366.09	2490.33
366.30	2703.32
366.51	2793.43
366.72	2469.85
366.93	2629.59
367.14	2738.13
367.35	2973.65
367.56	2750.42
367.77	2811.86
367.98	2754.52
368.18	2758.61
368.39	2750.42
368.60	2506.71
368.81	2852.82
369.02	2781.14
369.23	2648.02
369.44	2525.15
369.65	2721.75
369.86	2789.33
370.07	2717.65
370.28	2502.62
370.49	2807.77
370.70	2766.81
370.91	2514.91
371.12	2498.52
371.33	2875.35
371.54	2664.41
371.75	2764.76
371.96	2400.22
372.17	2746.33
372.38	2672.60
372.59	2623.45
372.80	2574.30
373.01	2688.98
373.22	2764.76
373.43	2625.50
373.64	2539.48
373.85	2891.73
374.06	2975.70
374.26	2764.76
374.47	2688.98
374.68	3006.42
374.89	2754.52
375.10	2525.15
375.31	2693.08
375.52	2670.55
375.73	2703.32
375.94	2484.19
376.15	2715.61
376.36	2629.59
376.57	2625.50
376.78	2641.88
376.99	2637.78
377.20	2936.79
377.40	2660.31
377.61	2848.72
377.82	2566.10
378.03	2971.60
378.24	2850.77
378.45	2703.32
378.66	2721.75
378.87	2428.89
379.08	2535.39
379.29	2527.19
379.50	2844.63
379.71	2670.55
379.91	2748.37
380.12	2617.30
380.33	2662.36
380.54	2645.98
380.75	2777.05
380.96	2570.20
381.17	2645.98
381.38	2711.51
381.59	2736.09
381.80	2658.26
382.00	2760.66
382.21	2736.09
382.42	2899.92
382.63	2981.84
382.84	2717.65
383.05	2863.06
383.26	2977.75
383.47	2760.66
383.68	2639.83
383.88	2772.95
384.09	2791.38
384.30	2834.39
384.51	2627.54
384.72	2656.22
384.93	2553.82
385.14	2658.26
385.35	2787.29
385.55	2584.54
385.76	2879.44
385.97	2723.80
386.18	2471.90
386.39	2555.86
386.60	2750.42
386.81	2637.78
387.02	2564.06
387.22	2559.96
387.43	2877.40
387.64	2756.57
387.85	2887.64
388.06	2756.57
388.27	3960.77
388.48	7505.81
388.68	10762.08
388.89	13395.76
389.10	14346.02
389.31	13680.43
389.52	10702.68
389.73	9400.18
389.93	8599.42
390.14	7884.68
390.35	7024.53
390.56	6404.00
390.77	5234.61
390.98	4061.12
391.18	3456.97
391.39	3168.21
391.60	2748.37
391.81	2842.58
392.02	2656.22
392.23	2992.08
392.43	2785.24
392.64	2768.85
392.85	2695.13
393.06	3033.04
393.27	2715.61
393.47	2578.39
393.68	2643.93
393.89	2699.22
394.10	2813.91
394.31	2568.15
394.52	2535.39
394.72	2598.87
394.93	2957.27
395.14	2551.77
395.35	2756.57
395.56	2592.73
395.76	2738.13
395.97	2625.50
396.18	2787.29
396.39	2795.48
396.60	3233.74
396.80	2942.93
397.01	2797.53
397.22	2899.92
397.43	2930.64
397.64	2557.91
397.84	2791.38
398.05	3088.34
398.26	2717.65
398.47	2772.95
398.67	2805.72
398.88	2707.41
399.09	2832.34
399.30	2611.16
399.51	2731.99
399.71	2559.96
399.92	2666.46
400.13	2760.66
400.34	2656.22
400.54	2676.70
400.75	2891.73
400.96	2672.60
401.17	2883.54
401.37	2818.00
401.58	2760.66
401.79	2609.11
402.00	2721.75
402.21	3022.80
402.41	2975.70
402.62	2938.84
402.83	3022.80
403.04	3102.67
403.24	3350.48
403.45	2727.89
403.66	2940.88
403.87	2848.72
404.07	3033.04
404.28	2942.93
404.49	2858.96
404.70	2824.15
404.90	2768.85
405.11	2701.27
405.32	2686.94
405.52	2623.45
405.73	2678.74
405.94	2586.58
406.15	2707.41
406.35	2807.77
406.56	2775.00
406.77	2658.26
406.98	2678.74
407.18	2641.88
407.39	3041.23
407.60	2656.22
407.80	2748.37
408.01	2666.46
408.22	2838.48
408.43	2627.54
408.63	2787.29
408.84	2793.43
409.05	2932.69
409.25	2555.86
409.46	2582.49
409.67	2680.79
409.88	2578.39
410.08	2721.75
410.29	2672.60
410.50	2807.77
410.70	2852.82
410.91	2582.49
411.12	2793.43
411.32	2801.62
411.53	2592.73
411.74	2725.85
411.95	2740.18
412.15	2717.65
412.36	2770.90
412.57	2818.00
412.77	2813.91
412.98	2666.46
413.19	2682.84
413.39	2666.46
413.60	2625.50
413.81	2924.50
414.01	2547.67
414.22	2627.54
414.43	2783.19
414.63	2680.79
414.84	2918.36
415.05	2596.82
415.25	2494.43
415.46	2908.12
415.67	2633.69
415.87	2707.41
416.08	2631.64
416.29	2699.22
416.49	2908.12
416.70	2586.58
416.91	2654.17
417.11	2648.02
417.32	2873.30
417.53	2760.66
417.73	2748.37
417.94	2688.98
418.15	2758.61
418.35	2729.94
418.56	2717.65
418.77	3065.81
418.97	2756.57
419.18	2717.65
419.38	2349.02
419.59	2787.29
419.80	2912.21
420.00	2584.54
420.21	2664.41
420.42	2959.31
420.62	2781.14
420.83	2635.74
421.04	2654.17
421.24	2684.89
421.45	2801.62
421.65	2756.57
421.86	2629.59
422.07	2807.77
422.27	2809.81
422.48	2641.88
422.69	2494.43
422.89	2748.37
423.10	2617.30
423.30	2531.29
423.51	2719.70
423.72	2758.61
423.92	2830.29
424.13	2543.58
424.33	2772.95
424.54	2875.35
424.75	2758.61
424.95	2820.05
425.16	2680.79
425.36	2662.36
425.57	2883.54
425.78	2686.94
425.98	2740.18
426.19	2619.35
426.39	2629.59
426.60	2686.94
426.81	2775.00
427.01	2797.53
427.22	2586.58
427.42	2465.75
427.63	2584.54
427.83	2793.43
428.04	2916.31
428.25	2811.86
428.45	2842.58
428.66	2830.29
428.86	2693.08
429.07	2572.25
429.28	2719.70
429.48	2695.13
429.69	2602.97
429.89	2643.93
430.10	2510.81
430.30	2793.43
430.51	2895.83
430.71	2545.63
430.92	2615.26
431.13	2695.13
431.33	2807.77
431.54	2731.99
431.74	2846.68
431.95	3080.14
432.15	2617.30
432.36	2576.34
432.56	2658.26
432.77	3020.75
432.98	2955.22
433.18	2678.74
433.39	2611.16
433.59	2721.75
433.80	3008.47
434.00	2793.43
434.21	2652.12
434.41	2660.31
434.62	3055.57
434.82	2539.48
435.03	2596.82
435.23	2789.33
435.44	2480.09
435.64	2637.78
435.85	2746.33
436.06	2844.63
436.26	2809.81
436.47	2596.82
436.67	2568.15
436.88	2721.75
437.08	2955.22
437.29	2660.31
437.49	2752.47
437.70	2912.21
437.90	2711.51
438.11	2883.54
438.31	2738.13
438.52	2912.21
438.72	2807.77
438.93	2992.08
439.13	2705.37
439.34	2822.10
439.54	2738.13
439.75	2715.61
439.95	2727.89
440.16	2617.30
440.36	2740.18
440.57	2658.26
440.77	2611.16
440.98	2643.93
441.18	2848.72
441.39	2635.74
441.59	2590.68
441.80	3082.19
442.00	2676.70
442.21	2777.05
442.41	2457.56
442.62	2840.53
442.82	2594.78
443.02	2586.58
443.23	2713.56
443.43	2650.07
443.64	2918.36
443.84	2574.30
444.05	2746.33
444.25	2807.77
444.46	2635.74
444.66	2654.17
444.87	2844.63
445.07	2461.66
445.28	2715.61
445.48	2840.53
445.69	2766.81
445.89	3071.95
446.09	2635.74
446.30	2928.60
446.50	3063.76
446.71	4485.05
446.91	5554.09
447.12	6528.92
447.32	6838.17
447.53	6565.79
447.73	5380.01
447.93	4730.81
448.14	4550.59
448.34	4509.63
448.55	3745.73
448.75	3809.22
448.96	3635.14
449.16	3424.20
449.36	3227.60
449.57	2893.78
449.77	2746.33
449.98	2703.32
450.18	2848.72
450.39	2615.26
450.59	2795.48
450.79	2670.55
451.00	2699.22
451.20	2834.39
451.41	2688.98
451.61	2740.18
451.81	2750.42
452.02	2590.68
452.22	2684.89
452.43	2660.31
452.63	2754.52
