SpectraSuite Data File
++++++++++++++++++++++++++++++++++++
Date: Thu May 05 16:20:33 CEST 2016
User: root
Dark Spectrum Present: No
Reference Spectrum Present: No
Number of Sampled Component Spectra: 1
Spectrometers: USB4C02835
Integration Time (usec): 100000 (USB4C02835)
Spectra Averaged: 1 (USB4C02835)
Boxcar Smoothing: 0 (USB4C02835)
Correct for Electrical Dark: No (USB4C02835)
Strobe/Lamp Enabled: No (USB4C02835)
Correct for Detector Non-linearity: No (USB4C02835)
Correct for Stray Light: No (USB4C02835)
Number of Pixels in Processed Spectrum: 3648
>>>>>Begin Processed Spectral Data<<<<<
177.47	2021.35
177.69	2021.35
177.91	2021.35
178.13	2031.58
178.36	2017.25
178.58	2529.24
178.80	2727.89
179.02	2555.86
179.24	2613.21
179.46	2525.15
179.68	2521.05
179.90	2752.47
180.13	2680.79
180.35	2385.88
180.57	2387.93
180.79	2791.38
181.01	2676.70
181.23	2490.33
181.45	2621.40
181.67	2848.72
181.90	2824.15
182.12	2578.39
182.34	2367.45
182.56	2838.48
182.78	2756.57
183.00	2498.52
183.22	2508.76
183.44	2424.80
183.66	3051.47
183.89	2621.40
184.11	2564.06
184.33	2758.61
184.55	2904.02
184.77	2482.14
184.99	2504.67
185.21	2658.26
185.43	3131.34
185.65	2602.97
185.87	2451.42
186.10	3026.90
186.32	3092.43
186.54	2662.36
186.76	2574.30
186.98	2932.69
187.20	2668.50
187.42	2521.05
187.64	2547.67
187.86	2809.81
188.08	2838.48
188.30	2426.84
188.52	2592.73
188.75	2865.11
188.97	2916.31
189.19	2467.80
189.41	2496.47
189.63	2811.86
189.85	2758.61
190.07	2451.42
190.29	2367.45
190.51	2740.18
190.73	2572.25
190.95	2621.40
191.17	2559.96
191.39	2502.62
191.61	2639.83
191.84	2494.43
192.06	2543.58
192.28	2543.58
192.50	3168.21
192.72	2572.25
192.94	2541.53
193.16	2848.72
193.38	2809.81
193.60	2459.61
193.82	2586.58
194.04	2873.30
194.26	2873.30
194.48	2496.47
194.70	2531.29
194.92	2625.50
195.14	2799.57
195.36	2469.85
195.58	2598.87
195.80	2725.85
196.02	2639.83
196.24	2480.09
196.46	2621.40
196.69	2580.44
196.91	3145.68
197.13	2521.05
197.35	2711.51
197.57	2977.75
197.79	2918.36
198.01	2553.82
198.23	2643.93
198.45	2752.47
198.67	2525.15
198.89	2480.09
199.11	2613.21
199.33	2670.55
199.55	2469.85
199.77	2545.63
199.99	2613.21
200.21	2611.16
200.43	2752.47
200.65	2400.22
200.87	2418.65
201.09	2768.85
201.31	2715.61
201.53	2576.34
201.75	2543.58
201.97	2684.89
202.19	2746.33
202.41	2566.10
202.63	2699.22
202.85	2826.20
203.07	2729.94
203.29	2512.86
203.51	2471.90
203.73	2629.59
203.95	3172.30
204.17	2516.95
204.39	2570.20
204.61	2709.46
204.83	2613.21
205.05	2652.12
205.27	2613.21
205.49	3014.61
205.71	2719.70
205.93	2396.12
206.15	2420.70
206.37	2664.41
206.59	2727.89
206.81	2385.88
207.03	2410.46
207.25	2570.20
207.47	2803.67
207.69	2527.19
207.91	2742.23
208.13	2977.75
208.34	2629.59
208.56	2490.33
208.78	2590.68
209.00	2750.42
209.22	2613.21
209.44	2496.47
209.66	2482.14
209.88	2848.72
210.10	2660.31
210.32	2473.95
210.54	2652.12
210.76	2676.70
210.98	2815.96
211.20	2365.40
211.42	2641.88
211.64	2899.92
211.86	2901.97
212.08	2572.25
212.30	2465.75
212.52	2686.94
212.74	2791.38
212.96	2613.21
213.17	2527.19
213.39	2871.25
213.61	2908.12
213.83	2562.01
214.05	2453.47
214.27	2824.15
214.49	2574.30
214.71	2502.62
214.93	2553.82
215.15	2772.95
215.37	2852.82
215.59	2521.05
215.81	2578.39
216.03	2887.64
216.24	2670.55
216.46	2535.39
216.68	2592.73
216.90	2787.29
217.12	2893.78
217.34	2422.75
217.56	2645.98
217.78	2928.60
218.00	2797.53
218.22	2559.96
218.44	2576.34
218.66	2693.08
218.87	3033.04
219.09	2494.43
219.31	2578.39
219.53	2799.57
219.75	2674.65
219.97	2490.33
220.19	2502.62
220.41	2727.89
220.63	2971.60
220.85	2598.87
221.06	2484.19
221.28	2871.25
221.50	2813.91
221.72	2594.78
221.94	2475.99
222.16	2729.94
222.38	2842.58
222.60	2555.86
222.82	2568.15
223.03	2848.72
223.25	2539.48
223.47	2523.10
223.69	2736.09
223.91	2906.07
224.13	2813.91
224.35	2422.75
224.57	2727.89
224.78	2840.53
225.00	2545.63
225.22	2568.15
225.44	2516.95
225.66	2760.66
225.88	2582.49
226.10	2641.88
226.32	2543.58
226.53	2906.07
226.75	2740.18
226.97	2537.43
227.19	2592.73
227.41	2627.54
227.63	2553.82
227.85	2381.79
228.06	2562.01
228.28	2775.00
228.50	2818.00
228.72	2377.69
228.94	2506.71
229.16	2498.52
229.37	2553.82
229.59	2418.65
229.81	2787.29
230.03	2621.40
230.25	2480.09
230.47	2398.17
230.69	2383.84
230.90	2838.48
231.12	2639.83
231.34	2564.06
231.56	2576.34
231.78	2564.06
232.00	2705.37
232.21	2549.72
232.43	2525.15
232.65	2437.08
232.87	2760.66
233.09	2408.41
233.30	2447.32
233.52	2869.20
233.74	2756.57
233.96	2494.43
234.18	2611.16
234.40	2709.46
234.61	3026.90
234.83	2420.70
235.05	2471.90
235.27	3143.63
235.49	2904.02
235.70	2422.75
235.92	2600.92
236.14	2826.20
236.36	3012.56
236.58	2420.70
236.79	2562.01
237.01	2719.70
237.23	2715.61
237.45	2680.79
237.67	2467.80
237.88	2748.37
238.10	2930.64
238.32	2424.80
238.54	2471.90
238.76	2703.32
238.97	2641.88
239.19	2432.99
239.41	2625.50
239.63	2867.16
239.85	2676.70
240.06	2572.25
240.28	2484.19
240.50	2899.92
240.72	2746.33
240.93	2353.12
241.15	2666.46
241.37	2719.70
241.59	2924.50
241.81	2514.91
242.02	2531.29
242.24	2717.65
242.46	2756.57
242.68	2410.46
242.89	2527.19
243.11	2826.20
243.33	2701.27
243.55	2572.25
243.76	2553.82
243.98	2605.02
244.20	2752.47
244.42	2490.33
244.64	2533.34
244.85	2607.06
245.07	2627.54
245.29	2582.49
245.51	2553.82
245.72	2766.81
245.94	2813.91
246.16	2402.27
246.38	2482.14
246.59	2617.30
246.81	2629.59
247.03	2496.47
247.24	2394.08
247.46	2656.22
247.68	2813.91
247.90	2443.23
248.11	2531.29
248.33	2877.40
248.55	2703.32
248.77	2496.47
248.98	2584.54
249.20	2967.51
249.42	2762.71
249.64	2488.28
249.85	2467.80
250.07	2625.50
250.29	2893.78
250.50	2617.30
250.72	2412.51
250.94	2717.65
251.16	3051.47
251.37	2449.37
251.59	2531.29
251.81	2826.20
252.02	2953.17
252.24	2420.70
252.46	2621.40
252.68	2637.78
252.89	2541.53
253.11	2428.89
253.33	2641.88
253.54	2965.46
253.76	2541.53
253.98	2453.47
254.20	2533.34
254.41	2592.73
254.63	2758.61
254.85	2357.21
255.06	2584.54
255.28	2799.57
255.50	2658.26
255.71	2512.86
255.93	2328.54
256.15	2703.32
256.36	2832.34
256.58	2381.79
256.80	2502.62
257.02	2627.54
257.23	2627.54
257.45	2529.24
257.67	2627.54
257.88	2664.41
258.10	2772.95
258.32	2488.28
258.53	2629.59
258.75	2957.27
258.97	2625.50
259.18	2430.94
259.40	2482.14
259.62	3010.51
259.83	2916.31
260.05	2590.68
260.27	3196.88
260.48	2824.15
260.70	2545.63
260.92	2430.94
261.13	2529.24
261.35	2717.65
261.57	2770.90
261.78	2346.97
262.00	2453.47
262.22	2873.30
262.43	2650.07
262.65	2510.81
262.86	2672.60
263.08	3088.34
263.30	2856.92
263.51	2367.45
263.73	2494.43
263.95	2938.84
264.16	2613.21
264.38	2441.18
264.60	2527.19
264.81	2678.74
265.03	2842.58
265.25	2777.05
265.46	2475.99
265.68	2879.44
265.89	2815.96
266.11	2400.22
266.33	2496.47
266.54	2930.64
266.76	2723.80
266.98	2621.40
267.19	2596.82
267.41	2957.27
267.62	2713.56
267.84	2398.17
268.06	2637.78
268.27	2742.23
268.49	2951.12
268.70	2568.15
268.92	2512.86
269.14	2559.96
269.35	2531.29
269.57	2584.54
269.79	2633.69
270.00	2629.59
270.22	2920.40
270.43	2490.33
270.65	2322.40
270.87	2793.43
271.08	2854.87
271.30	2557.91
271.51	2529.24
271.73	2762.71
271.95	2885.59
272.16	2508.76
272.38	2652.12
272.59	2678.74
272.81	2852.82
273.02	2482.14
273.24	2549.72
273.46	2818.00
273.67	2572.25
273.89	2392.03
274.10	2496.47
274.32	2832.34
274.54	2811.86
274.75	2662.36
274.97	2559.96
275.18	2838.48
275.40	2793.43
275.61	2596.82
275.83	2658.26
276.05	2600.92
276.26	2717.65
276.48	2592.73
276.69	2516.95
276.91	2688.98
277.12	2850.77
277.34	2637.78
277.55	2779.09
277.77	2715.61
277.99	2688.98
278.20	2562.01
278.42	2396.12
278.63	2631.64
278.85	2529.24
279.06	2539.48
279.28	2699.22
279.49	2885.59
279.71	2822.10
279.93	2697.17
280.14	2605.02
280.36	2590.68
280.57	2887.64
280.79	2652.12
281.00	2510.81
281.22	2586.58
281.43	2953.17
281.65	2420.70
281.86	2508.76
282.08	2838.48
282.29	3000.27
282.51	2529.24
282.73	2445.27
282.94	2437.08
283.16	2840.53
283.37	2777.05
283.59	2623.45
283.80	2742.23
284.02	2826.20
284.23	2625.50
284.45	2645.98
284.66	2594.78
284.88	2531.29
285.09	2541.53
285.31	2723.80
285.52	2791.38
285.74	2527.19
285.95	2703.32
286.17	2625.50
286.38	2824.15
286.60	2709.46
286.81	2535.39
287.03	2596.82
287.24	2820.05
287.46	2785.24
287.67	2633.69
287.89	2818.00
288.10	2785.24
288.32	2713.56
288.53	2725.85
288.75	2627.54
288.96	2797.53
289.18	2613.21
289.39	2572.25
289.61	2668.50
289.82	2973.65
290.04	3024.85
290.25	2473.95
290.47	2584.54
290.68	2652.12
290.90	2867.16
291.11	2447.32
291.33	2742.23
291.54	2596.82
291.76	2699.22
291.97	2693.08
292.18	2658.26
292.40	2719.70
292.61	2572.25
292.83	2889.68
293.04	2686.94
293.26	2664.41
293.47	2695.13
293.69	2553.82
293.90	2568.15
294.12	2867.16
294.33	2623.45
294.55	2645.98
294.76	2756.57
294.97	2858.96
295.19	2975.70
295.40	2555.86
295.62	2674.65
295.83	2858.96
296.05	2621.40
296.26	2818.00
296.48	2650.07
296.69	2715.61
296.90	2691.03
297.12	2721.75
297.33	2754.52
297.55	2758.61
297.76	2850.77
297.98	2703.32
298.19	2635.74
298.41	2703.32
298.62	2582.49
298.83	2815.96
299.05	2629.59
299.26	2637.78
299.48	2547.67
299.69	2723.80
299.90	2566.10
300.12	2600.92
300.33	2797.53
300.55	2650.07
300.76	2691.03
300.98	2539.48
301.19	2766.81
301.40	2580.44
301.62	2619.35
301.83	2785.24
302.05	2727.89
302.26	2553.82
302.47	2721.75
302.69	2635.74
302.90	2772.95
303.12	2414.56
303.33	2648.02
303.54	2910.16
303.76	2611.16
303.97	2605.02
304.19	2830.29
304.40	2633.69
304.61	2785.24
304.83	2715.61
305.04	2756.57
305.26	2768.85
305.47	2576.34
305.68	2654.17
305.90	2504.67
306.11	2846.68
306.33	2643.93
306.54	2510.81
306.75	2596.82
306.97	2547.67
307.18	2621.40
307.39	2555.86
307.61	2643.93
307.82	2711.51
308.04	2736.09
308.25	2535.39
308.46	2666.46
308.68	2674.65
308.89	2703.32
309.10	2674.65
309.32	2674.65
309.53	2762.71
309.74	2758.61
309.96	2664.41
310.17	2686.94
310.39	2609.11
310.60	2764.76
310.81	2621.40
311.03	2447.32
311.24	2820.05
311.45	2691.03
311.67	2820.05
311.88	2711.51
312.09	2650.07
312.31	2705.37
312.52	2568.15
312.73	2557.91
312.95	2519.00
313.16	2596.82
313.37	2686.94
313.59	2760.66
313.80	2818.00
314.01	2928.60
314.23	2588.63
314.44	2578.39
314.65	2478.04
314.87	2582.49
315.08	2598.87
315.29	2596.82
315.51	2588.63
315.72	2469.85
315.93	2703.32
316.15	2662.36
316.36	2662.36
316.57	2752.47
316.79	2645.98
317.00	2629.59
317.21	2686.94
317.43	2598.87
317.64	2662.36
317.85	2486.23
318.07	2539.48
318.28	2684.89
318.49	2756.57
318.70	2801.62
318.92	2803.67
319.13	2873.30
319.34	2822.10
319.56	2584.54
319.77	2822.10
319.98	3030.99
320.20	2695.13
320.41	2758.61
320.62	2805.72
320.83	2519.00
321.05	2791.38
321.26	2598.87
321.47	2736.09
321.69	2846.68
321.90	2547.67
322.11	2521.05
322.32	2856.92
322.54	2899.92
322.75	2648.02
322.96	3143.63
323.18	2545.63
323.39	2469.85
323.60	2521.05
323.81	2809.81
324.03	2631.64
324.24	2731.99
324.45	2684.89
324.66	2572.25
324.88	2932.69
325.09	2977.75
325.30	2609.11
325.52	2574.30
325.73	2783.19
325.94	2629.59
326.15	2398.17
326.37	2539.48
326.58	2822.10
326.79	2975.70
327.00	2527.19
327.22	2594.78
327.43	2664.41
327.64	2514.91
327.85	2656.22
328.07	2635.74
328.28	3045.33
328.49	2672.60
328.70	2678.74
328.92	2686.94
329.13	2721.75
329.34	2717.65
329.55	2854.87
329.76	2770.90
329.98	2715.61
330.19	3026.90
330.40	2748.37
330.61	2678.74
330.83	2891.73
331.04	2545.63
331.25	2717.65
331.46	2637.78
331.68	2557.91
331.89	2895.83
332.10	2629.59
332.31	2445.27
332.52	2674.65
332.74	2858.96
332.95	2430.94
333.16	2598.87
333.37	2863.06
333.58	2621.40
333.80	2615.26
334.01	2400.22
334.22	2637.78
334.43	2580.44
334.64	2572.25
334.86	2494.43
335.07	2562.01
335.28	2977.75
335.49	2473.95
335.70	2580.44
335.92	2916.31
336.13	2973.65
336.34	2650.07
336.55	2559.96
336.76	2709.46
336.98	2410.46
337.19	2570.20
337.40	2731.99
337.61	3020.75
337.82	2695.13
338.04	2672.60
338.25	2443.23
338.46	2662.36
338.67	2736.09
338.88	2553.82
339.09	2498.52
339.31	2539.48
339.52	2531.29
339.73	2555.86
339.94	2645.98
340.15	2820.05
340.36	2752.47
340.58	2650.07
340.79	2490.33
341.00	2772.95
341.21	2533.34
341.42	2838.48
341.63	2635.74
341.85	2830.29
342.06	2734.04
342.27	2539.48
342.48	2680.79
342.69	2562.01
342.90	2727.89
343.12	2818.00
343.33	2602.97
343.54	2824.15
343.75	2885.59
343.96	2686.94
344.17	2539.48
344.38	2750.42
344.60	2592.73
344.81	2514.91
345.02	2533.34
345.23	2854.87
345.44	3074.00
345.65	2697.17
345.86	2738.13
346.07	2785.24
346.29	2539.48
346.50	2658.26
346.71	2699.22
346.92	2977.75
347.13	3041.23
347.34	2645.98
347.55	2596.82
347.76	2807.77
347.98	2559.96
348.19	2645.98
348.40	2752.47
348.61	2676.70
348.82	2957.27
349.03	2688.98
349.24	2551.77
349.45	3092.43
349.66	2396.12
349.88	2588.63
350.09	2453.47
350.30	2912.21
350.51	2992.08
350.72	2801.62
350.93	2641.88
351.14	2699.22
351.35	2895.83
351.56	2588.63
351.77	2609.11
351.99	2865.11
352.20	2926.55
352.41	2709.46
352.62	2486.23
352.83	2770.90
353.04	2760.66
353.25	2625.50
353.46	2674.65
353.67	2895.83
353.88	2398.17
354.09	2643.93
354.30	2576.34
354.52	2916.31
354.73	2705.37
354.94	2592.73
355.15	2674.65
355.36	3002.32
355.57	2668.50
355.78	2590.68
355.99	2539.48
356.20	2666.46
356.41	2875.35
356.62	2701.27
356.83	2643.93
357.04	2856.92
357.25	2492.38
357.46	2562.01
357.68	2435.03
357.89	2586.58
358.10	2731.99
358.31	2650.07
358.52	2627.54
358.73	2516.95
358.94	2582.49
359.15	2572.25
359.36	2652.12
359.57	2736.09
359.78	2693.08
359.99	2750.42
360.20	2549.72
360.41	2645.98
360.62	2834.39
360.83	2619.35
361.04	2738.13
361.25	2867.16
361.46	2975.70
361.67	2744.28
361.88	2615.26
362.09	2877.40
362.30	2799.57
362.51	2525.15
362.72	2680.79
362.93	2854.87
363.14	2811.86
363.35	2746.33
363.56	2510.81
363.78	2803.67
363.99	2852.82
364.20	2500.57
364.41	2678.74
364.62	3022.80
364.83	2787.29
365.04	2660.31
365.25	2658.26
365.46	2983.89
365.67	2709.46
365.88	2686.94
366.09	2555.86
366.30	2594.78
366.51	2744.28
366.72	2519.00
366.93	2656.22
367.14	2695.13
367.35	2891.73
367.56	2611.16
367.77	2762.71
367.98	2693.08
368.18	2811.86
368.39	2678.74
368.60	2508.76
368.81	2781.14
369.02	2719.70
369.23	2635.74
369.44	2531.29
369.65	2654.17
369.86	2830.29
370.07	2734.04
370.28	2502.62
370.49	2801.62
370.70	2770.90
370.91	2467.80
371.12	2496.47
371.33	2803.67
371.54	2629.59
371.75	2736.09
371.96	2439.13
372.17	2783.19
372.38	2691.03
372.59	2670.55
372.80	2594.78
373.01	2633.69
373.22	2723.80
373.43	2654.17
373.64	2449.37
373.85	2940.88
374.06	2977.75
374.26	2752.47
374.47	2703.32
374.68	2877.40
374.89	2793.43
375.10	2668.50
375.31	2652.12
375.52	2693.08
375.73	2697.17
375.94	2475.99
376.15	2688.98
376.36	2611.16
376.57	2721.75
376.78	2582.49
376.99	2598.87
377.20	2908.12
377.40	2668.50
377.61	2795.48
377.82	2539.48
378.03	2932.69
378.24	2852.82
378.45	2725.85
378.66	2668.50
378.87	2475.99
379.08	2564.06
379.29	2590.68
379.50	2781.14
379.71	2619.35
379.91	2846.68
380.12	2596.82
380.33	2711.51
380.54	2783.19
380.75	2631.64
380.96	2625.50
381.17	2731.99
381.38	2738.13
381.59	2674.65
381.80	2664.41
382.00	2824.15
382.21	2805.72
382.42	3004.37
382.63	2885.59
382.84	2686.94
383.05	2838.48
383.26	2985.94
383.47	2668.50
383.68	2582.49
383.88	2826.20
384.09	2693.08
384.30	2895.83
384.51	2727.89
384.72	2709.46
384.93	2572.25
385.14	2721.75
385.35	2824.15
385.55	2543.58
385.76	2883.54
385.97	2656.22
386.18	2625.50
386.39	2588.63
386.60	2660.31
386.81	2521.05
387.02	2449.37
387.22	2602.97
387.43	2764.76
387.64	2791.38
387.85	2873.30
388.06	2813.91
388.27	4091.84
388.48	7616.40
388.68	11102.04
388.89	13545.27
389.10	14833.44
389.31	13958.96
389.52	11007.83
389.73	9602.93
389.93	8646.52
390.14	7927.69
390.35	7126.93
390.56	6543.26
390.77	5291.95
390.98	4087.75
391.18	3461.07
391.39	3168.21
391.60	2744.28
391.81	2791.38
392.02	2658.26
392.23	3057.62
392.43	2754.52
392.64	2873.30
392.85	2713.56
393.06	2955.22
393.27	2754.52
393.47	2527.19
393.68	2625.50
393.89	2660.31
394.10	2826.20
394.31	2594.78
394.52	2605.02
394.72	2652.12
394.93	3059.67
395.14	2516.95
395.35	2756.57
395.56	2684.89
395.76	2750.42
395.97	2621.40
396.18	2701.27
396.39	2721.75
396.60	3293.13
396.80	2928.60
397.01	2813.91
397.22	2906.07
397.43	2908.12
397.64	2631.64
397.84	2750.42
398.05	3055.57
398.26	2731.99
398.47	2791.38
398.67	2779.09
398.88	2688.98
399.09	2832.34
399.30	2580.44
399.51	2660.31
399.71	2596.82
399.92	2676.70
400.13	2643.93
400.34	2625.50
400.54	2709.46
400.75	2977.75
400.96	2676.70
401.17	2920.40
401.37	2768.85
401.58	2723.80
401.79	2629.59
402.00	2834.39
402.21	3243.98
402.41	2961.36
402.62	2930.64
402.83	3004.37
403.04	3188.69
403.24	3309.52
403.45	2748.37
403.66	2920.40
403.87	2926.55
404.07	3030.99
404.28	2916.31
404.49	2897.88
404.70	2768.85
404.90	2795.48
405.11	2719.70
405.32	2754.52
405.52	2658.26
405.73	2557.91
405.94	2553.82
406.15	2682.84
406.35	2818.00
406.56	2815.96
406.77	2717.65
406.98	2643.93
407.18	2641.88
407.39	3024.85
407.60	2580.44
407.80	2723.80
408.01	2711.51
408.22	2811.86
408.43	2564.06
408.63	2727.89
408.84	2838.48
409.05	2906.07
409.25	2564.06
409.46	2572.25
409.67	2621.40
409.88	2598.87
410.08	2648.02
410.29	2486.23
410.50	2785.24
410.70	2822.10
410.91	2521.05
411.12	2717.65
411.32	2715.61
411.53	2609.11
411.74	2670.55
411.95	2793.43
412.15	2746.33
412.36	2867.16
412.57	2785.24
412.77	2787.29
412.98	2664.41
413.19	2582.49
413.39	2684.89
413.60	2693.08
413.81	2920.40
414.01	2607.06
414.22	2666.46
414.43	2871.25
414.63	2688.98
414.84	2848.72
415.05	2666.46
415.25	2537.43
415.46	2877.40
415.67	2688.98
415.87	2662.36
416.08	2629.59
416.29	2682.84
416.49	2813.91
416.70	2586.58
416.91	2695.13
417.11	2686.94
417.32	2793.43
417.53	2740.18
417.73	2725.85
417.94	2834.39
418.15	2805.72
418.35	2666.46
418.56	2668.50
418.77	3074.00
418.97	2746.33
419.18	2666.46
419.38	2318.30
419.59	2717.65
419.80	2965.46
420.00	2688.98
420.21	2666.46
420.42	2906.07
420.62	2746.33
420.83	2609.11
421.04	2625.50
421.24	2623.45
421.45	2895.83
421.65	2596.82
421.86	2570.20
422.07	2910.16
422.27	2772.95
422.48	2607.06
422.69	2570.20
422.89	2660.31
423.10	2682.84
423.30	2562.01
423.51	2678.74
423.72	2758.61
423.92	2877.40
424.13	2605.02
424.33	2641.88
424.54	2801.62
424.75	2719.70
424.95	2916.31
425.16	2617.30
425.36	2623.45
425.57	2895.83
425.78	2801.62
425.98	2752.47
426.19	2615.26
426.39	2639.83
426.60	2779.09
426.81	2764.76
427.01	2848.72
427.22	2574.30
427.42	2478.04
427.63	2562.01
427.83	2940.88
428.04	2938.84
428.25	2725.85
428.45	2754.52
428.66	2865.11
428.86	2772.95
429.07	2680.79
429.28	2695.13
429.48	2648.02
429.69	2613.21
429.89	2678.74
430.10	2572.25
430.30	2793.43
430.51	2875.35
430.71	2521.05
430.92	2574.30
431.13	2727.89
431.33	2777.05
431.54	2723.80
431.74	2848.72
431.95	3043.28
432.15	2627.54
432.36	2686.94
432.56	2602.97
432.77	2985.94
432.98	2959.31
433.18	2684.89
433.39	2637.78
433.59	2744.28
433.80	3000.27
434.00	2877.40
434.21	2670.55
434.41	2680.79
434.62	3069.91
434.82	2609.11
435.03	2602.97
435.23	2760.66
435.44	2432.99
435.64	2658.26
435.85	2645.98
436.06	2820.05
436.26	2811.86
436.47	2684.89
436.67	2645.98
436.88	2768.85
437.08	2906.07
437.29	2899.92
437.49	2752.47
437.70	2959.31
437.90	2691.03
438.11	2920.40
438.31	2719.70
438.52	2932.69
438.72	2959.31
438.93	2944.98
439.13	2699.22
439.34	2922.45
439.54	2662.36
439.75	2760.66
439.95	2744.28
440.16	2670.55
440.36	2760.66
440.57	2666.46
440.77	2666.46
440.98	2695.13
441.18	2832.34
441.39	2615.26
441.59	2547.67
441.80	3069.91
442.00	2703.32
442.21	2797.53
442.41	2539.48
442.62	2936.79
442.82	2607.06
443.02	2662.36
443.23	2662.36
443.43	2711.51
443.64	2947.03
443.84	2496.47
444.05	2781.14
444.25	2785.24
444.46	2605.02
444.66	2693.08
444.87	2795.48
445.07	2523.10
445.28	2713.56
445.48	2912.21
445.69	2764.76
445.89	3102.67
446.09	2674.65
446.30	2906.07
446.50	3129.30
446.71	4497.34
446.91	5730.22
447.12	6487.96
447.32	6811.54
447.53	6487.96
447.73	5418.93
447.93	4855.73
448.14	4554.68
448.34	4534.20
448.55	3899.33
448.75	3749.83
448.96	3663.82
449.16	3350.48
449.36	3291.09
449.57	2940.88
449.77	2801.62
449.98	2621.40
450.18	2793.43
450.39	2723.80
450.59	2832.34
450.79	2686.94
451.00	2607.06
451.20	2824.15
451.41	2719.70
451.61	2813.91
451.81	2637.78
452.02	2652.12
452.22	2641.88
452.43	2643.93
452.63	2645.98
