SpectraSuite Data File
++++++++++++++++++++++++++++++++++++
Date: Thu May 05 16:20:54 CEST 2016
User: root
Dark Spectrum Present: No
Reference Spectrum Present: No
Number of Sampled Component Spectra: 1
Spectrometers: USB4C02835
Integration Time (usec): 100000 (USB4C02835)
Spectra Averaged: 1 (USB4C02835)
Boxcar Smoothing: 0 (USB4C02835)
Correct for Electrical Dark: No (USB4C02835)
Strobe/Lamp Enabled: No (USB4C02835)
Correct for Detector Non-linearity: No (USB4C02835)
Correct for Stray Light: No (USB4C02835)
Number of Pixels in Processed Spectrum: 3648
>>>>>Begin Processed Spectral Data<<<<<
177.47	2000.87
177.69	2000.87
177.91	2000.87
178.13	2013.15
178.36	2039.78
178.58	2545.63
178.80	2682.84
179.02	2572.25
179.24	2592.73
179.46	2537.43
179.68	2482.14
179.90	2676.70
180.13	2793.43
180.35	2400.22
180.57	2471.90
180.79	2803.67
181.01	2713.56
181.23	2531.29
181.45	2594.78
181.67	2772.95
181.90	2764.76
182.12	2557.91
182.34	2316.25
182.56	2695.13
182.78	2676.70
183.00	2496.47
183.22	2547.67
183.44	2457.56
183.66	3192.78
183.89	2631.64
184.11	2551.77
184.33	2887.64
184.55	2875.35
184.77	2508.76
184.99	2564.06
185.21	2645.98
185.43	2998.23
185.65	2529.24
185.87	2537.43
186.10	2996.18
186.32	3069.91
186.54	2654.17
186.76	2660.31
186.98	2844.63
187.20	2754.52
187.42	2582.49
187.64	2471.90
187.86	2848.72
188.08	2815.96
188.30	2428.89
188.52	2516.95
188.75	2824.15
188.97	2881.49
189.19	2467.80
189.41	2441.18
189.63	2815.96
189.85	2678.74
190.07	2355.16
190.29	2342.88
190.51	2809.81
190.73	2473.95
190.95	2635.74
191.17	2557.91
191.39	2553.82
191.61	2699.22
191.84	2502.62
192.06	2627.54
192.28	2500.57
192.50	3131.34
192.72	2605.02
192.94	2582.49
193.16	2785.24
193.38	2770.90
193.60	2506.71
193.82	2592.73
194.04	2949.08
194.26	2703.32
194.48	2523.10
194.70	2488.28
194.92	2600.92
195.14	2787.29
195.36	2414.56
195.58	2617.30
195.80	2652.12
196.02	2568.15
196.24	2435.03
196.46	2594.78
196.69	2695.13
196.91	3035.09
197.13	2519.00
197.35	2576.34
197.57	2953.17
197.79	2861.01
198.01	2621.40
198.23	2486.23
198.45	2783.19
198.67	2588.63
198.89	2418.65
199.11	2648.02
199.33	2609.11
199.55	2408.41
199.77	2475.99
199.99	2641.88
200.21	2697.17
200.43	2803.67
200.65	2459.61
200.87	2367.45
201.09	2668.50
201.31	2715.61
201.53	2541.53
201.75	2557.91
201.97	2715.61
202.19	2770.90
202.41	2588.63
202.63	2568.15
202.85	2803.67
203.07	2752.47
203.29	2600.92
203.51	2445.27
203.73	2619.35
203.95	3180.50
204.17	2514.91
204.39	2602.97
204.61	2699.22
204.83	2598.87
205.05	2721.75
205.27	2529.24
205.49	3039.19
205.71	2750.42
205.93	2418.65
206.15	2420.70
206.37	2656.22
206.59	2631.64
206.81	2398.17
207.03	2432.99
207.25	2547.67
207.47	2799.57
207.69	2469.85
207.91	2719.70
208.13	2908.12
208.34	2572.25
208.56	2439.13
208.78	2496.47
209.00	2664.41
209.22	2709.46
209.44	2539.48
209.66	2443.23
209.88	2742.23
210.10	2662.36
210.32	2496.47
210.54	2596.82
210.76	2680.79
210.98	2787.29
211.20	2424.80
211.42	2643.93
211.64	2940.88
211.86	2813.91
212.08	2529.24
212.30	2506.71
212.52	2652.12
212.74	2740.18
212.96	2572.25
213.17	2529.24
213.39	2822.10
213.61	2977.75
213.83	2514.91
214.05	2424.80
214.27	2877.40
214.49	2545.63
214.71	2420.70
214.93	2645.98
215.15	2748.37
215.37	2791.38
215.59	2412.51
215.81	2598.87
216.03	2881.49
216.24	2760.66
216.46	2547.67
216.68	2617.30
216.90	2824.15
217.12	2822.10
217.34	2453.47
217.56	2682.84
217.78	2944.98
218.00	2803.67
218.22	2652.12
218.44	2590.68
218.66	2750.42
218.87	3057.62
219.09	2514.91
219.31	2564.06
219.53	2727.89
219.75	2709.46
219.97	2564.06
220.19	2531.29
220.41	2648.02
220.63	3026.90
220.85	2535.39
221.06	2508.76
221.28	2940.88
221.50	2865.11
221.72	2555.86
221.94	2459.61
222.16	2772.95
222.38	2785.24
222.60	2408.41
222.82	2592.73
223.03	2883.54
223.25	2539.48
223.47	2451.42
223.69	2707.41
223.91	2758.61
224.13	2701.27
224.35	2463.71
224.57	2709.46
224.78	2840.53
225.00	2633.69
225.22	2607.06
225.44	2463.71
225.66	2793.43
225.88	2666.46
226.10	2594.78
226.32	2484.19
226.53	3030.99
226.75	2697.17
226.97	2576.34
227.19	2529.24
227.41	2643.93
227.63	2600.92
227.85	2359.26
228.06	2615.26
228.28	2723.80
228.50	2940.88
228.72	2406.36
228.94	2516.95
229.16	2402.27
229.37	2469.85
229.59	2426.84
229.81	2725.85
230.03	2639.83
230.25	2555.86
230.47	2334.68
230.69	2514.91
230.90	2869.20
231.12	2598.87
231.34	2578.39
231.56	2566.10
231.78	2576.34
232.00	2736.09
232.21	2553.82
232.43	2492.38
232.65	2408.41
232.87	2738.13
233.09	2392.03
233.30	2441.18
233.52	2842.58
233.74	2680.79
233.96	2441.18
234.18	2582.49
234.40	2627.54
234.61	3022.80
234.83	2416.60
235.05	2424.80
235.27	3108.82
235.49	2926.55
235.70	2439.13
235.92	2617.30
236.14	2805.72
236.36	3033.04
236.58	2441.18
236.79	2545.63
237.01	2697.17
237.23	2805.72
237.45	2711.51
237.67	2465.75
237.88	2768.85
238.10	3076.05
238.32	2453.47
238.54	2486.23
238.76	2684.89
238.97	2592.73
239.19	2412.51
239.41	2623.45
239.63	2875.35
239.85	2580.44
240.06	2572.25
240.28	2463.71
240.50	2926.55
240.72	2772.95
240.93	2494.43
241.15	2637.78
241.37	2717.65
241.59	2920.40
241.81	2473.95
242.02	2625.50
242.24	2813.91
242.46	2813.91
242.68	2332.64
242.89	2523.10
243.11	2895.83
243.33	2703.32
243.55	2539.48
243.76	2551.77
243.98	2654.17
244.20	2678.74
244.42	2576.34
244.64	2590.68
244.85	2543.58
245.07	2502.62
245.29	2541.53
245.51	2566.10
245.72	2736.09
245.94	2881.49
246.16	2541.53
246.38	2523.10
246.59	2629.59
246.81	2662.36
247.03	2510.81
247.24	2346.97
247.46	2744.28
247.68	2723.80
247.90	2424.80
248.11	2420.70
248.33	2865.11
248.55	2693.08
248.77	2529.24
248.98	2625.50
249.20	2963.41
249.42	2750.42
249.64	2615.26
249.85	2551.77
250.07	2625.50
250.29	2822.10
250.50	2654.17
250.72	2379.74
250.94	2723.80
251.16	3059.67
251.37	2516.95
251.59	2635.74
251.81	2863.06
252.02	2947.03
252.24	2387.93
252.46	2641.88
252.68	2557.91
252.89	2621.40
253.11	2377.69
253.33	2697.17
253.54	2953.17
253.76	2508.76
253.98	2504.67
254.20	2500.57
254.41	2609.11
254.63	2627.54
254.85	2383.84
255.06	2580.44
255.28	2764.76
255.50	2719.70
255.71	2432.99
255.93	2422.75
256.15	2699.22
256.36	2807.77
256.58	2473.95
256.80	2510.81
257.02	2785.24
257.23	2695.13
257.45	2492.38
257.67	2592.73
257.88	2652.12
258.10	2869.20
258.32	2498.52
258.53	2627.54
258.75	2979.79
258.97	2623.45
259.18	2494.43
259.40	2478.04
259.62	2918.36
259.83	2904.02
260.05	2586.58
260.27	3096.53
260.48	2858.96
260.70	2592.73
260.92	2435.03
261.13	2504.67
261.35	2809.81
261.57	2832.34
261.78	2396.12
262.00	2428.89
262.22	2826.20
262.43	2637.78
262.65	2510.81
262.86	2514.91
263.08	3039.19
263.30	2779.09
263.51	2447.32
263.73	2496.47
263.95	2879.44
264.16	2602.97
264.38	2406.36
264.60	2426.84
264.81	2707.41
265.03	2873.30
265.25	2750.42
265.46	2500.57
265.68	2883.54
265.89	2873.30
266.11	2422.75
266.33	2492.38
266.54	2842.58
266.76	2807.77
266.98	2566.10
267.19	2713.56
267.41	2959.31
267.62	2631.64
267.84	2340.83
268.06	2549.72
268.27	2752.47
268.49	2957.27
268.70	2613.21
268.92	2486.23
269.14	2602.97
269.35	2494.43
269.57	2553.82
269.79	2555.86
270.00	2535.39
270.22	2994.13
270.43	2441.18
270.65	2465.75
270.87	2770.90
271.08	2820.05
271.30	2570.20
271.51	2539.48
271.73	2834.39
271.95	2934.74
272.16	2506.71
272.38	2590.68
272.59	2619.35
272.81	2834.39
273.02	2443.23
273.24	2600.92
273.46	2824.15
273.67	2498.52
273.89	2465.75
274.10	2486.23
274.32	2869.20
274.54	2750.42
274.75	2668.50
274.97	2428.89
275.18	2818.00
275.40	2813.91
275.61	2516.95
275.83	2652.12
276.05	2539.48
276.26	2719.70
276.48	2570.20
276.69	2588.63
276.91	2643.93
277.12	2961.36
277.34	2711.51
277.55	2727.89
277.77	2768.85
277.99	2662.36
278.20	2559.96
278.42	2506.71
278.63	2586.58
278.85	2531.29
279.06	2500.57
279.28	2629.59
279.49	2856.92
279.71	2844.63
279.93	2723.80
280.14	2619.35
280.36	2570.20
280.57	2895.83
280.79	2725.85
281.00	2590.68
281.22	2609.11
281.43	2826.20
281.65	2381.79
281.86	2576.34
282.08	2797.53
282.29	2961.36
282.51	2449.37
282.73	2488.28
282.94	2504.67
283.16	2799.57
283.37	2707.41
283.59	2600.92
283.80	2781.14
284.02	2770.90
284.23	2668.50
284.45	2547.67
284.66	2562.01
284.88	2549.72
285.09	2557.91
285.31	2729.94
285.52	2779.09
285.74	2494.43
285.95	2775.00
286.17	2697.17
286.38	2908.12
286.60	2639.83
286.81	2543.58
287.03	2596.82
287.24	2709.46
287.46	2809.81
287.67	2693.08
287.89	2836.44
288.10	2691.03
288.32	2693.08
288.53	2779.09
288.75	2629.59
288.96	2856.92
289.18	2615.26
289.39	2617.30
289.61	2662.36
289.82	3020.75
290.04	2985.94
290.25	2531.29
290.47	2658.26
290.68	2625.50
290.90	2832.34
291.11	2465.75
291.33	2605.02
291.54	2592.73
291.76	2731.99
291.97	2705.37
292.18	2613.21
292.40	2688.98
292.61	2543.58
292.83	2818.00
293.04	2623.45
293.26	2682.84
293.47	2731.99
293.69	2541.53
293.90	2553.82
294.12	2910.16
294.33	2781.14
294.55	2539.48
294.76	2688.98
294.97	2848.72
295.19	3049.43
295.40	2674.65
295.62	2635.74
295.83	2889.68
296.05	2631.64
296.26	2775.00
296.48	2600.92
296.69	2746.33
296.90	2715.61
297.12	2713.56
297.33	2725.85
297.55	2666.46
297.76	2828.24
297.98	2666.46
298.19	2740.18
298.41	2621.40
298.62	2617.30
298.83	2744.28
299.05	2680.79
299.26	2596.82
299.48	2654.17
299.69	2691.03
299.90	2598.87
300.12	2590.68
300.33	2852.82
300.55	2600.92
300.76	2691.03
300.98	2596.82
301.19	2875.35
301.40	2600.92
301.62	2582.49
301.83	2768.85
302.05	2695.13
302.26	2594.78
302.47	2656.22
302.69	2519.00
302.90	2740.18
303.12	2398.17
303.33	2711.51
303.54	2992.08
303.76	2633.69
303.97	2615.26
304.19	2779.09
304.40	2590.68
304.61	2818.00
304.83	2703.32
305.04	2705.37
305.26	2881.49
305.47	2654.17
305.68	2545.63
305.90	2482.14
306.11	2897.88
306.33	2635.74
306.54	2547.67
306.75	2615.26
306.97	2469.85
307.18	2578.39
307.39	2584.54
307.61	2699.22
307.82	2666.46
308.04	2789.33
308.25	2496.47
308.46	2660.31
308.68	2693.08
308.89	2764.76
309.10	2731.99
309.32	2707.41
309.53	2715.61
309.74	2785.24
309.96	2613.21
310.17	2742.23
310.39	2662.36
310.60	2787.29
310.81	2678.74
311.03	2461.66
311.24	2826.20
311.45	2713.56
311.67	2856.92
311.88	2660.31
312.09	2666.46
312.31	2635.74
312.52	2533.34
312.73	2547.67
312.95	2570.20
313.16	2639.83
313.37	2746.33
313.59	2838.48
313.80	2842.58
314.01	2971.60
314.23	2578.39
314.44	2566.10
314.65	2484.19
314.87	2625.50
315.08	2508.76
315.29	2572.25
315.51	2617.30
315.72	2525.15
315.93	2699.22
316.15	2617.30
316.36	2645.98
316.57	2693.08
316.79	2688.98
317.00	2613.21
317.21	2846.68
317.43	2668.50
317.64	2645.98
317.85	2582.49
318.07	2521.05
318.28	2645.98
318.49	2813.91
318.70	2875.35
318.92	2815.96
319.13	2797.53
319.34	2824.15
319.56	2633.69
319.77	2824.15
319.98	2738.13
320.20	2736.09
320.41	2682.84
320.62	2805.72
320.83	2537.43
321.05	2805.72
321.26	2609.11
321.47	2688.98
321.69	2856.92
321.90	2504.67
322.11	2584.54
322.32	2752.47
322.54	2942.93
322.75	2609.11
322.96	3225.55
323.18	2543.58
323.39	2432.99
323.60	2471.90
323.81	2648.02
324.03	2611.16
324.24	2623.45
324.45	2676.70
324.66	2586.58
324.88	2981.84
325.09	3026.90
325.30	2570.20
325.52	2559.96
325.73	2768.85
325.94	2633.69
326.15	2490.33
326.37	2529.24
326.58	2897.88
326.79	2944.98
327.00	2531.29
327.22	2693.08
327.43	2643.93
327.64	2613.21
327.85	2660.31
328.07	2568.15
328.28	3002.32
328.49	2699.22
328.70	2602.97
328.92	2633.69
329.13	2736.09
329.34	2799.57
329.55	2770.90
329.76	2699.22
329.98	2645.98
330.19	2912.21
330.40	2719.70
330.61	2656.22
330.83	2842.58
331.04	2562.01
331.25	2709.46
331.46	2545.63
331.68	2559.96
331.89	2850.77
332.10	2648.02
332.31	2451.42
332.52	2711.51
332.74	2881.49
332.95	2498.52
333.16	2631.64
333.37	2785.24
333.58	2686.94
333.80	2660.31
334.01	2486.23
334.22	2662.36
334.43	2703.32
334.64	2547.67
334.86	2473.95
335.07	2654.17
335.28	2908.12
335.49	2529.24
335.70	2676.70
335.92	2893.78
336.13	3102.67
336.34	2695.13
336.55	2615.26
336.76	2775.00
336.98	2478.04
337.19	2584.54
337.40	2680.79
337.61	3082.19
337.82	2762.71
338.04	2668.50
338.25	2514.91
338.46	2738.13
338.67	2715.61
338.88	2498.52
339.09	2521.05
339.31	2613.21
339.52	2525.15
339.73	2535.39
339.94	2717.65
340.15	2914.26
340.36	2680.79
340.58	2637.78
340.79	2514.91
341.00	2764.76
341.21	2519.00
341.42	2787.29
341.63	2555.86
341.85	2779.09
342.06	2815.96
342.27	2545.63
342.48	2750.42
342.69	2494.43
342.90	2805.72
343.12	2770.90
343.33	2568.15
343.54	2861.01
343.75	2949.08
343.96	2643.93
344.17	2484.19
344.38	2693.08
344.60	2705.37
344.81	2521.05
345.02	2635.74
345.23	2924.50
345.44	3119.06
345.65	2684.89
345.86	2703.32
346.07	2744.28
346.29	2582.49
346.50	2697.17
346.71	2605.02
346.92	2912.21
347.13	3018.71
347.34	2660.31
347.55	2570.20
347.76	2740.18
347.98	2531.29
348.19	2627.54
348.40	2809.81
348.61	2672.60
348.82	2973.65
349.03	2709.46
349.24	2578.39
349.45	2961.36
349.66	2549.72
349.88	2619.35
350.09	2506.71
350.30	2844.63
350.51	2938.84
350.72	2768.85
350.93	2672.60
351.14	2621.40
351.35	2719.70
351.56	2592.73
351.77	2637.78
351.99	2717.65
352.20	2967.51
352.41	2736.09
352.62	2457.56
352.83	2668.50
353.04	2670.55
353.25	2562.01
353.46	2711.51
353.67	2842.58
353.88	2435.03
354.09	2615.26
354.30	2656.22
354.52	2891.73
354.73	2752.47
354.94	2580.44
355.15	2652.12
355.36	2965.46
355.57	2641.88
355.78	2650.07
355.99	2504.67
356.20	2699.22
356.41	2928.60
356.62	2617.30
356.83	2633.69
357.04	2908.12
357.25	2555.86
357.46	2553.82
357.68	2475.99
357.89	2609.11
358.10	2723.80
358.31	2666.46
358.52	2631.64
358.73	2539.48
358.94	2533.34
359.15	2580.44
359.36	2641.88
359.57	2727.89
359.78	2660.31
359.99	2850.77
360.20	2562.01
360.41	2662.36
360.62	2766.81
360.83	2674.65
361.04	2672.60
361.25	2832.34
361.46	2967.51
361.67	2678.74
361.88	2654.17
362.09	2781.14
362.30	2725.85
362.51	2633.69
362.72	2633.69
362.93	2725.85
363.14	2809.81
363.35	2693.08
363.56	2529.24
363.78	2949.08
363.99	2838.48
364.20	2631.64
364.41	2697.17
364.62	3024.85
364.83	2719.70
365.04	2613.21
365.25	2660.31
365.46	3086.29
365.67	2629.59
365.88	2775.00
366.09	2582.49
366.30	2625.50
366.51	2709.46
366.72	2471.90
366.93	2695.13
367.14	2736.09
367.35	2885.59
367.56	2586.58
367.77	2678.74
367.98	2670.55
368.18	2756.57
368.39	2662.36
368.60	2617.30
368.81	2777.05
369.02	2742.23
369.23	2637.78
369.44	2527.19
369.65	2666.46
369.86	2789.33
370.07	2674.65
370.28	2537.43
370.49	2791.38
370.70	2758.61
370.91	2531.29
371.12	2531.29
371.33	2783.19
371.54	2619.35
371.75	2791.38
371.96	2445.27
372.17	2727.89
372.38	2674.65
372.59	2660.31
372.80	2586.58
373.01	2682.84
373.22	2791.38
373.43	2557.91
373.64	2471.90
373.85	2834.39
374.06	2871.25
374.26	2748.37
374.47	2701.27
374.68	2944.98
374.89	2789.33
375.10	2580.44
375.31	2777.05
375.52	2715.61
375.73	2701.27
375.94	2441.18
376.15	2746.33
376.36	2654.17
376.57	2650.07
376.78	2611.16
376.99	2691.03
377.20	2897.88
377.40	2645.98
377.61	2770.90
377.82	2654.17
378.03	2912.21
378.24	2824.15
378.45	2705.37
378.66	2760.66
378.87	2516.95
379.08	2461.66
379.29	2529.24
379.50	2805.72
379.71	2701.27
379.91	2785.24
380.12	2678.74
380.33	2678.74
380.54	2758.61
380.75	2678.74
380.96	2480.09
381.17	2672.60
381.38	2721.75
381.59	2752.47
381.80	2639.83
382.00	2799.57
382.21	2785.24
382.42	2947.03
382.63	2904.02
382.84	2691.03
383.05	2848.72
383.26	2967.51
383.47	2752.47
383.68	2602.97
383.88	2807.77
384.09	2629.59
384.30	2842.58
384.51	2723.80
384.72	2654.17
384.93	2545.63
385.14	2633.69
385.35	2809.81
385.55	2596.82
385.76	2887.64
385.97	2713.56
386.18	2461.66
386.39	2617.30
386.60	2549.72
386.81	2537.43
387.02	2559.96
387.22	2525.15
387.43	2828.24
387.64	2645.98
387.85	2783.19
388.06	2836.44
388.27	4014.02
388.48	7569.29
388.68	11106.13
388.89	13524.79
389.10	14528.29
389.31	13920.04
389.52	10954.58
389.73	9467.76
389.93	8626.04
390.14	7878.54
390.35	7147.41
390.56	6426.53
390.77	5375.92
390.98	4120.51
391.18	3450.83
391.39	3172.30
391.60	2852.82
391.81	2826.20
392.02	2582.49
392.23	3110.86
392.43	2768.85
392.64	2711.51
392.85	2762.71
393.06	2944.98
393.27	2648.02
393.47	2645.98
393.68	2553.82
393.89	2676.70
394.10	2871.25
394.31	2598.87
394.52	2586.58
394.72	2580.44
394.93	3010.51
395.14	2490.33
395.35	2674.65
395.56	2691.03
395.76	2670.55
395.97	2633.69
396.18	2858.96
396.39	2799.57
396.60	3297.23
396.80	2951.12
397.01	2748.37
397.22	2785.24
397.43	2934.74
397.64	2602.97
397.84	2727.89
398.05	2932.69
398.26	2703.32
398.47	2691.03
398.67	2906.07
398.88	2736.09
399.09	2836.44
399.30	2592.73
399.51	2744.28
399.71	2590.68
399.92	2783.19
400.13	2719.70
400.34	2654.17
400.54	2772.95
400.75	2990.03
400.96	2623.45
401.17	2908.12
401.37	2731.99
401.58	2656.22
401.79	2576.34
402.00	2785.24
402.21	3176.40
402.41	2959.31
402.62	2899.92
402.83	3026.90
403.04	3065.81
403.24	3317.71
403.45	2736.09
403.66	2846.68
403.87	2871.25
404.07	3000.27
404.28	2889.68
404.49	2893.78
404.70	2809.81
404.90	2787.29
405.11	2576.34
405.32	2736.09
405.52	2693.08
405.73	2744.28
405.94	2545.63
406.15	2602.97
406.35	2768.85
406.56	2869.20
406.77	2789.33
406.98	2619.35
407.18	2611.16
407.39	2965.46
407.60	2590.68
407.80	2754.52
408.01	2713.56
408.22	2834.39
408.43	2490.33
408.63	2682.84
408.84	2938.84
409.05	2838.48
409.25	2512.86
409.46	2600.92
409.67	2578.39
409.88	2602.97
410.08	2693.08
410.29	2617.30
410.50	2858.96
410.70	2891.73
410.91	2588.63
411.12	2625.50
411.32	2791.38
411.53	2578.39
411.74	2676.70
411.95	2740.18
412.15	2717.65
412.36	2791.38
412.57	2793.43
412.77	2738.13
412.98	2758.61
413.19	2680.79
413.39	2684.89
413.60	2717.65
413.81	2985.94
414.01	2564.06
414.22	2709.46
414.43	2742.23
414.63	2635.74
414.84	2942.93
415.05	2645.98
415.25	2527.19
415.46	2793.43
415.67	2670.55
415.87	2756.57
416.08	2625.50
416.29	2605.02
416.49	2846.68
416.70	2559.96
416.91	2578.39
417.11	2684.89
417.32	2947.03
417.53	2760.66
417.73	2680.79
417.94	2676.70
418.15	2746.33
418.35	2711.51
418.56	2682.84
418.77	3049.43
418.97	2803.67
419.18	2725.85
419.38	2351.07
419.59	2652.12
419.80	3035.09
420.00	2543.58
420.21	2668.50
420.42	2867.16
420.62	2830.29
420.83	2586.58
421.04	2664.41
421.24	2826.20
421.45	2832.34
421.65	2678.74
421.86	2670.55
422.07	2818.00
422.27	2793.43
422.48	2713.56
422.69	2539.48
422.89	2650.07
423.10	2670.55
423.30	2617.30
423.51	2664.41
423.72	2795.48
423.92	2877.40
424.13	2572.25
424.33	2637.78
424.54	2818.00
424.75	2760.66
424.95	2826.20
425.16	2678.74
425.36	2719.70
425.57	2926.55
425.78	2764.76
425.98	2752.47
426.19	2719.70
426.39	2645.98
426.60	2734.04
426.81	2772.95
427.01	2750.42
427.22	2568.15
427.42	2473.95
427.63	2572.25
427.83	2971.60
428.04	2955.22
428.25	2795.48
428.45	2699.22
428.66	2932.69
428.86	2664.41
429.07	2670.55
429.28	2719.70
429.48	2699.22
429.69	2656.22
429.89	2744.28
430.10	2441.18
430.30	2865.11
430.51	2830.29
430.71	2607.06
430.92	2682.84
431.13	2643.93
431.33	2846.68
431.54	2705.37
431.74	2822.10
431.95	3051.47
432.15	2566.10
432.36	2658.26
432.56	2723.80
432.77	3039.19
432.98	2979.79
433.18	2701.27
433.39	2639.83
433.59	2641.88
433.80	3086.29
434.00	2861.01
434.21	2613.21
434.41	2668.50
434.62	2975.70
434.82	2549.72
435.03	2580.44
435.23	2830.29
435.44	2480.09
435.64	2590.68
435.85	2668.50
436.06	2852.82
436.26	2822.10
436.47	2611.16
436.67	2588.63
436.88	2777.05
437.08	2942.93
437.29	2777.05
437.49	2742.23
437.70	2904.02
437.90	2629.59
438.11	2887.64
438.31	2684.89
438.52	2932.69
438.72	2908.12
438.93	2889.68
439.13	2629.59
439.34	2875.35
439.54	2658.26
439.75	2727.89
439.95	2676.70
440.16	2656.22
440.36	2643.93
440.57	2695.13
440.77	2641.88
440.98	2707.41
441.18	2791.38
441.39	2555.86
441.59	2537.43
441.80	3076.05
442.00	2709.46
442.21	2715.61
442.41	2568.15
442.62	2953.17
442.82	2715.61
443.02	2711.51
443.23	2643.93
443.43	2693.08
443.64	2906.07
443.84	2572.25
444.05	2842.58
444.25	2719.70
444.46	2695.13
444.66	2592.73
444.87	2883.54
445.07	2492.38
445.28	2648.02
445.48	2850.77
445.69	2764.76
445.89	3096.53
446.09	2707.41
446.30	2979.79
446.50	3137.49
446.71	4636.60
446.91	5760.94
447.12	6387.61
447.32	6864.79
447.53	6598.56
447.73	5470.12
447.93	4847.54
448.14	4515.77
448.34	4554.68
448.55	3989.44
448.75	3909.57
448.96	3631.05
449.16	3395.53
449.36	3297.23
449.57	2899.92
449.77	2740.18
449.98	2611.16
450.18	2918.36
450.39	2648.02
450.59	2828.24
450.79	2752.47
451.00	2623.45
451.20	2770.90
451.41	2713.56
451.61	2783.19
451.81	2715.61
452.02	2613.21
452.22	2705.37
452.43	2709.46
452.63	2568.15
