SpectraSuite Data File
++++++++++++++++++++++++++++++++++++
Date: Thu May 05 16:21:04 CEST 2016
User: root
Dark Spectrum Present: No
Reference Spectrum Present: No
Number of Sampled Component Spectra: 1
Spectrometers: USB4C02835
Integration Time (usec): 100000 (USB4C02835)
Spectra Averaged: 1 (USB4C02835)
Boxcar Smoothing: 0 (USB4C02835)
Correct for Electrical Dark: No (USB4C02835)
Strobe/Lamp Enabled: No (USB4C02835)
Correct for Detector Non-linearity: No (USB4C02835)
Correct for Stray Light: No (USB4C02835)
Number of Pixels in Processed Spectrum: 3648
>>>>>Begin Processed Spectral Data<<<<<
177.47	2047.97
177.69	2047.97
177.91	2047.97
178.13	1974.24
178.36	2015.20
178.58	2580.44
178.80	2688.98
179.02	2525.15
179.24	2582.49
179.46	2408.41
179.68	2535.39
179.90	2746.33
180.13	2744.28
180.35	2326.49
180.57	2539.48
180.79	2869.20
181.01	2670.55
181.23	2643.93
181.45	2533.34
181.67	2754.52
181.90	2789.33
182.12	2527.19
182.34	2336.73
182.56	2803.67
182.78	2793.43
183.00	2459.61
183.22	2564.06
183.44	2488.28
183.66	3096.53
183.89	2594.78
184.11	2570.20
184.33	2840.53
184.55	2865.11
184.77	2529.24
184.99	2533.34
185.21	2617.30
185.43	3160.02
185.65	2523.10
185.87	2529.24
186.10	3071.95
186.32	3051.47
186.54	2578.39
186.76	2633.69
186.98	2873.30
187.20	2705.37
187.42	2600.92
187.64	2566.10
187.86	2840.53
188.08	2856.92
188.30	2449.37
188.52	2490.33
188.75	2805.72
188.97	2811.86
189.19	2490.33
189.41	2492.38
189.63	2875.35
189.85	2709.46
190.07	2389.98
190.29	2400.22
190.51	2742.23
190.73	2559.96
190.95	2666.46
191.17	2553.82
191.39	2562.01
191.61	2742.23
191.84	2551.77
192.06	2623.45
192.28	2449.37
192.50	3211.22
192.72	2643.93
192.94	2549.72
193.16	2848.72
193.38	2822.10
193.60	2461.66
193.82	2629.59
194.04	2877.40
194.26	2881.49
194.48	2584.54
194.70	2543.58
194.92	2609.11
195.14	2844.63
195.36	2422.75
195.58	2539.48
195.80	2682.84
196.02	2676.70
196.24	2406.36
196.46	2519.00
196.69	2592.73
196.91	3106.77
197.13	2469.85
197.35	2504.67
197.57	2836.44
197.79	2852.82
198.01	2594.78
198.23	2562.01
198.45	2723.80
198.67	2482.14
198.89	2410.46
199.11	2613.21
199.33	2697.17
199.55	2361.31
199.77	2494.43
199.99	2703.32
200.21	2553.82
200.43	2740.18
200.65	2420.70
200.87	2402.27
201.09	2713.56
201.31	2686.94
201.53	2574.30
201.75	2533.34
201.97	2768.85
202.19	2641.88
202.41	2582.49
202.63	2660.31
202.85	2822.10
203.07	2777.05
203.29	2502.62
203.51	2473.95
203.73	2613.21
203.95	3090.38
204.17	2498.52
204.39	2576.34
204.61	2658.26
204.83	2607.06
205.05	2633.69
205.27	2537.43
205.49	2969.55
205.71	2731.99
205.93	2406.36
206.15	2449.37
206.37	2674.65
206.59	2709.46
206.81	2392.03
207.03	2402.27
207.25	2553.82
207.47	2809.81
207.69	2578.39
207.91	2723.80
208.13	2924.50
208.34	2691.03
208.56	2506.71
208.78	2641.88
209.00	2703.32
209.22	2637.78
209.44	2504.67
209.66	2484.19
209.88	2711.51
210.10	2678.74
210.32	2498.52
210.54	2602.97
210.76	2678.74
210.98	2906.07
211.20	2365.40
211.42	2543.58
211.64	3006.42
211.86	2752.47
212.08	2553.82
212.30	2500.57
212.52	2713.56
212.74	2785.24
212.96	2547.67
213.17	2576.34
213.39	2836.44
213.61	2973.65
213.83	2500.57
214.05	2416.60
214.27	2848.72
214.49	2625.50
214.71	2469.85
214.93	2668.50
215.15	2588.63
215.37	2871.25
215.59	2416.60
215.81	2625.50
216.03	2877.40
216.24	2695.13
216.46	2514.91
216.68	2572.25
216.90	2891.73
217.12	2836.44
217.34	2535.39
217.56	2629.59
217.78	2897.88
218.00	2775.00
218.22	2609.11
218.44	2684.89
218.66	2727.89
218.87	3033.04
219.09	2498.52
219.31	2490.33
219.53	2707.41
219.75	2627.54
219.97	2643.93
220.19	2570.20
220.41	2619.35
220.63	2990.03
220.85	2471.90
221.06	2551.77
221.28	2926.55
221.50	2822.10
221.72	2496.47
221.94	2420.70
222.16	2754.52
222.38	2811.86
222.60	2539.48
222.82	2519.00
223.03	2830.29
223.25	2555.86
223.47	2514.91
223.69	2668.50
223.91	2873.30
224.13	2707.41
224.35	2424.80
224.57	2752.47
224.78	2850.77
225.00	2666.46
225.22	2523.10
225.44	2492.38
225.66	2793.43
225.88	2731.99
226.10	2568.15
226.32	2502.62
226.53	3004.37
226.75	2717.65
226.97	2600.92
227.19	2506.71
227.41	2559.96
227.63	2695.13
227.85	2385.88
228.06	2537.43
228.28	2727.89
228.50	2858.96
228.72	2449.37
228.94	2457.56
229.16	2416.60
229.37	2562.01
229.59	2463.71
229.81	2734.04
230.03	2703.32
230.25	2523.10
230.47	2359.26
230.69	2441.18
230.90	2850.77
231.12	2576.34
231.34	2523.10
231.56	2521.05
231.78	2551.77
232.00	2688.98
232.21	2504.67
232.43	2562.01
232.65	2463.71
232.87	2809.81
233.09	2422.75
233.30	2475.99
233.52	2815.96
233.74	2727.89
233.96	2502.62
234.18	2537.43
234.40	2731.99
234.61	3049.43
234.83	2430.94
235.05	2416.60
235.27	3061.71
235.49	2850.77
235.70	2375.64
235.92	2543.58
236.14	2725.85
236.36	3108.82
236.58	2363.36
236.79	2686.94
237.01	2734.04
237.23	2709.46
237.45	2711.51
237.67	2482.14
237.88	2770.90
238.10	2961.36
238.32	2478.04
238.54	2420.70
238.76	2635.74
238.97	2553.82
239.19	2410.46
239.41	2598.87
239.63	2895.83
239.85	2691.03
240.06	2457.56
240.28	2519.00
240.50	2842.58
240.72	2666.46
240.93	2486.23
241.15	2613.21
241.37	2789.33
241.59	2990.03
241.81	2465.75
242.02	2549.72
242.24	2785.24
242.46	2779.09
242.68	2408.41
242.89	2478.04
243.11	2838.48
243.33	2844.63
243.55	2566.10
243.76	2633.69
243.98	2658.26
244.20	2662.36
244.42	2508.76
244.64	2584.54
244.85	2514.91
245.07	2531.29
245.29	2512.86
245.51	2623.45
245.72	2768.85
245.94	2838.48
246.16	2519.00
246.38	2572.25
246.59	2615.26
246.81	2611.16
247.03	2525.15
247.24	2359.26
247.46	2668.50
247.68	2744.28
247.90	2426.84
248.11	2539.48
248.33	2840.53
248.55	2764.76
248.77	2521.05
248.98	2613.21
249.20	2955.22
249.42	2738.13
249.64	2504.67
249.85	2416.60
250.07	2643.93
250.29	2830.29
250.50	2584.54
250.72	2435.03
250.94	2766.81
251.16	2932.69
251.37	2504.67
251.59	2584.54
251.81	2818.00
252.02	2985.94
252.24	2484.19
252.46	2645.98
252.68	2625.50
252.89	2545.63
253.11	2385.88
253.33	2701.27
253.54	2938.84
253.76	2490.33
253.98	2457.56
254.20	2576.34
254.41	2596.82
254.63	2654.17
254.85	2371.55
255.06	2523.10
255.28	2772.95
255.50	2674.65
255.71	2498.52
255.93	2369.50
256.15	2650.07
256.36	2805.72
256.58	2432.99
256.80	2504.67
257.02	2707.41
257.23	2576.34
257.45	2562.01
257.67	2670.55
257.88	2600.92
258.10	2758.61
258.32	2457.56
258.53	2574.30
258.75	2918.36
258.97	2637.78
259.18	2490.33
259.40	2445.27
259.62	3026.90
259.83	2904.02
260.05	2602.97
260.27	3166.16
260.48	2887.64
260.70	2602.97
260.92	2437.08
261.13	2426.84
261.35	2756.57
261.57	2797.53
261.78	2349.02
262.00	2480.09
262.22	2789.33
262.43	2602.97
262.65	2490.33
262.86	2529.24
263.08	3014.61
263.30	2654.17
263.51	2318.30
263.73	2473.95
263.95	2994.13
264.16	2564.06
264.38	2428.89
264.60	2461.66
264.81	2676.70
265.03	2912.21
265.25	2779.09
265.46	2486.23
265.68	2932.69
265.89	2820.05
266.11	2428.89
266.33	2484.19
266.54	2844.63
266.76	2789.33
266.98	2570.20
267.19	2693.08
267.41	2916.31
267.62	2760.66
267.84	2361.31
268.06	2588.63
268.27	2721.75
268.49	2934.74
268.70	2582.49
268.92	2605.02
269.14	2564.06
269.35	2605.02
269.57	2652.12
269.79	2551.77
270.00	2682.84
270.22	3039.19
270.43	2420.70
270.65	2299.87
270.87	2711.51
271.08	2920.40
271.30	2615.26
271.51	2539.48
271.73	2799.57
271.95	3006.42
272.16	2469.85
272.38	2566.10
272.59	2693.08
272.81	2822.10
273.02	2498.52
273.24	2650.07
273.46	2863.06
273.67	2588.63
273.89	2398.17
274.10	2512.86
274.32	2867.16
274.54	2799.57
274.75	2621.40
274.97	2553.82
275.18	2795.48
275.40	2787.29
275.61	2572.25
275.83	2693.08
276.05	2492.38
276.26	2625.50
276.48	2611.16
276.69	2605.02
276.91	2645.98
277.12	2897.88
277.34	2674.65
277.55	2736.09
277.77	2658.26
277.99	2666.46
278.20	2629.59
278.42	2541.53
278.63	2562.01
278.85	2639.83
279.06	2539.48
279.28	2652.12
279.49	2834.39
279.71	2842.58
279.93	2736.09
280.14	2666.46
280.36	2623.45
280.57	2846.68
280.79	2648.02
281.00	2580.44
281.22	2699.22
281.43	2850.77
281.65	2353.12
281.86	2441.18
282.08	2760.66
282.29	2992.08
282.51	2496.47
282.73	2459.61
282.94	2465.75
283.16	2768.85
283.37	2758.61
283.59	2619.35
283.80	2795.48
284.02	2752.47
284.23	2654.17
284.45	2660.31
284.66	2580.44
284.88	2592.73
285.09	2701.27
285.31	2686.94
285.52	2779.09
285.74	2549.72
285.95	2768.85
286.17	2664.41
286.38	2811.86
286.60	2697.17
286.81	2545.63
287.03	2578.39
287.24	2717.65
287.46	2793.43
287.67	2588.63
287.89	2861.01
288.10	2662.36
288.32	2779.09
288.53	2809.81
288.75	2695.13
288.96	2850.77
289.18	2602.97
289.39	2545.63
289.61	2631.64
289.82	3086.29
290.04	2944.98
290.25	2545.63
290.47	2619.35
290.68	2639.83
290.90	2842.58
291.11	2447.32
291.33	2680.79
291.54	2598.87
291.76	2648.02
291.97	2680.79
292.18	2658.26
292.40	2635.74
292.61	2592.73
292.83	2858.96
293.04	2697.17
293.26	2707.41
293.47	2684.89
293.69	2514.91
293.90	2521.05
294.12	2861.01
294.33	2734.04
294.55	2666.46
294.76	2723.80
294.97	2938.84
295.19	3035.09
295.40	2562.01
295.62	2721.75
295.83	2846.68
296.05	2576.34
296.26	2818.00
296.48	2523.10
296.69	2654.17
296.90	2738.13
297.12	2832.34
297.33	2740.18
297.55	2744.28
297.76	2766.81
297.98	2629.59
298.19	2709.46
298.41	2727.89
298.62	2627.54
298.83	2795.48
299.05	2684.89
299.26	2670.55
299.48	2600.92
299.69	2719.70
299.90	2611.16
300.12	2588.63
300.33	2805.72
300.55	2676.70
300.76	2662.36
300.98	2592.73
301.19	2789.33
301.40	2676.70
301.62	2680.79
301.83	2850.77
302.05	2758.61
302.26	2615.26
302.47	2582.49
302.69	2584.54
302.90	2746.33
303.12	2392.03
303.33	2713.56
303.54	2998.23
303.76	2658.26
303.97	2590.68
304.19	2746.33
304.40	2588.63
304.61	2820.05
304.83	2758.61
305.04	2742.23
305.26	2783.19
305.47	2623.45
305.68	2664.41
305.90	2451.42
306.11	2885.59
306.33	2785.24
306.54	2529.24
306.75	2543.58
306.97	2521.05
307.18	2590.68
307.39	2645.98
307.61	2658.26
307.82	2666.46
308.04	2801.62
308.25	2553.82
308.46	2744.28
308.68	2736.09
308.89	2731.99
309.10	2676.70
309.32	2656.22
309.53	2682.84
309.74	2711.51
309.96	2625.50
310.17	2830.29
310.39	2643.93
310.60	2740.18
310.81	2564.06
311.03	2445.27
311.24	2805.72
311.45	2803.67
311.67	2768.85
311.88	2725.85
312.09	2740.18
312.31	2543.58
312.52	2619.35
312.73	2547.67
312.95	2559.96
313.16	2602.97
313.37	2801.62
313.59	2758.61
313.80	2838.48
314.01	2979.79
314.23	2676.70
314.44	2535.39
314.65	2619.35
314.87	2639.83
315.08	2598.87
315.29	2559.96
315.51	2613.21
315.72	2514.91
315.93	2697.17
316.15	2562.01
316.36	2625.50
316.57	2721.75
316.79	2684.89
317.00	2566.10
317.21	2850.77
317.43	2605.02
317.64	2619.35
317.85	2504.67
318.07	2625.50
318.28	2650.07
318.49	2682.84
318.70	2830.29
318.92	2787.29
319.13	2863.06
319.34	2770.90
319.56	2613.21
319.77	2768.85
319.98	2815.96
320.20	2772.95
320.41	2775.00
320.62	2840.53
320.83	2611.16
321.05	2883.54
321.26	2701.27
321.47	2731.99
321.69	2920.40
321.90	2471.90
322.11	2553.82
322.32	2691.03
322.54	2963.41
322.75	2656.22
322.96	3213.26
323.18	2576.34
323.39	2469.85
323.60	2523.10
323.81	2772.95
324.03	2576.34
324.24	2713.56
324.45	2562.01
324.66	2525.15
324.88	2938.84
325.09	2879.44
325.30	2543.58
325.52	2596.82
325.73	2809.81
325.94	2609.11
326.15	2457.56
326.37	2539.48
326.58	2891.73
326.79	3004.37
327.00	2613.21
327.22	2574.30
327.43	2654.17
327.64	2473.95
327.85	2688.98
328.07	2668.50
328.28	3020.75
328.49	2658.26
328.70	2637.78
328.92	2654.17
329.13	2666.46
329.34	2836.44
329.55	2813.91
329.76	2666.46
329.98	2801.62
330.19	2832.34
330.40	2691.03
330.61	2652.12
330.83	2795.48
331.04	2570.20
331.25	2629.59
331.46	2602.97
331.68	2500.57
331.89	2881.49
332.10	2629.59
332.31	2523.10
332.52	2742.23
332.74	2912.21
332.95	2392.03
333.16	2656.22
333.37	2824.15
333.58	2590.68
333.80	2666.46
334.01	2412.51
334.22	2711.51
334.43	2596.82
334.64	2590.68
334.86	2494.43
335.07	2600.92
335.28	2877.40
335.49	2461.66
335.70	2721.75
335.92	2912.21
336.13	3090.38
336.34	2652.12
336.55	2631.64
336.76	2772.95
336.98	2484.19
337.19	2623.45
337.40	2682.84
337.61	3026.90
337.82	2658.26
338.04	2695.13
338.25	2445.27
338.46	2711.51
338.67	2717.65
338.88	2523.10
339.09	2514.91
339.31	2686.94
339.52	2555.86
339.73	2547.67
339.94	2596.82
340.15	2893.78
340.36	2703.32
340.58	2660.31
340.79	2547.67
341.00	2850.77
341.21	2572.25
341.42	2846.68
341.63	2578.39
341.85	2854.87
342.06	2734.04
342.27	2475.99
342.48	2783.19
342.69	2562.01
342.90	2748.37
343.12	2850.77
343.33	2576.34
343.54	2938.84
343.75	2961.36
343.96	2596.82
344.17	2600.92
344.38	2598.87
344.60	2676.70
344.81	2547.67
345.02	2617.30
345.23	2756.57
345.44	3125.20
345.65	2658.26
345.86	2660.31
346.07	2777.05
346.29	2627.54
346.50	2740.18
346.71	2725.85
346.92	2836.44
347.13	3137.49
347.34	2594.78
347.55	2576.34
347.76	2680.79
347.98	2510.81
348.19	2641.88
348.40	2803.67
348.61	2643.93
348.82	2914.26
349.03	2736.09
349.24	2539.48
349.45	2961.36
349.66	2445.27
349.88	2621.40
350.09	2637.78
350.30	2953.17
350.51	2881.49
350.72	2748.37
350.93	2645.98
351.14	2631.64
351.35	2781.14
351.56	2523.10
351.77	2629.59
351.99	2840.53
352.20	2936.79
352.41	2670.55
352.62	2516.95
352.83	2709.46
353.04	2783.19
353.25	2652.12
353.46	2734.04
353.67	2901.97
353.88	2414.56
354.09	2643.93
354.30	2637.78
354.52	2758.61
354.73	2715.61
354.94	2627.54
355.15	2629.59
355.36	3002.32
355.57	2656.22
355.78	2605.02
355.99	2564.06
356.20	2725.85
356.41	2801.62
356.62	2658.26
356.83	2684.89
357.04	2981.84
357.25	2506.71
357.46	2576.34
357.68	2445.27
357.89	2572.25
358.10	2672.60
358.31	2615.26
358.52	2615.26
358.73	2531.29
358.94	2543.58
359.15	2598.87
359.36	2688.98
359.57	2678.74
359.78	2656.22
359.99	2695.13
360.20	2500.57
360.41	2656.22
360.62	2723.80
360.83	2691.03
361.04	2650.07
361.25	2828.24
361.46	3004.37
361.67	2748.37
361.88	2670.55
362.09	2793.43
362.30	2756.57
362.51	2527.19
362.72	2666.46
362.93	2891.73
363.14	2781.14
363.35	2672.60
363.56	2490.33
363.78	2873.30
363.99	2875.35
364.20	2600.92
364.41	2695.13
364.62	2920.40
364.83	2752.47
365.04	2545.63
365.25	2641.88
365.46	3063.76
365.67	2584.54
365.88	2674.65
366.09	2574.30
366.30	2662.36
366.51	2703.32
366.72	2449.37
366.93	2594.78
367.14	2760.66
367.35	2992.08
367.56	2582.49
367.77	2750.42
367.98	2727.89
368.18	2742.23
368.39	2686.94
368.60	2519.00
368.81	2742.23
369.02	2826.20
369.23	2580.44
369.44	2445.27
369.65	2678.74
369.86	2734.04
370.07	2703.32
370.28	2562.01
370.49	2826.20
370.70	2740.18
370.91	2535.39
371.12	2465.75
371.33	2932.69
371.54	2537.43
371.75	2783.19
371.96	2355.16
372.17	2824.15
372.38	2686.94
372.59	2611.16
372.80	2584.54
373.01	2695.13
373.22	2752.47
373.43	2547.67
373.64	2469.85
373.85	2889.68
374.06	2957.27
374.26	2693.08
374.47	2711.51
374.68	2899.92
374.89	2772.95
375.10	2521.05
375.31	2736.09
375.52	2709.46
375.73	2826.20
375.94	2480.09
376.15	2756.57
376.36	2564.06
376.57	2596.82
376.78	2637.78
376.99	2678.74
377.20	2908.12
377.40	2717.65
377.61	2764.76
377.82	2512.86
378.03	2975.70
378.24	2799.57
378.45	2670.55
378.66	2695.13
378.87	2527.19
379.08	2492.38
379.29	2605.02
379.50	2777.05
379.71	2770.90
379.91	2918.36
380.12	2580.44
380.33	2654.17
380.54	2736.09
380.75	2691.03
380.96	2559.96
381.17	2656.22
381.38	2793.43
381.59	2799.57
381.80	2691.03
382.00	2852.82
382.21	2824.15
382.42	2879.44
382.63	2899.92
382.84	2711.51
383.05	2799.57
383.26	2893.78
383.47	2693.08
383.68	2602.97
383.88	2828.24
384.09	2637.78
384.30	2846.68
384.51	2674.65
384.72	2645.98
384.93	2535.39
385.14	2645.98
385.35	2813.91
385.55	2543.58
385.76	2824.15
385.97	2697.17
386.18	2527.19
386.39	2637.78
386.60	2660.31
386.81	2592.73
387.02	2473.95
387.22	2564.06
387.43	2832.34
387.64	2777.05
387.85	2887.64
388.06	2840.53
388.27	3956.68
388.48	7440.27
388.68	10954.58
388.89	13334.32
389.10	14253.86
389.31	13797.17
389.52	10657.63
389.73	9387.89
389.93	8482.69
390.14	7907.21
390.35	7112.60
390.56	6256.54
390.77	5263.28
390.98	4067.27
391.18	3416.01
391.39	3157.97
391.60	2775.00
391.81	2824.15
392.02	2648.02
392.23	2992.08
392.43	2777.05
392.64	2770.90
392.85	2695.13
393.06	2983.89
393.27	2709.46
393.47	2551.77
393.68	2670.55
393.89	2650.07
394.10	2947.03
394.31	2461.66
394.52	2547.67
394.72	2574.30
394.93	2938.84
395.14	2482.14
395.35	2676.70
395.56	2588.63
395.76	2729.94
395.97	2635.74
396.18	2680.79
396.39	2775.00
396.60	3211.22
396.80	2863.06
397.01	2887.64
397.22	2818.00
397.43	2842.58
397.64	2625.50
397.84	2707.41
398.05	3051.47
398.26	2670.55
398.47	2711.51
398.67	2858.96
398.88	2777.05
399.09	2818.00
399.30	2607.06
399.51	2682.84
399.71	2611.16
399.92	2709.46
400.13	2777.05
400.34	2703.32
400.54	2754.52
400.75	2953.17
400.96	2662.36
401.17	2897.88
401.37	2766.81
401.58	2717.65
401.79	2615.26
402.00	2846.68
402.21	3160.02
402.41	2910.16
402.62	2912.21
402.83	2934.74
403.04	3094.48
403.24	3440.59
403.45	2727.89
403.66	2916.31
403.87	2789.33
404.07	3008.47
404.28	2858.96
404.49	2996.18
404.70	2838.48
404.90	2871.25
405.11	2676.70
405.32	2764.76
405.52	2678.74
405.73	2686.94
405.94	2539.48
406.15	2715.61
406.35	2873.30
406.56	2867.16
406.77	2676.70
406.98	2674.65
407.18	2613.21
407.39	2930.64
407.60	2680.79
407.80	2785.24
408.01	2658.26
408.22	2809.81
408.43	2662.36
408.63	2713.56
408.84	2805.72
409.05	2879.44
409.25	2559.96
409.46	2553.82
409.67	2650.07
409.88	2619.35
410.08	2645.98
410.29	2539.48
410.50	2850.77
410.70	2779.09
410.91	2572.25
411.12	2664.41
411.32	2758.61
411.53	2639.83
411.74	2668.50
411.95	2691.03
412.15	2772.95
412.36	2805.72
412.57	2768.85
412.77	2815.96
412.98	2783.19
413.19	2676.70
413.39	2703.32
413.60	2727.89
413.81	2906.07
414.01	2539.48
414.22	2736.09
414.43	2844.63
414.63	2635.74
414.84	2885.59
415.05	2637.78
415.25	2516.95
415.46	2861.01
415.67	2629.59
415.87	2715.61
416.08	2574.30
416.29	2664.41
416.49	2824.15
416.70	2691.03
416.91	2613.21
417.11	2664.41
417.32	2840.53
417.53	2746.33
417.73	2715.61
417.94	2721.75
418.15	2779.09
418.35	2650.07
418.56	2631.64
418.77	3096.53
418.97	2758.61
419.18	2752.47
419.38	2387.93
419.59	2760.66
419.80	2977.75
420.00	2584.54
420.21	2588.63
420.42	2928.60
420.62	2742.23
420.83	2588.63
421.04	2643.93
421.24	2723.80
421.45	2850.77
421.65	2645.98
421.86	2654.17
422.07	2813.91
422.27	2799.57
422.48	2668.50
422.69	2519.00
422.89	2598.87
423.10	2664.41
423.30	2519.00
423.51	2590.68
423.72	2809.81
423.92	2826.20
424.13	2445.27
424.33	2754.52
424.54	2797.53
424.75	2740.18
424.95	2881.49
425.16	2688.98
425.36	2750.42
425.57	2867.16
425.78	2791.38
425.98	2758.61
426.19	2680.79
426.39	2559.96
426.60	2686.94
426.81	2781.14
427.01	2697.17
427.22	2574.30
427.42	2514.91
427.63	2531.29
427.83	2947.03
428.04	2981.84
428.25	2762.71
428.45	2834.39
428.66	2928.60
428.86	2707.41
429.07	2543.58
429.28	2668.50
429.48	2707.41
429.69	2613.21
429.89	2709.46
430.10	2592.73
430.30	2856.92
430.51	2787.29
430.71	2559.96
430.92	2639.83
431.13	2680.79
431.33	2758.61
431.54	2697.17
431.74	2844.63
431.95	3092.43
432.15	2564.06
432.36	2711.51
432.56	2654.17
432.77	2912.21
432.98	3002.32
433.18	2652.12
433.39	2627.54
433.59	2727.89
433.80	2942.93
434.00	2897.88
434.21	2652.12
434.41	2586.58
434.62	2961.36
434.82	2576.34
435.03	2605.02
435.23	2750.42
435.44	2500.57
435.64	2682.84
435.85	2711.51
436.06	2828.24
436.26	2949.08
436.47	2648.02
436.67	2594.78
436.88	2623.45
437.08	2949.08
437.29	2770.90
437.49	2736.09
437.70	2863.06
437.90	2729.94
438.11	2879.44
438.31	2752.47
438.52	2924.50
438.72	2881.49
438.93	2973.65
439.13	2746.33
439.34	2891.73
439.54	2717.65
439.75	2781.14
439.95	2744.28
440.16	2717.65
440.36	2772.95
440.57	2742.23
440.77	2588.63
440.98	2695.13
441.18	2777.05
441.39	2621.40
441.59	2527.19
441.80	2949.08
442.00	2740.18
442.21	2760.66
442.41	2527.19
442.62	2844.63
442.82	2729.94
443.02	2680.79
443.23	2688.98
443.43	2596.82
443.64	2934.74
443.84	2582.49
444.05	2725.85
444.25	2688.98
444.46	2670.55
444.66	2660.31
444.87	2871.25
445.07	2422.75
445.28	2668.50
445.48	2785.24
445.69	2731.99
445.89	3030.99
446.09	2740.18
446.30	2899.92
446.50	3123.15
446.71	4589.50
446.91	5615.53
447.12	6363.04
447.32	6813.59
447.53	6647.71
447.73	5449.64
447.93	4761.53
448.14	4460.48
448.34	4472.76
448.55	3895.24
448.75	3792.84
448.96	3710.92
449.16	3465.16
449.36	3221.45
449.57	2891.73
449.77	2760.66
449.98	2643.93
450.18	2777.05
450.39	2676.70
450.59	2758.61
450.79	2797.53
451.00	2600.92
451.20	2783.19
451.41	2680.79
451.61	2809.81
451.81	2699.22
452.02	2596.82
452.22	2586.58
452.43	2623.45
452.63	2607.06
