SpectraSuite Data File
++++++++++++++++++++++++++++++++++++
Date: Thu May 05 16:20:29 CEST 2016
User: root
Dark Spectrum Present: No
Reference Spectrum Present: No
Number of Sampled Component Spectra: 1
Spectrometers: USB4C02835
Integration Time (usec): 100000 (USB4C02835)
Spectra Averaged: 1 (USB4C02835)
Boxcar Smoothing: 0 (USB4C02835)
Correct for Electrical Dark: No (USB4C02835)
Strobe/Lamp Enabled: No (USB4C02835)
Correct for Detector Non-linearity: No (USB4C02835)
Correct for Stray Light: No (USB4C02835)
Number of Pixels in Processed Spectrum: 3648
>>>>>Begin Processed Spectral Data<<<<<
177.47	2015.20
177.69	2015.20
177.91	2015.20
178.13	1982.43
178.36	2004.96
178.58	2504.67
178.80	2672.60
179.02	2455.51
179.24	2562.01
179.46	2441.18
179.68	2588.63
179.90	2635.74
180.13	2707.41
180.35	2396.12
180.57	2525.15
180.79	2744.28
181.01	2674.65
181.23	2467.80
181.45	2590.68
181.67	2867.16
181.90	2850.77
182.12	2584.54
182.34	2428.89
182.56	2863.06
182.78	2701.27
183.00	2555.86
183.22	2523.10
183.44	2469.85
183.66	3190.74
183.89	2590.68
184.11	2463.71
184.33	2793.43
184.55	2840.53
184.77	2463.71
184.99	2496.47
185.21	2684.89
185.43	3055.57
185.65	2457.56
185.87	2516.95
186.10	3006.42
186.32	3028.95
186.54	2510.81
186.76	2658.26
186.98	2858.96
187.20	2637.78
187.42	2562.01
187.64	2535.39
187.86	2723.80
188.08	2904.02
188.30	2514.91
188.52	2519.00
188.75	2899.92
188.97	2957.27
189.19	2473.95
189.41	2512.86
189.63	2764.76
189.85	2664.41
190.07	2328.54
190.29	2361.31
190.51	2760.66
190.73	2525.15
190.95	2727.89
191.17	2531.29
191.39	2473.95
191.61	2686.94
191.84	2559.96
192.06	2570.20
192.28	2381.79
192.50	3092.43
192.72	2596.82
192.94	2537.43
193.16	2906.07
193.38	2822.10
193.60	2537.43
193.82	2584.54
194.04	2811.86
194.26	2777.05
194.48	2570.20
194.70	2486.23
194.92	2643.93
195.14	2809.81
195.36	2463.71
195.58	2494.43
195.80	2691.03
196.02	2625.50
196.24	2490.33
196.46	2602.97
196.69	2740.18
196.91	3088.34
197.13	2516.95
197.35	2539.48
197.57	2881.49
197.79	2869.20
198.01	2502.62
198.23	2584.54
198.45	2744.28
198.67	2576.34
198.89	2408.41
199.11	2566.10
199.33	2650.07
199.55	2351.07
199.77	2445.27
199.99	2688.98
200.21	2631.64
200.43	2707.41
200.65	2398.17
200.87	2361.31
201.09	2770.90
201.31	2662.36
201.53	2529.24
201.75	2574.30
201.97	2805.72
202.19	2721.75
202.41	2566.10
202.63	2699.22
202.85	2865.11
203.07	2748.37
203.29	2557.91
203.51	2414.56
203.73	2658.26
203.95	3080.14
204.17	2506.71
204.39	2629.59
204.61	2691.03
204.83	2717.65
205.05	2592.73
205.27	2576.34
205.49	3018.71
205.71	2713.56
205.93	2490.33
206.15	2449.37
206.37	2725.85
206.59	2756.57
206.81	2381.79
207.03	2461.66
207.25	2574.30
207.47	2820.05
207.69	2506.71
207.91	2625.50
208.13	2942.93
208.34	2629.59
208.56	2549.72
208.78	2510.81
209.00	2664.41
209.22	2625.50
209.44	2525.15
209.66	2482.14
209.88	2803.67
210.10	2660.31
210.32	2531.29
210.54	2590.68
210.76	2695.13
210.98	2828.24
211.20	2428.89
211.42	2543.58
211.64	2830.29
211.86	2797.53
212.08	2559.96
212.30	2490.33
212.52	2637.78
212.74	2815.96
212.96	2586.58
213.17	2564.06
213.39	2832.34
213.61	2899.92
213.83	2541.53
214.05	2344.92
214.27	2895.83
214.49	2578.39
214.71	2564.06
214.93	2586.58
215.15	2703.32
215.37	2889.68
215.59	2439.13
215.81	2572.25
216.03	2879.44
216.24	2711.51
216.46	2531.29
216.68	2613.21
216.90	2863.06
217.12	2840.53
217.34	2521.05
217.56	2650.07
217.78	2901.97
218.00	2863.06
218.22	2551.77
218.44	2596.82
218.66	2738.13
218.87	2944.98
219.09	2490.33
219.31	2600.92
219.53	2748.37
219.75	2627.54
219.97	2576.34
220.19	2471.90
220.41	2684.89
220.63	2922.45
220.85	2484.19
221.06	2566.10
221.28	2940.88
221.50	2885.59
221.72	2531.29
221.94	2430.94
222.16	2783.19
222.38	2858.96
222.60	2496.47
222.82	2605.02
223.03	2840.53
223.25	2553.82
223.47	2510.81
223.69	2670.55
223.91	2854.87
224.13	2717.65
224.35	2328.54
224.57	2738.13
224.78	2834.39
225.00	2594.78
225.22	2553.82
225.44	2551.77
225.66	2891.73
225.88	2631.64
226.10	2596.82
226.32	2605.02
226.53	2922.45
226.75	2629.59
226.97	2564.06
227.19	2572.25
227.41	2596.82
227.63	2611.16
227.85	2381.79
228.06	2478.04
228.28	2775.00
228.50	2832.34
228.72	2420.70
228.94	2475.99
229.16	2449.37
229.37	2588.63
229.59	2488.28
229.81	2729.94
230.03	2648.02
230.25	2584.54
230.47	2340.83
230.69	2512.86
230.90	2818.00
231.12	2611.16
231.34	2545.63
231.56	2625.50
231.78	2564.06
232.00	2709.46
232.21	2523.10
232.43	2551.77
232.65	2385.88
232.87	2842.58
233.09	2387.93
233.30	2494.43
233.52	2822.10
233.74	2648.02
233.96	2441.18
234.18	2564.06
234.40	2762.71
234.61	3010.51
234.83	2420.70
235.05	2430.94
235.27	3035.09
235.49	2871.25
235.70	2488.28
235.92	2570.20
236.14	2830.29
236.36	3084.24
236.58	2392.03
236.79	2617.30
237.01	2682.84
237.23	2789.33
237.45	2695.13
237.67	2531.29
237.88	2779.09
238.10	2934.74
238.32	2471.90
238.54	2506.71
238.76	2699.22
238.97	2596.82
239.19	2435.03
239.41	2627.54
239.63	2885.59
239.85	2670.55
240.06	2529.24
240.28	2473.95
240.50	2932.69
240.72	2680.79
240.93	2478.04
241.15	2613.21
241.37	2777.05
241.59	2871.25
241.81	2635.74
242.02	2574.30
242.24	2701.27
242.46	2772.95
242.68	2418.65
242.89	2562.01
243.11	2861.01
243.33	2766.81
243.55	2512.86
243.76	2469.85
243.98	2629.59
244.20	2674.65
244.42	2422.75
244.64	2453.47
244.85	2611.16
245.07	2574.30
245.29	2498.52
245.51	2549.72
245.72	2852.82
245.94	2879.44
246.16	2512.86
246.38	2516.95
246.59	2711.51
246.81	2586.58
247.03	2455.51
247.24	2340.83
247.46	2588.63
247.68	2760.66
247.90	2441.18
248.11	2482.14
248.33	2797.53
248.55	2613.21
248.77	2598.87
248.98	2664.41
249.20	2990.03
249.42	2729.94
249.64	2621.40
249.85	2506.71
250.07	2631.64
250.29	2875.35
250.50	2578.39
250.72	2486.23
250.94	2865.11
251.16	2998.23
251.37	2455.51
251.59	2643.93
251.81	2869.20
252.02	2951.12
252.24	2490.33
252.46	2660.31
252.68	2654.17
252.89	2637.78
253.11	2396.12
253.33	2684.89
253.54	2885.59
253.76	2549.72
253.98	2480.09
254.20	2437.08
254.41	2529.24
254.63	2637.78
254.85	2422.75
255.06	2619.35
255.28	2756.57
255.50	2676.70
255.71	2564.06
255.93	2451.42
256.15	2633.69
256.36	2744.28
256.58	2408.41
256.80	2504.67
257.02	2668.50
257.23	2611.16
257.45	2519.00
257.67	2600.92
257.88	2600.92
258.10	2834.39
258.32	2529.24
258.53	2590.68
258.75	2883.54
258.97	2592.73
259.18	2381.79
259.40	2496.47
259.62	2965.46
259.83	2928.60
260.05	2504.67
260.27	3184.59
260.48	2820.05
260.70	2574.30
260.92	2490.33
261.13	2559.96
261.35	2695.13
261.57	2801.62
261.78	2367.45
262.00	2420.70
262.22	2850.77
262.43	2635.74
262.65	2496.47
262.86	2512.86
263.08	3063.76
263.30	2738.13
263.51	2408.41
263.73	2469.85
263.95	2981.84
264.16	2559.96
264.38	2363.36
264.60	2498.52
264.81	2736.09
265.03	2826.20
265.25	2777.05
265.46	2500.57
265.68	2949.08
265.89	2861.01
266.11	2439.13
266.33	2488.28
266.54	2795.48
266.76	2805.72
266.98	2578.39
267.19	2695.13
267.41	2826.20
267.62	2697.17
267.84	2334.68
268.06	2629.59
268.27	2682.84
268.49	2744.28
268.70	2621.40
268.92	2506.71
269.14	2674.65
269.35	2490.33
269.57	2609.11
269.79	2633.69
270.00	2660.31
270.22	2936.79
270.43	2398.17
270.65	2379.74
270.87	2793.43
271.08	2852.82
271.30	2590.68
271.51	2465.75
271.73	2832.34
271.95	2916.31
272.16	2486.23
272.38	2615.26
272.59	2627.54
272.81	2838.48
273.02	2459.61
273.24	2576.34
273.46	2867.16
273.67	2555.86
273.89	2525.15
274.10	2437.08
274.32	2893.78
274.54	2742.23
274.75	2584.54
274.97	2535.39
275.18	2844.63
275.40	2838.48
275.61	2568.15
275.83	2619.35
276.05	2547.67
276.26	2719.70
276.48	2682.84
276.69	2637.78
276.91	2678.74
277.12	2973.65
277.34	2615.26
277.55	2703.32
277.77	2742.23
277.99	2717.65
278.20	2580.44
278.42	2514.91
278.63	2621.40
278.85	2592.73
279.06	2535.39
279.28	2731.99
279.49	2957.27
279.71	2777.05
279.93	2607.06
280.14	2695.13
280.36	2559.96
280.57	2791.38
280.79	2668.50
281.00	2543.58
281.22	2629.59
281.43	2906.07
281.65	2441.18
281.86	2492.38
282.08	2793.43
282.29	3049.43
282.51	2447.32
282.73	2475.99
282.94	2414.56
283.16	2815.96
283.37	2809.81
283.59	2592.73
283.80	2803.67
284.02	2731.99
284.23	2699.22
284.45	2566.10
284.66	2588.63
284.88	2584.54
285.09	2600.92
285.31	2662.36
285.52	2760.66
285.74	2473.95
285.95	2768.85
286.17	2670.55
286.38	2740.18
286.60	2607.06
286.81	2527.19
287.03	2600.92
287.24	2721.75
287.46	2856.92
287.67	2658.26
287.89	2813.91
288.10	2695.13
288.32	2772.95
288.53	2768.85
288.75	2641.88
288.96	2807.77
289.18	2641.88
289.39	2541.53
289.61	2713.56
289.82	3053.52
290.04	3008.47
290.25	2408.41
290.47	2645.98
290.68	2705.37
290.90	2832.34
291.11	2484.19
291.33	2793.43
291.54	2615.26
291.76	2605.02
291.97	2602.97
292.18	2680.79
292.40	2680.79
292.61	2506.71
292.83	2918.36
293.04	2648.02
293.26	2797.53
293.47	2676.70
293.69	2519.00
293.90	2586.58
294.12	2834.39
294.33	2596.82
294.55	2695.13
294.76	2779.09
294.97	2949.08
295.19	2973.65
295.40	2600.92
295.62	2691.03
295.83	2826.20
296.05	2547.67
296.26	2772.95
296.48	2590.68
296.69	2713.56
296.90	2670.55
297.12	2758.61
297.33	2832.34
297.55	2693.08
297.76	2758.61
297.98	2715.61
298.19	2676.70
298.41	2658.26
298.62	2566.10
298.83	2820.05
299.05	2631.64
299.26	2641.88
299.48	2605.02
299.69	2684.89
299.90	2621.40
300.12	2611.16
300.33	2756.57
300.55	2664.41
300.76	2660.31
300.98	2574.30
301.19	2850.77
301.40	2635.74
301.62	2570.20
301.83	2729.94
302.05	2715.61
302.26	2633.69
302.47	2674.65
302.69	2576.34
302.90	2727.89
303.12	2344.92
303.33	2805.72
303.54	3006.42
303.76	2717.65
303.97	2615.26
304.19	2762.71
304.40	2668.50
304.61	2830.29
304.83	2709.46
305.04	2740.18
305.26	2688.98
305.47	2635.74
305.68	2559.96
305.90	2480.09
306.11	2858.96
306.33	2656.22
306.54	2570.20
306.75	2584.54
306.97	2551.77
307.18	2543.58
307.39	2631.64
307.61	2615.26
307.82	2711.51
308.04	2746.33
308.25	2473.95
308.46	2703.32
308.68	2715.61
308.89	2752.47
309.10	2731.99
309.32	2703.32
309.53	2668.50
309.74	2883.54
309.96	2600.92
310.17	2781.14
310.39	2635.74
310.60	2867.16
310.81	2605.02
311.03	2527.19
311.24	2889.68
311.45	2707.41
311.67	2840.53
311.88	2748.37
312.09	2703.32
312.31	2662.36
312.52	2564.06
312.73	2531.29
312.95	2531.29
313.16	2662.36
313.37	2719.70
313.59	2754.52
313.80	2852.82
314.01	3008.47
314.23	2600.92
314.44	2523.10
314.65	2578.39
314.87	2512.86
315.08	2531.29
315.29	2590.68
315.51	2605.02
315.72	2469.85
315.93	2654.17
316.15	2680.79
316.36	2621.40
316.57	2701.27
316.79	2658.26
317.00	2578.39
317.21	2818.00
317.43	2605.02
317.64	2658.26
317.85	2484.19
318.07	2594.78
318.28	2686.94
318.49	2738.13
318.70	2914.26
318.92	2752.47
319.13	2807.77
319.34	2787.29
319.56	2652.12
319.77	2750.42
319.98	2869.20
320.20	2787.29
320.41	2723.80
320.62	2861.01
320.83	2592.73
321.05	2824.15
321.26	2619.35
321.47	2717.65
321.69	2818.00
321.90	2523.10
322.11	2512.86
322.32	2770.90
322.54	2942.93
322.75	2572.25
322.96	3266.51
323.18	2502.62
323.39	2461.66
323.60	2588.63
323.81	2674.65
324.03	2600.92
324.24	2695.13
324.45	2680.79
324.66	2580.44
324.88	2842.58
325.09	2910.16
325.30	2598.87
325.52	2625.50
325.73	2801.62
325.94	2592.73
326.15	2498.52
326.37	2400.22
326.58	2879.44
326.79	2979.79
327.00	2639.83
327.22	2705.37
327.43	2635.74
327.64	2512.86
327.85	2738.13
328.07	2645.98
328.28	3006.42
328.49	2674.65
328.70	2680.79
328.92	2635.74
329.13	2633.69
329.34	2746.33
329.55	2834.39
329.76	2748.37
329.98	2682.84
330.19	2904.02
330.40	2744.28
330.61	2645.98
330.83	2869.20
331.04	2566.10
331.25	2664.41
331.46	2615.26
331.68	2602.97
331.89	2883.54
332.10	2629.59
332.31	2543.58
332.52	2656.22
332.74	2895.83
332.95	2486.23
333.16	2512.86
333.37	2803.67
333.58	2621.40
333.80	2619.35
334.01	2455.51
334.22	2719.70
334.43	2605.02
334.64	2615.26
334.86	2482.14
335.07	2588.63
335.28	2930.64
335.49	2486.23
335.70	2666.46
335.92	2953.17
336.13	3080.14
336.34	2648.02
336.55	2613.21
336.76	2736.09
336.98	2445.27
337.19	2643.93
337.40	2768.85
337.61	3145.68
337.82	2615.26
338.04	2688.98
338.25	2416.60
338.46	2682.84
338.67	2711.51
338.88	2596.82
339.09	2535.39
339.31	2568.15
339.52	2582.49
339.73	2553.82
339.94	2617.30
340.15	2750.42
340.36	2643.93
340.58	2723.80
340.79	2588.63
341.00	2750.42
341.21	2535.39
341.42	2858.96
341.63	2580.44
341.85	2809.81
342.06	2838.48
342.27	2547.67
342.48	2768.85
342.69	2484.19
342.90	2779.09
343.12	2867.16
343.33	2539.48
343.54	2836.44
343.75	2967.51
343.96	2662.36
344.17	2494.43
344.38	2652.12
344.60	2580.44
344.81	2527.19
345.02	2623.45
345.23	2914.26
345.44	3104.72
345.65	2711.51
345.86	2639.83
346.07	2721.75
346.29	2611.16
346.50	2682.84
346.71	2707.41
346.92	2934.74
347.13	3084.24
347.34	2674.65
347.55	2547.67
347.76	2744.28
347.98	2482.14
348.19	2662.36
348.40	2801.62
348.61	2713.56
348.82	2992.08
349.03	2713.56
349.24	2523.10
349.45	3074.00
349.66	2424.80
349.88	2572.25
350.09	2500.57
350.30	2897.88
350.51	2926.55
350.72	2678.74
350.93	2652.12
351.14	2609.11
351.35	2729.94
351.56	2643.93
351.77	2615.26
351.99	2854.87
352.20	2901.97
352.41	2723.80
352.62	2461.66
352.83	2711.51
353.04	2725.85
353.25	2596.82
353.46	2674.65
353.67	2877.40
353.88	2519.00
354.09	2576.34
354.30	2645.98
354.52	2848.72
354.73	2680.79
354.94	2574.30
355.15	2648.02
355.36	3028.95
355.57	2629.59
355.78	2590.68
355.99	2576.34
356.20	2762.71
356.41	2871.25
356.62	2750.42
356.83	2627.54
357.04	2873.30
357.25	2514.91
357.46	2633.69
357.68	2496.47
357.89	2621.40
358.10	2633.69
358.31	2564.06
358.52	2596.82
358.73	2506.71
358.94	2572.25
359.15	2594.78
359.36	2691.03
359.57	2734.04
359.78	2711.51
359.99	2785.24
360.20	2553.82
360.41	2672.60
360.62	2813.91
360.83	2723.80
361.04	2684.89
361.25	2770.90
361.46	3033.04
361.67	2715.61
361.88	2607.06
362.09	2799.57
362.30	2789.33
362.51	2523.10
362.72	2639.83
362.93	2867.16
363.14	2805.72
363.35	2678.74
363.56	2498.52
363.78	2801.62
363.99	2736.09
364.20	2631.64
364.41	2715.61
364.62	3026.90
364.83	2787.29
365.04	2645.98
365.25	2635.74
365.46	3002.32
365.67	2592.73
365.88	2613.21
366.09	2582.49
366.30	2600.92
366.51	2721.75
366.72	2498.52
366.93	2562.01
367.14	2736.09
367.35	2916.31
367.56	2627.54
367.77	2719.70
367.98	2715.61
368.18	2779.09
368.39	2684.89
368.60	2590.68
368.81	2826.20
369.02	2803.67
369.23	2586.58
369.44	2416.60
369.65	2627.54
369.86	2699.22
370.07	2711.51
370.28	2494.43
370.49	2754.52
370.70	2793.43
370.91	2484.19
371.12	2465.75
371.33	2844.63
371.54	2611.16
371.75	2779.09
371.96	2281.44
372.17	2772.95
372.38	2695.13
372.59	2693.08
372.80	2590.68
373.01	2680.79
373.22	2643.93
373.43	2627.54
373.64	2498.52
373.85	2916.31
374.06	3039.19
374.26	2801.62
374.47	2592.73
374.68	3028.95
374.89	2731.99
375.10	2574.30
375.31	2715.61
375.52	2731.99
375.73	2781.14
375.94	2506.71
376.15	2719.70
376.36	2641.88
376.57	2662.36
376.78	2557.91
376.99	2686.94
377.20	2922.45
377.40	2748.37
377.61	2912.21
377.82	2510.81
378.03	2994.13
378.24	2850.77
378.45	2658.26
378.66	2670.55
378.87	2502.62
379.08	2519.00
379.29	2562.01
379.50	2709.46
379.71	2693.08
379.91	2824.15
380.12	2613.21
380.33	2711.51
380.54	2648.02
380.75	2723.80
380.96	2635.74
381.17	2637.78
381.38	2750.42
381.59	2658.26
381.80	2648.02
382.00	2805.72
382.21	2711.51
382.42	2973.65
382.63	2971.60
382.84	2752.47
383.05	2928.60
383.26	2920.40
383.47	2715.61
383.68	2768.85
383.88	2801.62
384.09	2772.95
384.30	2858.96
384.51	2727.89
384.72	2633.69
384.93	2574.30
385.14	2637.78
385.35	2779.09
385.55	2551.77
385.76	3041.23
385.97	2637.78
386.18	2490.33
386.39	2629.59
386.60	2658.26
386.81	2537.43
387.02	2502.62
387.22	2514.91
387.43	2844.63
387.64	2703.32
387.85	2803.67
388.06	2775.00
388.27	3913.67
388.48	7577.48
388.68	10878.81
388.89	13315.89
389.10	14649.12
389.31	13854.51
389.52	10794.84
389.73	9404.27
389.93	8585.08
390.14	8009.61
390.35	7036.82
390.56	6528.92
390.77	5267.38
390.98	4044.74
391.18	3375.05
391.39	3096.53
391.60	2818.00
391.81	2801.62
392.02	2598.87
392.23	3071.95
392.43	2709.46
392.64	2731.99
392.85	2648.02
393.06	2961.36
393.27	2686.94
393.47	2533.34
393.68	2711.51
393.89	2670.55
394.10	2879.44
394.31	2621.40
394.52	2564.06
394.72	2586.58
394.93	2934.74
395.14	2494.43
395.35	2680.79
395.56	2547.67
395.76	2750.42
395.97	2637.78
396.18	2768.85
396.39	2846.68
396.60	3291.09
396.80	2858.96
397.01	2742.23
397.22	2908.12
397.43	2965.46
397.64	2660.31
397.84	2779.09
398.05	3063.76
398.26	2750.42
398.47	2746.33
398.67	2879.44
398.88	2805.72
399.09	2828.24
399.30	2588.63
399.51	2670.55
399.71	2664.41
399.92	2639.83
400.13	2748.37
400.34	2676.70
400.54	2725.85
400.75	2983.89
400.96	2623.45
401.17	2912.21
401.37	2721.75
401.58	2779.09
401.79	2627.54
402.00	2744.28
402.21	3139.54
402.41	2854.87
402.62	2981.84
402.83	3028.95
403.04	3016.66
403.24	3291.09
403.45	2719.70
403.66	2910.16
403.87	2783.19
404.07	2955.22
404.28	2832.34
404.49	2971.60
404.70	2727.89
404.90	2779.09
405.11	2623.45
405.32	2686.94
405.52	2668.50
405.73	2545.63
405.94	2566.10
406.15	2715.61
406.35	2854.87
406.56	2815.96
406.77	2650.07
406.98	2711.51
407.18	2621.40
407.39	2971.60
407.60	2654.17
407.80	2766.81
408.01	2684.89
408.22	2766.81
408.43	2523.10
408.63	2615.26
408.84	2834.39
409.05	2783.19
409.25	2584.54
409.46	2639.83
409.67	2711.51
409.88	2588.63
410.08	2664.41
410.29	2703.32
410.50	2799.57
410.70	2760.66
410.91	2555.86
411.12	2695.13
411.32	2787.29
411.53	2645.98
411.74	2660.31
411.95	2713.56
412.15	2682.84
412.36	2801.62
412.57	2861.01
412.77	2746.33
412.98	2654.17
413.19	2553.82
413.39	2715.61
413.60	2680.79
413.81	2906.07
414.01	2605.02
414.22	2629.59
414.43	2764.76
414.63	2670.55
414.84	2877.40
415.05	2600.92
415.25	2523.10
415.46	2815.96
415.67	2648.02
415.87	2717.65
416.08	2660.31
416.29	2645.98
416.49	2785.24
416.70	2711.51
416.91	2633.69
417.11	2725.85
417.32	2815.96
417.53	2678.74
417.73	2766.81
417.94	2678.74
418.15	2793.43
418.35	2678.74
418.56	2588.63
418.77	3074.00
418.97	2752.47
419.18	2717.65
419.38	2342.88
419.59	2725.85
419.80	2879.44
420.00	2588.63
420.21	2615.26
420.42	2899.92
420.62	2703.32
420.83	2580.44
421.04	2650.07
421.24	2736.09
421.45	2854.87
421.65	2668.50
421.86	2600.92
422.07	2824.15
422.27	2766.81
422.48	2553.82
422.69	2553.82
422.89	2699.22
423.10	2645.98
423.30	2529.24
423.51	2670.55
423.72	2809.81
423.92	2889.68
424.13	2482.14
424.33	2645.98
424.54	2883.54
424.75	2809.81
424.95	2889.68
425.16	2770.90
425.36	2779.09
425.57	2846.68
425.78	2758.61
425.98	2762.71
426.19	2734.04
426.39	2611.16
426.60	2736.09
426.81	2805.72
427.01	2764.76
427.22	2598.87
427.42	2498.52
427.63	2645.98
427.83	2891.73
428.04	2975.70
428.25	2801.62
428.45	2793.43
428.66	2785.24
428.86	2754.52
429.07	2641.88
429.28	2662.36
429.48	2756.57
429.69	2697.17
429.89	2686.94
430.10	2584.54
430.30	2789.33
430.51	2836.44
430.71	2582.49
430.92	2602.97
431.13	2598.87
431.33	2795.48
431.54	2703.32
431.74	2889.68
431.95	3071.95
432.15	2615.26
432.36	2643.93
432.56	2740.18
432.77	3035.09
432.98	2930.64
433.18	2682.84
433.39	2572.25
433.59	2703.32
433.80	2990.03
434.00	2918.36
434.21	2670.55
434.41	2609.11
434.62	3069.91
434.82	2578.39
435.03	2584.54
435.23	2731.99
435.44	2519.00
435.64	2715.61
435.85	2674.65
436.06	2830.29
436.26	2858.96
436.47	2625.50
436.67	2553.82
436.88	2645.98
437.08	2889.68
437.29	2815.96
437.49	2768.85
437.70	2889.68
437.90	2695.13
438.11	2805.72
438.31	2756.57
438.52	2910.16
438.72	2881.49
438.93	2981.84
439.13	2711.51
439.34	2887.64
439.54	2754.52
439.75	2756.57
439.95	2736.09
440.16	2637.78
440.36	2652.12
440.57	2625.50
440.77	2645.98
440.98	2750.42
441.18	2738.13
441.39	2553.82
441.59	2473.95
441.80	3041.23
442.00	2736.09
442.21	2707.41
442.41	2523.10
442.62	2834.39
442.82	2594.78
443.02	2605.02
443.23	2625.50
443.43	2723.80
443.64	2815.96
443.84	2557.91
444.05	2686.94
444.25	2754.52
444.46	2693.08
444.66	2660.31
444.87	2820.05
445.07	2510.81
445.28	2715.61
445.48	2912.21
445.69	2791.38
445.89	3045.33
446.09	2686.94
446.30	3037.14
446.50	3160.02
446.71	4552.63
446.91	5607.34
447.12	6406.05
447.32	6801.30
447.53	6520.73
447.73	5355.44
447.93	4839.35
448.14	4517.82
448.34	4509.63
448.55	3862.47
448.75	3796.93
448.96	3745.73
449.16	3350.48
449.36	3284.94
449.57	2848.72
449.77	2717.65
449.98	2676.70
450.18	2795.48
450.39	2711.51
450.59	2783.19
450.79	2731.99
451.00	2654.17
451.20	2830.29
451.41	2691.03
451.61	2793.43
451.81	2662.36
452.02	2615.26
452.22	2725.85
452.43	2641.88
452.63	2688.98
