SpectraSuite Data File
++++++++++++++++++++++++++++++++++++
Date: Thu May 05 16:20:43 CEST 2016
User: root
Dark Spectrum Present: No
Reference Spectrum Present: No
Number of Sampled Component Spectra: 1
Spectrometers: USB4C02835
Integration Time (usec): 100000 (USB4C02835)
Spectra Averaged: 1 (USB4C02835)
Boxcar Smoothing: 0 (USB4C02835)
Correct for Electrical Dark: No (USB4C02835)
Strobe/Lamp Enabled: No (USB4C02835)
Correct for Detector Non-linearity: No (USB4C02835)
Correct for Stray Light: No (USB4C02835)
Number of Pixels in Processed Spectrum: 3648
>>>>>Begin Processed Spectral Data<<<<<
177.47	2054.11
177.69	2054.11
177.91	2054.11
178.13	2015.20
178.36	2037.73
178.58	2535.39
178.80	2709.46
179.02	2547.67
179.24	2613.21
179.46	2486.23
179.68	2576.34
179.90	2691.03
180.13	2727.89
180.35	2398.17
180.57	2500.57
180.79	2795.48
181.01	2801.62
181.23	2543.58
181.45	2639.83
181.67	2703.32
181.90	2811.86
182.12	2559.96
182.34	2328.54
182.56	2805.72
182.78	2779.09
183.00	2473.95
183.22	2519.00
183.44	2398.17
183.66	3129.30
183.89	2598.87
184.11	2469.85
184.33	2756.57
184.55	2901.97
184.77	2506.71
184.99	2564.06
185.21	2602.97
185.43	3121.10
185.65	2473.95
185.87	2504.67
186.10	3030.99
186.32	3012.56
186.54	2584.54
186.76	2576.34
186.98	2811.86
187.20	2703.32
187.42	2523.10
187.64	2543.58
187.86	2824.15
188.08	2818.00
188.30	2457.56
188.52	2607.06
188.75	2977.75
188.97	2867.16
189.19	2422.75
189.41	2502.62
189.63	2791.38
189.85	2621.40
190.07	2389.98
190.29	2310.11
190.51	2766.81
190.73	2435.03
190.95	2688.98
191.17	2455.51
191.39	2469.85
191.61	2793.43
191.84	2488.28
192.06	2607.06
192.28	2498.52
192.50	3241.93
192.72	2559.96
192.94	2549.72
193.16	2899.92
193.38	2785.24
193.60	2457.56
193.82	2631.64
194.04	2891.73
194.26	2729.94
194.48	2424.80
194.70	2527.19
194.92	2643.93
195.14	2869.20
195.36	2568.15
195.58	2600.92
195.80	2734.04
196.02	2609.11
196.24	2502.62
196.46	2564.06
196.69	2562.01
196.91	3047.38
197.13	2572.25
197.35	2467.80
197.57	2992.08
197.79	2824.15
198.01	2645.98
198.23	2459.61
198.45	2881.49
198.67	2510.81
198.89	2414.56
199.11	2629.59
199.33	2672.60
199.55	2420.70
199.77	2506.71
199.99	2623.45
200.21	2691.03
200.43	2770.90
200.65	2392.03
200.87	2404.32
201.09	2652.12
201.31	2731.99
201.53	2490.33
201.75	2637.78
201.97	2850.77
202.19	2738.13
202.41	2547.67
202.63	2643.93
202.85	2811.86
203.07	2672.60
203.29	2555.86
203.51	2441.18
203.73	2670.55
203.95	3123.15
204.17	2535.39
204.39	2656.22
204.61	2664.41
204.83	2559.96
205.05	2572.25
205.27	2564.06
205.49	3067.86
205.71	2738.13
205.93	2406.36
206.15	2463.71
206.37	2762.71
206.59	2727.89
206.81	2422.75
207.03	2488.28
207.25	2580.44
207.47	2754.52
207.69	2465.75
207.91	2807.77
208.13	2957.27
208.34	2619.35
208.56	2478.04
208.78	2570.20
209.00	2693.08
209.22	2623.45
209.44	2570.20
209.66	2508.76
209.88	2760.66
210.10	2719.70
210.32	2512.86
210.54	2598.87
210.76	2637.78
210.98	2899.92
211.20	2361.31
211.42	2564.06
211.64	2928.60
211.86	2729.94
212.08	2602.97
212.30	2549.72
212.52	2596.82
212.74	2711.51
212.96	2617.30
213.17	2656.22
213.39	2789.33
213.61	2916.31
213.83	2539.48
214.05	2385.88
214.27	2924.50
214.49	2635.74
214.71	2473.95
214.93	2594.78
215.15	2760.66
215.37	2824.15
215.59	2369.50
215.81	2531.29
216.03	2924.50
216.24	2725.85
216.46	2553.82
216.68	2596.82
216.90	2834.39
217.12	2926.55
217.34	2422.75
217.56	2590.68
217.78	2906.07
218.00	2813.91
218.22	2588.63
218.44	2586.58
218.66	2758.61
218.87	3045.33
219.09	2543.58
219.31	2576.34
219.53	2785.24
219.75	2711.51
219.97	2543.58
220.19	2547.67
220.41	2666.46
220.63	2901.97
220.85	2559.96
221.06	2533.34
221.28	2936.79
221.50	2842.58
221.72	2551.77
221.94	2404.32
222.16	2824.15
222.38	2887.64
222.60	2498.52
222.82	2588.63
223.03	2891.73
223.25	2611.16
223.47	2580.44
223.69	2721.75
223.91	2848.72
224.13	2766.81
224.35	2449.37
224.57	2707.41
224.78	2830.29
225.00	2566.10
225.22	2600.92
225.44	2404.32
225.66	2826.20
225.88	2619.35
226.10	2596.82
226.32	2570.20
226.53	3030.99
226.75	2695.13
226.97	2654.17
227.19	2539.48
227.41	2607.06
227.63	2686.94
227.85	2365.40
228.06	2539.48
228.28	2727.89
228.50	2889.68
228.72	2406.36
228.94	2519.00
229.16	2523.10
229.37	2559.96
229.59	2463.71
229.81	2752.47
230.03	2623.45
230.25	2572.25
230.47	2363.36
230.69	2482.14
230.90	2828.24
231.12	2670.55
231.34	2586.58
231.56	2625.50
231.78	2621.40
232.00	2713.56
232.21	2535.39
232.43	2553.82
232.65	2396.12
232.87	2822.10
233.09	2414.56
233.30	2504.67
233.52	2830.29
233.74	2701.27
233.96	2502.62
234.18	2654.17
234.40	2740.18
234.61	3071.95
234.83	2465.75
235.05	2469.85
235.27	3114.96
235.49	3010.51
235.70	2506.71
235.92	2584.54
236.14	2854.87
236.36	3080.14
236.58	2463.71
236.79	2584.54
237.01	2748.37
237.23	2709.46
237.45	2701.27
237.67	2510.81
237.88	2756.57
238.10	3061.71
238.32	2420.70
238.54	2482.14
238.76	2729.94
238.97	2592.73
239.19	2441.18
239.41	2570.20
239.63	2865.11
239.85	2756.57
240.06	2625.50
240.28	2570.20
240.50	2783.19
240.72	2711.51
240.93	2469.85
241.15	2588.63
241.37	2695.13
241.59	2910.16
241.81	2504.67
242.02	2555.86
242.24	2758.61
242.46	2832.34
242.68	2381.79
242.89	2484.19
243.11	2830.29
243.33	2721.75
243.55	2480.09
243.76	2555.86
243.98	2643.93
244.20	2703.32
244.42	2488.28
244.64	2568.15
244.85	2533.34
245.07	2559.96
245.29	2500.57
245.51	2484.19
245.72	2789.33
245.94	2914.26
246.16	2543.58
246.38	2607.06
246.59	2631.64
246.81	2607.06
247.03	2467.80
247.24	2381.79
247.46	2658.26
247.68	2791.38
247.90	2449.37
248.11	2539.48
248.33	2877.40
248.55	2727.89
248.77	2586.58
248.98	2621.40
249.20	3053.52
249.42	2754.52
249.64	2545.63
249.85	2494.43
250.07	2652.12
250.29	2818.00
250.50	2607.06
250.72	2430.94
250.94	2736.09
251.16	3096.53
251.37	2564.06
251.59	2609.11
251.81	2852.82
252.02	3055.57
252.24	2482.14
252.46	2621.40
252.68	2631.64
252.89	2686.94
253.11	2424.80
253.33	2676.70
253.54	2906.07
253.76	2508.76
253.98	2531.29
254.20	2535.39
254.41	2557.91
254.63	2703.32
254.85	2412.51
255.06	2617.30
255.28	2820.05
255.50	2701.27
255.71	2521.05
255.93	2432.99
256.15	2738.13
256.36	2834.39
256.58	2332.64
256.80	2514.91
257.02	2623.45
257.23	2729.94
257.45	2576.34
257.67	2602.97
257.88	2625.50
258.10	2865.11
258.32	2490.33
258.53	2602.97
258.75	2912.21
258.97	2627.54
259.18	2441.18
259.40	2461.66
259.62	3014.61
259.83	2971.60
260.05	2543.58
260.27	3178.45
260.48	2801.62
260.70	2543.58
260.92	2480.09
261.13	2588.63
261.35	2742.23
261.57	2799.57
261.78	2484.19
262.00	2459.61
262.22	2768.85
262.43	2588.63
262.65	2527.19
262.86	2547.67
263.08	3092.43
263.30	2662.36
263.51	2375.64
263.73	2519.00
263.95	2918.36
264.16	2623.45
264.38	2457.56
264.60	2519.00
264.81	2746.33
265.03	2858.96
265.25	2795.48
265.46	2527.19
265.68	2895.83
265.89	2777.05
266.11	2426.84
266.33	2445.27
266.54	2844.63
266.76	2799.57
266.98	2629.59
267.19	2586.58
267.41	2877.40
267.62	2678.74
267.84	2367.45
268.06	2596.82
268.27	2723.80
268.49	2856.92
268.70	2633.69
268.92	2547.67
269.14	2607.06
269.35	2566.10
269.57	2562.01
269.79	2574.30
270.00	2654.17
270.22	2990.03
270.43	2414.56
270.65	2420.70
270.87	2781.14
271.08	2883.54
271.30	2586.58
271.51	2527.19
271.73	2850.77
271.95	2924.50
272.16	2578.39
272.38	2617.30
272.59	2576.34
272.81	2854.87
273.02	2449.37
273.24	2525.15
273.46	2875.35
273.67	2584.54
273.89	2385.88
274.10	2459.61
274.32	2863.06
274.54	2770.90
274.75	2621.40
274.97	2519.00
275.18	2891.73
275.40	2748.37
275.61	2586.58
275.83	2588.63
276.05	2545.63
276.26	2672.60
276.48	2668.50
276.69	2551.77
276.91	2629.59
277.12	2959.31
277.34	2731.99
277.55	2680.79
277.77	2744.28
277.99	2709.46
278.20	2502.62
278.42	2574.30
278.63	2615.26
278.85	2570.20
279.06	2545.63
279.28	2709.46
279.49	2830.29
279.71	2807.77
279.93	2676.70
280.14	2582.49
280.36	2648.02
280.57	2852.82
280.79	2709.46
281.00	2445.27
281.22	2672.60
281.43	2746.33
281.65	2398.17
281.86	2531.29
282.08	2719.70
282.29	2963.41
282.51	2555.86
282.73	2502.62
282.94	2494.43
283.16	2820.05
283.37	2744.28
283.59	2631.64
283.80	2803.67
284.02	2607.06
284.23	2670.55
284.45	2627.54
284.66	2592.73
284.88	2588.63
285.09	2596.82
285.31	2680.79
285.52	2711.51
285.74	2435.03
285.95	2748.37
286.17	2715.61
286.38	2924.50
286.60	2578.39
286.81	2568.15
287.03	2541.53
287.24	2660.31
287.46	2832.34
287.67	2695.13
287.89	2836.44
288.10	2705.37
288.32	2658.26
288.53	2736.09
288.75	2674.65
288.96	2840.53
289.18	2629.59
289.39	2502.62
289.61	2725.85
289.82	2983.89
290.04	2971.60
290.25	2449.37
290.47	2605.02
290.68	2693.08
290.90	2826.20
291.11	2449.37
291.33	2734.04
291.54	2613.21
291.76	2670.55
291.97	2670.55
292.18	2594.78
292.40	2672.60
292.61	2596.82
292.83	2897.88
293.04	2664.41
293.26	2801.62
293.47	2707.41
293.69	2523.10
293.90	2539.48
294.12	2930.64
294.33	2703.32
294.55	2568.15
294.76	2678.74
294.97	2973.65
295.19	3010.51
295.40	2686.94
295.62	2652.12
295.83	2832.34
296.05	2641.88
296.26	2793.43
296.48	2605.02
296.69	2711.51
296.90	2777.05
297.12	2764.76
297.33	2709.46
297.55	2729.94
297.76	2639.83
297.98	2672.60
298.19	2670.55
298.41	2729.94
298.62	2574.30
298.83	2801.62
299.05	2680.79
299.26	2629.59
299.48	2617.30
299.69	2760.66
299.90	2600.92
300.12	2535.39
300.33	2838.48
300.55	2633.69
300.76	2629.59
300.98	2580.44
301.19	2795.48
301.40	2576.34
301.62	2621.40
301.83	2799.57
302.05	2707.41
302.26	2592.73
302.47	2709.46
302.69	2523.10
302.90	2832.34
303.12	2396.12
303.33	2756.57
303.54	3016.66
303.76	2654.17
303.97	2539.48
304.19	2818.00
304.40	2602.97
304.61	2762.71
304.83	2811.86
305.04	2672.60
305.26	2752.47
305.47	2666.46
305.68	2637.78
305.90	2478.04
306.11	2875.35
306.33	2703.32
306.54	2568.15
306.75	2516.95
306.97	2492.38
307.18	2574.30
307.39	2553.82
307.61	2715.61
307.82	2684.89
308.04	2867.16
308.25	2551.77
308.46	2682.84
308.68	2709.46
308.89	2793.43
309.10	2791.38
309.32	2600.92
309.53	2754.52
309.74	2858.96
309.96	2590.68
310.17	2772.95
310.39	2703.32
310.60	2777.05
310.81	2574.30
311.03	2521.05
311.24	2856.92
311.45	2654.17
311.67	2758.61
311.88	2676.70
312.09	2686.94
312.31	2607.06
312.52	2580.44
312.73	2566.10
312.95	2564.06
313.16	2572.25
313.37	2725.85
313.59	2664.41
313.80	2842.58
314.01	3006.42
314.23	2588.63
314.44	2478.04
314.65	2580.44
314.87	2602.97
315.08	2580.44
315.29	2600.92
315.51	2639.83
315.72	2512.86
315.93	2738.13
316.15	2627.54
316.36	2660.31
316.57	2637.78
316.79	2652.12
317.00	2582.49
317.21	2768.85
317.43	2617.30
317.64	2660.31
317.85	2590.68
318.07	2662.36
318.28	2555.86
318.49	2711.51
318.70	2873.30
318.92	2777.05
319.13	2813.91
319.34	2785.24
319.56	2641.88
319.77	2762.71
319.98	2842.58
320.20	2770.90
320.41	2684.89
320.62	2789.33
320.83	2549.72
321.05	2793.43
321.26	2666.46
321.47	2686.94
321.69	2971.60
321.90	2492.38
322.11	2631.64
322.32	2768.85
322.54	2926.55
322.75	2662.36
322.96	3203.02
323.18	2504.67
323.39	2512.86
323.60	2516.95
323.81	2734.04
324.03	2660.31
324.24	2705.37
324.45	2637.78
324.66	2555.86
324.88	2830.29
325.09	2904.02
325.30	2609.11
325.52	2588.63
325.73	2772.95
325.94	2529.24
326.15	2422.75
326.37	2541.53
326.58	2949.08
326.79	2899.92
327.00	2432.99
327.22	2609.11
327.43	2678.74
327.64	2596.82
327.85	2666.46
328.07	2635.74
328.28	3014.61
328.49	2598.87
328.70	2600.92
328.92	2641.88
329.13	2660.31
329.34	2748.37
329.55	2863.06
329.76	2668.50
329.98	2723.80
330.19	2842.58
330.40	2650.07
330.61	2701.27
330.83	2754.52
331.04	2611.16
331.25	2686.94
331.46	2592.73
331.68	2519.00
331.89	2895.83
332.10	2580.44
332.31	2494.43
332.52	2744.28
332.74	2834.39
332.95	2412.51
333.16	2596.82
333.37	2770.90
333.58	2633.69
333.80	2613.21
334.01	2379.74
334.22	2736.09
334.43	2627.54
334.64	2578.39
334.86	2461.66
335.07	2611.16
335.28	2926.55
335.49	2525.15
335.70	2705.37
335.92	2908.12
336.13	3018.71
336.34	2680.79
336.55	2635.74
336.76	2826.20
336.98	2406.36
337.19	2656.22
337.40	2734.04
337.61	3010.51
337.82	2631.64
338.04	2641.88
338.25	2428.89
338.46	2703.32
338.67	2758.61
338.88	2414.56
339.09	2482.14
339.31	2639.83
339.52	2537.43
339.73	2600.92
339.94	2602.97
340.15	2760.66
340.36	2615.26
340.58	2637.78
340.79	2605.02
341.00	2867.16
341.21	2598.87
341.42	2840.53
341.63	2654.17
341.85	2809.81
342.06	2785.24
342.27	2514.91
342.48	2695.13
342.69	2572.25
342.90	2756.57
343.12	2791.38
343.33	2590.68
343.54	2873.30
343.75	2856.92
343.96	2652.12
344.17	2486.23
344.38	2709.46
344.60	2594.78
344.81	2465.75
345.02	2658.26
345.23	2838.48
345.44	3037.14
345.65	2693.08
345.86	2664.41
346.07	2678.74
346.29	2566.10
346.50	2711.51
346.71	2658.26
346.92	2840.53
347.13	3055.57
347.34	2580.44
347.55	2527.19
347.76	2754.52
347.98	2510.81
348.19	2682.84
348.40	2719.70
348.61	2703.32
348.82	2957.27
349.03	2721.75
349.24	2543.58
349.45	3024.85
349.66	2418.65
349.88	2596.82
350.09	2480.09
350.30	2895.83
350.51	2901.97
350.72	2744.28
350.93	2615.26
351.14	2662.36
351.35	2762.71
351.56	2615.26
351.77	2549.72
351.99	2727.89
352.20	2918.36
352.41	2729.94
352.62	2467.80
352.83	2711.51
353.04	2705.37
353.25	2609.11
353.46	2680.79
353.67	2895.83
353.88	2529.24
354.09	2605.02
354.30	2596.82
354.52	2850.77
354.73	2721.75
354.94	2504.67
355.15	2668.50
355.36	2942.93
355.57	2607.06
355.78	2625.50
355.99	2629.59
356.20	2748.37
356.41	2873.30
356.62	2695.13
356.83	2645.98
357.04	2969.55
357.25	2547.67
357.46	2564.06
357.68	2441.18
357.89	2582.49
358.10	2832.34
358.31	2629.59
358.52	2588.63
358.73	2553.82
358.94	2568.15
359.15	2543.58
359.36	2719.70
359.57	2768.85
359.78	2717.65
359.99	2826.20
360.20	2572.25
360.41	2625.50
360.62	2809.81
360.83	2693.08
361.04	2602.97
361.25	2801.62
361.46	2959.31
361.67	2707.41
361.88	2615.26
362.09	2830.29
362.30	2707.41
362.51	2553.82
362.72	2713.56
362.93	2809.81
363.14	2813.91
363.35	2645.98
363.56	2494.43
363.78	2869.20
363.99	2861.01
364.20	2566.10
364.41	2684.89
364.62	2924.50
364.83	2777.05
365.04	2648.02
365.25	2625.50
365.46	3065.81
365.67	2590.68
365.88	2697.17
366.09	2674.65
366.30	2727.89
366.51	2709.46
366.72	2506.71
366.93	2559.96
367.14	2684.89
367.35	2893.78
367.56	2572.25
367.77	2758.61
367.98	2627.54
368.18	2754.52
368.39	2629.59
368.60	2537.43
368.81	2912.21
369.02	2719.70
369.23	2580.44
369.44	2414.56
369.65	2695.13
369.86	2811.86
370.07	2758.61
370.28	2572.25
370.49	2791.38
370.70	2766.81
370.91	2514.91
371.12	2418.65
371.33	2834.39
371.54	2621.40
371.75	2822.10
371.96	2385.88
372.17	2830.29
372.38	2770.90
372.59	2709.46
372.80	2598.87
373.01	2670.55
373.22	2715.61
373.43	2688.98
373.64	2412.51
373.85	2873.30
374.06	2985.94
374.26	2785.24
374.47	2740.18
374.68	2944.98
374.89	2744.28
375.10	2498.52
375.31	2727.89
375.52	2691.03
375.73	2711.51
375.94	2545.63
376.15	2725.85
376.36	2613.21
376.57	2598.87
376.78	2684.89
376.99	2637.78
377.20	2932.69
377.40	2668.50
377.61	2799.57
377.82	2613.21
378.03	2979.79
378.24	2807.77
378.45	2637.78
378.66	2688.98
378.87	2539.48
379.08	2482.14
379.29	2574.30
379.50	2734.04
379.71	2656.22
379.91	2844.63
380.12	2613.21
380.33	2654.17
380.54	2691.03
380.75	2756.57
380.96	2641.88
381.17	2664.41
381.38	2662.36
381.59	2686.94
381.80	2613.21
382.00	2840.53
382.21	2789.33
382.42	3014.61
382.63	2871.25
382.84	2727.89
383.05	2832.34
383.26	2881.49
383.47	2762.71
383.68	2578.39
383.88	2717.65
384.09	2736.09
384.30	2736.09
384.51	2734.04
384.72	2645.98
384.93	2525.15
385.14	2725.85
385.35	2797.53
385.55	2539.48
385.76	2932.69
385.97	2641.88
386.18	2484.19
386.39	2631.64
386.60	2543.58
386.81	2572.25
387.02	2494.43
387.22	2572.25
387.43	2891.73
387.64	2723.80
387.85	2850.77
388.06	2850.77
388.27	4061.12
388.48	7509.90
388.68	11022.17
388.89	13354.80
389.10	14481.19
389.31	13909.80
389.52	11009.88
389.73	9289.59
389.93	8523.65
390.14	8005.51
390.35	7241.62
390.56	6354.85
390.77	5316.53
390.98	4102.08
391.18	3471.31
391.39	3147.73
391.60	2891.73
391.81	2908.12
392.02	2621.40
392.23	3059.67
392.43	2738.13
392.64	2828.24
392.85	2652.12
393.06	2908.12
393.27	2719.70
393.47	2602.97
393.68	2611.16
393.89	2621.40
394.10	2828.24
394.31	2572.25
394.52	2586.58
394.72	2613.21
394.93	2959.31
395.14	2475.99
395.35	2693.08
395.56	2588.63
395.76	2719.70
395.97	2729.94
396.18	2760.66
396.39	2756.57
396.60	3233.74
396.80	2979.79
397.01	2904.02
397.22	2889.68
397.43	2899.92
397.64	2605.02
397.84	2711.51
398.05	3022.80
398.26	2760.66
398.47	2701.27
398.67	2787.29
398.88	2791.38
399.09	2848.72
399.30	2609.11
399.51	2670.55
399.71	2660.31
399.92	2691.03
400.13	2711.51
400.34	2588.63
400.54	2697.17
400.75	3014.61
400.96	2682.84
401.17	2877.40
401.37	2809.81
401.58	2699.22
401.79	2553.82
402.00	2795.48
402.21	3127.25
402.41	2889.68
402.62	2889.68
402.83	3020.75
403.04	3127.25
403.24	3358.67
403.45	2715.61
403.66	2899.92
403.87	2994.13
404.07	2944.98
404.28	2867.16
404.49	2912.21
404.70	2764.76
404.90	2922.45
405.11	2703.32
405.32	2697.17
405.52	2629.59
405.73	2645.98
405.94	2545.63
406.15	2650.07
406.35	2838.48
406.56	2783.19
406.77	2699.22
406.98	2650.07
407.18	2553.82
407.39	2928.60
407.60	2598.87
407.80	2701.27
408.01	2564.06
408.22	2736.09
408.43	2535.39
408.63	2734.04
408.84	2877.40
409.05	2811.86
409.25	2570.20
409.46	2564.06
409.67	2643.93
409.88	2664.41
410.08	2660.31
410.29	2654.17
410.50	2803.67
410.70	2781.14
410.91	2572.25
411.12	2707.41
411.32	2725.85
411.53	2516.95
411.74	2707.41
411.95	2676.70
412.15	2811.86
412.36	2867.16
412.57	2772.95
412.77	2793.43
412.98	2840.53
413.19	2662.36
413.39	2686.94
413.60	2650.07
413.81	2881.49
414.01	2545.63
414.22	2691.03
414.43	2740.18
414.63	2686.94
414.84	2949.08
415.05	2674.65
415.25	2457.56
415.46	2766.81
415.67	2607.06
415.87	2691.03
416.08	2609.11
416.29	2742.23
416.49	2824.15
416.70	2572.25
416.91	2596.82
417.11	2703.32
417.32	2846.68
417.53	2746.33
417.73	2764.76
417.94	2715.61
418.15	2781.14
418.35	2670.55
418.56	2637.78
418.77	3069.91
418.97	2711.51
419.18	2721.75
419.38	2430.94
419.59	2684.89
419.80	2926.55
420.00	2588.63
420.21	2680.79
420.42	2934.74
420.62	2842.58
420.83	2566.10
421.04	2631.64
421.24	2783.19
421.45	2809.81
421.65	2631.64
421.86	2572.25
422.07	2844.63
422.27	2815.96
422.48	2645.98
422.69	2492.38
422.89	2650.07
423.10	2674.65
423.30	2525.15
423.51	2639.83
423.72	2801.62
423.92	2801.62
424.13	2492.38
424.33	2635.74
424.54	2838.48
424.75	2797.53
424.95	2818.00
425.16	2643.93
425.36	2680.79
425.57	2889.68
425.78	2725.85
425.98	2805.72
426.19	2635.74
426.39	2574.30
426.60	2727.89
426.81	2785.24
427.01	2824.15
427.22	2568.15
427.42	2547.67
427.63	2584.54
427.83	2789.33
428.04	2936.79
428.25	2768.85
428.45	2762.71
428.66	2858.96
428.86	2719.70
429.07	2654.17
429.28	2654.17
429.48	2703.32
429.69	2574.30
429.89	2627.54
430.10	2521.05
430.30	2867.16
430.51	2809.81
430.71	2578.39
430.92	2627.54
431.13	2539.48
431.33	2828.24
431.54	2652.12
431.74	2877.40
431.95	3065.81
432.15	2594.78
432.36	2658.26
432.56	2658.26
432.77	2930.64
432.98	2992.08
433.18	2731.99
433.39	2572.25
433.59	2678.74
433.80	3033.04
434.00	2869.20
434.21	2594.78
434.41	2529.24
434.62	3078.10
434.82	2580.44
435.03	2609.11
435.23	2764.76
435.44	2408.41
435.64	2566.10
435.85	2705.37
436.06	2777.05
436.26	2885.59
436.47	2633.69
436.67	2662.36
436.88	2660.31
437.08	2871.25
437.29	2744.28
437.49	2719.70
437.70	2938.84
437.90	2754.52
438.11	2834.39
438.31	2635.74
438.52	2899.92
438.72	2930.64
438.93	2985.94
439.13	2713.56
439.34	2813.91
439.54	2723.80
439.75	2756.57
439.95	2736.09
440.16	2664.41
440.36	2682.84
440.57	2731.99
440.77	2623.45
440.98	2750.42
441.18	2809.81
441.39	2539.48
441.59	2574.30
441.80	3010.51
442.00	2691.03
442.21	2707.41
442.41	2523.10
442.62	2953.17
442.82	2670.55
443.02	2660.31
443.23	2662.36
443.43	2680.79
443.64	2842.58
443.84	2535.39
444.05	2760.66
444.25	2725.85
444.46	2625.50
444.66	2619.35
444.87	2897.88
445.07	2512.86
445.28	2721.75
445.48	2879.44
445.69	2748.37
445.89	3100.62
446.09	2734.04
446.30	2990.03
446.50	3024.85
446.71	4552.63
446.91	5709.74
447.12	6326.18
447.32	6840.22
447.53	6602.65
447.73	5377.97
447.93	4825.01
448.14	4548.54
448.34	4544.44
448.55	3903.43
448.75	3811.27
448.96	3712.97
449.16	3452.88
449.36	3327.95
449.57	2865.11
449.77	2627.54
449.98	2699.22
450.18	2873.30
450.39	2584.54
450.59	2744.28
450.79	2740.18
451.00	2629.59
451.20	2723.80
451.41	2676.70
451.61	2727.89
451.81	2699.22
452.02	2592.73
452.22	2678.74
452.43	2670.55
452.63	2611.16
