SpectraSuite Data File
++++++++++++++++++++++++++++++++++++
Date: Thu May 05 16:20:19 CEST 2016
User: root
Dark Spectrum Present: No
Reference Spectrum Present: No
Number of Sampled Component Spectra: 1
Spectrometers: USB4C02835
Integration Time (usec): 100000 (USB4C02835)
Spectra Averaged: 1 (USB4C02835)
Boxcar Smoothing: 0 (USB4C02835)
Correct for Electrical Dark: No (USB4C02835)
Strobe/Lamp Enabled: No (USB4C02835)
Correct for Detector Non-linearity: No (USB4C02835)
Correct for Stray Light: No (USB4C02835)
Number of Pixels in Processed Spectrum: 3648
>>>>>Begin Processed Spectral Data<<<<<
177.47	2013.15
177.69	2013.15
177.91	2013.15
178.13	2062.30
178.36	2011.11
178.58	2596.82
178.80	2705.37
179.02	2543.58
179.24	2574.30
179.46	2482.14
179.68	2557.91
179.90	2660.31
180.13	2770.90
180.35	2461.66
180.57	2457.56
180.79	2901.97
181.01	2734.04
181.23	2521.05
181.45	2668.50
181.67	2764.76
181.90	2844.63
182.12	2519.00
182.34	2406.36
182.56	2801.62
182.78	2770.90
183.00	2459.61
183.22	2539.48
183.44	2396.12
183.66	3188.69
183.89	2705.37
184.11	2504.67
184.33	2832.34
184.55	2887.64
184.77	2512.86
184.99	2514.91
185.21	2654.17
185.43	3080.14
185.65	2459.61
185.87	2467.80
186.10	2975.70
186.32	3014.61
186.54	2574.30
186.76	2635.74
186.98	2891.73
187.20	2783.19
187.42	2609.11
187.64	2465.75
187.86	2752.47
188.08	2932.69
188.30	2420.70
188.52	2523.10
188.75	2863.06
188.97	2953.17
189.19	2539.48
189.41	2516.95
189.63	2856.92
189.85	2701.27
190.07	2340.83
190.29	2359.26
190.51	2740.18
190.73	2506.71
190.95	2719.70
191.17	2559.96
191.39	2473.95
191.61	2666.46
191.84	2463.71
192.06	2605.02
192.28	2533.34
192.50	3121.10
192.72	2582.49
192.94	2521.05
193.16	2899.92
193.38	2723.80
193.60	2506.71
193.82	2609.11
194.04	2887.64
194.26	2772.95
194.48	2564.06
194.70	2502.62
194.92	2582.49
195.14	2856.92
195.36	2488.28
195.58	2480.09
195.80	2693.08
196.02	2562.01
196.24	2447.32
196.46	2527.19
196.69	2684.89
196.91	3037.14
197.13	2600.92
197.35	2580.44
197.57	2957.27
197.79	2799.57
198.01	2568.15
198.23	2521.05
198.45	2795.48
198.67	2592.73
198.89	2410.46
199.11	2666.46
199.33	2641.88
199.55	2422.75
199.77	2482.14
199.99	2619.35
200.21	2652.12
200.43	2746.33
200.65	2400.22
200.87	2342.88
201.09	2670.55
201.31	2668.50
201.53	2580.44
201.75	2584.54
201.97	2826.20
202.19	2672.60
202.41	2537.43
202.63	2666.46
202.85	2762.71
203.07	2768.85
203.29	2564.06
203.51	2424.80
203.73	2607.06
203.95	3139.54
204.17	2502.62
204.39	2602.97
204.61	2725.85
204.83	2674.65
205.05	2652.12
205.27	2576.34
205.49	2981.84
205.71	2758.61
205.93	2447.32
206.15	2392.03
206.37	2758.61
206.59	2627.54
206.81	2445.27
207.03	2414.56
207.25	2541.53
207.47	2848.72
207.69	2572.25
207.91	2801.62
208.13	3000.27
208.34	2570.20
208.56	2512.86
208.78	2584.54
209.00	2674.65
209.22	2559.96
209.44	2553.82
209.66	2488.28
209.88	2799.57
210.10	2670.55
210.32	2447.32
210.54	2633.69
210.76	2670.55
210.98	2908.12
211.20	2295.77
211.42	2648.02
211.64	2981.84
211.86	2707.41
212.08	2615.26
212.30	2580.44
212.52	2648.02
212.74	2764.76
212.96	2594.78
213.17	2562.01
213.39	2854.87
213.61	3008.47
213.83	2527.19
214.05	2373.60
214.27	2867.16
214.49	2559.96
214.71	2480.09
214.93	2580.44
215.15	2750.42
215.37	2779.09
215.59	2418.65
215.81	2615.26
216.03	2883.54
216.24	2781.14
216.46	2539.48
216.68	2592.73
216.90	2746.33
217.12	2883.54
217.34	2467.80
217.56	2641.88
217.78	2920.40
218.00	2840.53
218.22	2607.06
218.44	2588.63
218.66	2707.41
218.87	3033.04
219.09	2582.49
219.31	2510.81
219.53	2768.85
219.75	2619.35
219.97	2539.48
220.19	2488.28
220.41	2670.55
220.63	2934.74
220.85	2519.00
221.06	2576.34
221.28	2818.00
221.50	2846.68
221.72	2502.62
221.94	2424.80
222.16	2691.03
222.38	2779.09
222.60	2455.51
222.82	2559.96
223.03	2820.05
223.25	2525.15
223.47	2525.15
223.69	2623.45
223.91	2875.35
224.13	2758.61
224.35	2408.41
224.57	2731.99
224.78	2801.62
225.00	2635.74
225.22	2564.06
225.44	2463.71
225.66	2850.77
225.88	2631.64
226.10	2559.96
226.32	2547.67
226.53	2926.55
226.75	2635.74
226.97	2557.91
227.19	2545.63
227.41	2633.69
227.63	2605.02
227.85	2394.08
228.06	2471.90
228.28	2779.09
228.50	2830.29
228.72	2367.45
228.94	2424.80
229.16	2545.63
229.37	2580.44
229.59	2416.60
229.81	2701.27
230.03	2668.50
230.25	2551.77
230.47	2392.03
230.69	2418.65
230.90	2836.44
231.12	2633.69
231.34	2568.15
231.56	2594.78
231.78	2545.63
232.00	2705.37
232.21	2523.10
232.43	2533.34
232.65	2422.75
232.87	2762.71
233.09	2422.75
233.30	2459.61
233.52	2883.54
233.74	2648.02
233.96	2541.53
234.18	2617.30
234.40	2715.61
234.61	3053.52
234.83	2400.22
235.05	2490.33
235.27	3104.72
235.49	2920.40
235.70	2428.89
235.92	2588.63
236.14	2805.72
236.36	3037.14
236.58	2412.51
236.79	2574.30
237.01	2750.42
237.23	2678.74
237.45	2660.31
237.67	2488.28
237.88	2770.90
238.10	3086.29
238.32	2498.52
238.54	2461.66
238.76	2772.95
238.97	2564.06
239.19	2461.66
239.41	2574.30
239.63	2805.72
239.85	2627.54
240.06	2535.39
240.28	2490.33
240.50	2891.73
240.72	2699.22
240.93	2404.32
241.15	2562.01
241.37	2641.88
241.59	2889.68
241.81	2424.80
242.02	2539.48
242.24	2740.18
242.46	2815.96
242.68	2435.03
242.89	2478.04
243.11	2914.26
243.33	2682.84
243.55	2551.77
243.76	2541.53
243.98	2637.78
244.20	2652.12
244.42	2521.05
244.64	2510.81
244.85	2527.19
245.07	2555.86
245.29	2615.26
245.51	2572.25
245.72	2746.33
245.94	2754.52
246.16	2449.37
246.38	2588.63
246.59	2643.93
246.81	2531.29
247.03	2500.57
247.24	2334.68
247.46	2666.46
247.68	2764.76
247.90	2496.47
248.11	2564.06
248.33	2791.38
248.55	2682.84
248.77	2629.59
248.98	2664.41
249.20	2881.49
249.42	2791.38
249.64	2459.61
249.85	2463.71
250.07	2568.15
250.29	2797.53
250.50	2578.39
250.72	2422.75
250.94	2758.61
251.16	3006.42
251.37	2441.18
251.59	2545.63
251.81	2750.42
252.02	2942.93
252.24	2439.13
252.46	2590.68
252.68	2555.86
252.89	2641.88
253.11	2398.17
253.33	2752.47
253.54	2895.83
253.76	2625.50
253.98	2478.04
254.20	2490.33
254.41	2627.54
254.63	2699.22
254.85	2359.26
255.06	2617.30
255.28	2746.33
255.50	2676.70
255.71	2463.71
255.93	2406.36
256.15	2768.85
256.36	2781.14
256.58	2398.17
256.80	2506.71
257.02	2723.80
257.23	2693.08
257.45	2510.81
257.67	2582.49
257.88	2572.25
258.10	2781.14
258.32	2471.90
258.53	2629.59
258.75	2938.84
258.97	2572.25
259.18	2465.75
259.40	2494.43
259.62	2938.84
259.83	2949.08
260.05	2533.34
260.27	3170.26
260.48	2928.60
260.70	2510.81
260.92	2404.32
261.13	2564.06
261.35	2701.27
261.57	2807.77
261.78	2285.53
262.00	2447.32
262.22	2799.57
262.43	2582.49
262.65	2531.29
262.86	2510.81
263.08	3094.48
263.30	2680.79
263.51	2322.40
263.73	2498.52
263.95	2914.26
264.16	2596.82
264.38	2478.04
264.60	2475.99
264.81	2768.85
265.03	2848.72
265.25	2807.77
265.46	2498.52
265.68	2957.27
265.89	2850.77
266.11	2398.17
266.33	2523.10
266.54	2936.79
266.76	2734.04
266.98	2594.78
267.19	2711.51
267.41	2836.44
267.62	2801.62
267.84	2355.16
268.06	2637.78
268.27	2787.29
268.49	2936.79
268.70	2551.77
268.92	2543.58
269.14	2605.02
269.35	2570.20
269.57	2588.63
269.79	2656.22
270.00	2643.93
270.22	2985.94
270.43	2432.99
270.65	2346.97
270.87	2770.90
271.08	2920.40
271.30	2613.21
271.51	2512.86
271.73	2787.29
271.95	2908.12
272.16	2480.09
272.38	2617.30
272.59	2674.65
272.81	2830.29
273.02	2508.76
273.24	2514.91
273.46	2887.64
273.67	2590.68
273.89	2432.99
274.10	2475.99
274.32	2856.92
274.54	2789.33
274.75	2602.97
274.97	2615.26
275.18	2815.96
275.40	2721.75
275.61	2578.39
275.83	2670.55
276.05	2568.15
276.26	2709.46
276.48	2562.01
276.69	2629.59
276.91	2580.44
277.12	2920.40
277.34	2672.60
277.55	2768.85
277.77	2658.26
277.99	2709.46
278.20	2521.05
278.42	2432.99
278.63	2541.53
278.85	2562.01
279.06	2463.71
279.28	2740.18
279.49	2830.29
279.71	2736.09
279.93	2652.12
280.14	2635.74
280.36	2695.13
280.57	2904.02
280.79	2744.28
281.00	2490.33
281.22	2609.11
281.43	2854.87
281.65	2473.95
281.86	2527.19
282.08	2852.82
282.29	3035.09
282.51	2471.90
282.73	2516.95
282.94	2512.86
283.16	2838.48
283.37	2691.03
283.59	2660.31
283.80	2746.33
284.02	2656.22
284.23	2602.97
284.45	2564.06
284.66	2643.93
284.88	2613.21
285.09	2537.43
285.31	2693.08
285.52	2820.05
285.74	2473.95
285.95	2701.27
286.17	2623.45
286.38	2828.24
286.60	2611.16
286.81	2590.68
287.03	2590.68
287.24	2666.46
287.46	2807.77
287.67	2699.22
287.89	2760.66
288.10	2654.17
288.32	2734.04
288.53	2789.33
288.75	2717.65
288.96	2838.48
289.18	2641.88
289.39	2535.39
289.61	2666.46
289.82	3045.33
290.04	2998.23
290.25	2541.53
290.47	2697.17
290.68	2643.93
290.90	2858.96
291.11	2449.37
291.33	2801.62
291.54	2607.06
291.76	2676.70
291.97	2658.26
292.18	2643.93
292.40	2645.98
292.61	2568.15
292.83	2834.39
293.04	2637.78
293.26	2709.46
293.47	2754.52
293.69	2508.76
293.90	2592.73
294.12	2873.30
294.33	2711.51
294.55	2658.26
294.76	2703.32
294.97	2912.21
295.19	3065.81
295.40	2551.77
295.62	2654.17
295.83	2865.11
296.05	2613.21
296.26	2670.55
296.48	2596.82
296.69	2654.17
296.90	2750.42
297.12	2746.33
297.33	2775.00
297.55	2721.75
297.76	2815.96
297.98	2699.22
298.19	2744.28
298.41	2623.45
298.62	2637.78
298.83	2736.09
299.05	2707.41
299.26	2627.54
299.48	2629.59
299.69	2691.03
299.90	2633.69
300.12	2559.96
300.33	2766.81
300.55	2615.26
300.76	2686.94
300.98	2596.82
301.19	2815.96
301.40	2596.82
301.62	2627.54
301.83	2731.99
302.05	2758.61
302.26	2605.02
302.47	2668.50
302.69	2519.00
302.90	2734.04
303.12	2412.51
303.33	2627.54
303.54	3018.71
303.76	2543.58
303.97	2633.69
304.19	2869.20
304.40	2564.06
304.61	2811.86
304.83	2742.23
305.04	2729.94
305.26	2809.81
305.47	2627.54
305.68	2559.96
305.90	2449.37
306.11	2858.96
306.33	2701.27
306.54	2545.63
306.75	2539.48
306.97	2521.05
307.18	2652.12
307.39	2648.02
307.61	2658.26
307.82	2760.66
308.04	2822.10
308.25	2537.43
308.46	2758.61
308.68	2775.00
308.89	2674.65
309.10	2789.33
309.32	2674.65
309.53	2684.89
309.74	2668.50
309.96	2531.29
310.17	2695.13
310.39	2676.70
310.60	2889.68
310.81	2656.22
311.03	2559.96
311.24	2807.77
311.45	2660.31
311.67	2838.48
311.88	2670.55
312.09	2662.36
312.31	2678.74
312.52	2547.67
312.73	2582.49
312.95	2514.91
313.16	2549.72
313.37	2752.47
313.59	2684.89
313.80	2760.66
314.01	2918.36
314.23	2576.34
314.44	2451.42
314.65	2555.86
314.87	2568.15
315.08	2500.57
315.29	2613.21
315.51	2514.91
315.72	2521.05
315.93	2772.95
316.15	2623.45
316.36	2721.75
316.57	2699.22
316.79	2625.50
317.00	2629.59
317.21	2813.91
317.43	2617.30
317.64	2717.65
317.85	2535.39
318.07	2619.35
318.28	2717.65
318.49	2736.09
318.70	2836.44
318.92	2801.62
319.13	2699.22
319.34	2768.85
319.56	2641.88
319.77	2924.50
319.98	2762.71
320.20	2672.60
320.41	2703.32
320.62	2770.90
320.83	2600.92
321.05	2873.30
321.26	2619.35
321.47	2662.36
321.69	2869.20
321.90	2435.03
322.11	2623.45
322.32	2736.09
322.54	2928.60
322.75	2572.25
322.96	3196.88
323.18	2543.58
323.39	2422.75
323.60	2551.77
323.81	2758.61
324.03	2654.17
324.24	2693.08
324.45	2674.65
324.66	2576.34
324.88	2820.05
325.09	2934.74
325.30	2578.39
325.52	2543.58
325.73	2707.41
325.94	2584.54
326.15	2416.60
326.37	2488.28
326.58	2877.40
326.79	2895.83
327.00	2527.19
327.22	2650.07
327.43	2623.45
327.64	2496.47
327.85	2600.92
328.07	2650.07
328.28	2934.74
328.49	2678.74
328.70	2611.16
328.92	2631.64
329.13	2777.05
329.34	2811.86
329.55	2895.83
329.76	2746.33
329.98	2758.61
330.19	2947.03
330.40	2684.89
330.61	2705.37
330.83	2869.20
331.04	2588.63
331.25	2744.28
331.46	2578.39
331.68	2539.48
331.89	2926.55
332.10	2645.98
332.31	2490.33
332.52	2719.70
332.74	2895.83
332.95	2478.04
333.16	2619.35
333.37	2932.69
333.58	2592.73
333.80	2707.41
334.01	2443.23
334.22	2709.46
334.43	2594.78
334.64	2559.96
334.86	2541.53
335.07	2562.01
335.28	2963.41
335.49	2449.37
335.70	2682.84
335.92	2850.77
336.13	2994.13
336.34	2648.02
336.55	2639.83
336.76	2789.33
336.98	2432.99
337.19	2609.11
337.40	2686.94
337.61	3088.34
337.82	2729.94
338.04	2752.47
338.25	2414.56
338.46	2760.66
338.67	2740.18
338.88	2553.82
339.09	2545.63
339.31	2701.27
339.52	2562.01
339.73	2566.10
339.94	2570.20
340.15	2848.72
340.36	2623.45
340.58	2666.46
340.79	2566.10
341.00	2762.71
341.21	2645.98
341.42	2828.24
341.63	2578.39
341.85	2881.49
342.06	2705.37
342.27	2559.96
342.48	2768.85
342.69	2519.00
342.90	2824.15
343.12	2797.53
343.33	2559.96
343.54	2904.02
343.75	2799.57
343.96	2670.55
344.17	2533.34
344.38	2713.56
344.60	2637.78
344.81	2537.43
345.02	2656.22
345.23	2889.68
345.44	3024.85
345.65	2766.81
345.86	2695.13
346.07	2783.19
346.29	2559.96
346.50	2783.19
346.71	2695.13
346.92	2873.30
347.13	3024.85
347.34	2623.45
347.55	2549.72
347.76	2713.56
347.98	2449.37
348.19	2588.63
348.40	2768.85
348.61	2654.17
348.82	3010.51
349.03	2650.07
349.24	2588.63
349.45	2981.84
349.66	2486.23
349.88	2637.78
350.09	2539.48
350.30	2883.54
350.51	2879.44
350.72	2688.98
350.93	2691.03
351.14	2676.70
351.35	2830.29
351.56	2633.69
351.77	2645.98
351.99	2781.14
352.20	2981.84
352.41	2809.81
352.62	2478.04
352.83	2740.18
353.04	2650.07
353.25	2594.78
353.46	2666.46
353.67	2842.58
353.88	2439.13
354.09	2533.34
354.30	2627.54
354.52	2799.57
354.73	2674.65
354.94	2543.58
355.15	2635.74
355.36	3026.90
355.57	2621.40
355.78	2504.67
355.99	2545.63
356.20	2613.21
356.41	3020.75
356.62	2688.98
356.83	2605.02
357.04	2951.12
357.25	2418.65
357.46	2535.39
357.68	2480.09
357.89	2586.58
358.10	2674.65
358.31	2564.06
358.52	2572.25
358.73	2568.15
358.94	2609.11
359.15	2645.98
359.36	2676.70
359.57	2701.27
359.78	2654.17
359.99	2779.09
360.20	2547.67
360.41	2740.18
360.62	2740.18
360.83	2691.03
361.04	2688.98
361.25	2777.05
361.46	2934.74
361.67	2699.22
361.88	2656.22
362.09	2863.06
362.30	2791.38
362.51	2498.52
362.72	2639.83
362.93	2777.05
363.14	2822.10
363.35	2645.98
363.56	2549.72
363.78	2856.92
363.99	2885.59
364.20	2580.44
364.41	2621.40
364.62	3061.71
364.83	2715.61
365.04	2652.12
365.25	2570.20
365.46	2930.64
365.67	2605.02
365.88	2654.17
366.09	2637.78
366.30	2621.40
366.51	2727.89
366.72	2557.91
366.93	2613.21
367.14	2766.81
367.35	2867.16
367.56	2533.34
367.77	2707.41
367.98	2643.93
368.18	2746.33
368.39	2768.85
368.60	2496.47
368.81	2824.15
369.02	2815.96
369.23	2607.06
369.44	2504.67
369.65	2691.03
369.86	2783.19
370.07	2670.55
370.28	2502.62
370.49	2775.00
370.70	2809.81
370.91	2531.29
371.12	2465.75
371.33	2834.39
371.54	2656.22
371.75	2731.99
371.96	2426.84
372.17	2686.94
372.38	2668.50
372.59	2633.69
372.80	2576.34
373.01	2680.79
373.22	2762.71
373.43	2621.40
373.64	2514.91
373.85	2871.25
374.06	2990.03
374.26	2803.67
374.47	2719.70
374.68	2879.44
374.89	2789.33
375.10	2547.67
375.31	2664.41
375.52	2703.32
375.73	2736.09
375.94	2504.67
376.15	2842.58
376.36	2631.64
376.57	2529.24
376.78	2695.13
376.99	2645.98
377.20	2889.68
377.40	2709.46
377.61	2863.06
377.82	2473.95
378.03	2873.30
378.24	2793.43
378.45	2666.46
378.66	2678.74
378.87	2465.75
379.08	2500.57
379.29	2590.68
379.50	2709.46
379.71	2762.71
379.91	2809.81
380.12	2590.68
380.33	2580.44
380.54	2697.17
380.75	2721.75
380.96	2662.36
381.17	2564.06
381.38	2705.37
381.59	2678.74
381.80	2627.54
382.00	2807.77
382.21	2701.27
382.42	2971.60
382.63	2881.49
382.84	2699.22
383.05	2871.25
383.26	2944.98
383.47	2695.13
383.68	2703.32
383.88	2731.99
384.09	2715.61
384.30	2908.12
384.51	2813.91
384.72	2693.08
384.93	2617.30
385.14	2664.41
385.35	2820.05
385.55	2535.39
385.76	2934.74
385.97	2625.50
386.18	2480.09
386.39	2590.68
386.60	2668.50
386.81	2605.02
387.02	2525.15
387.22	2435.03
387.43	2813.91
387.64	2648.02
387.85	2883.54
388.06	2883.54
388.27	3921.86
388.48	7614.35
388.68	11116.37
388.89	13442.87
389.10	14636.83
389.31	13909.80
389.52	10919.77
389.73	9416.56
389.93	8511.36
390.14	7839.62
390.35	7114.64
390.56	6504.35
390.77	5275.57
390.98	4042.69
391.18	3420.11
391.39	3135.44
391.60	2891.73
391.81	2887.64
392.02	2582.49
392.23	3088.34
392.43	2777.05
392.64	2863.06
392.85	2744.28
393.06	2871.25
393.27	2670.55
393.47	2555.86
393.68	2693.08
393.89	2760.66
394.10	2891.73
394.31	2586.58
394.52	2621.40
394.72	2623.45
394.93	2938.84
395.14	2492.38
395.35	2697.17
395.56	2607.06
395.76	2688.98
395.97	2705.37
396.18	2799.57
396.39	2756.57
396.60	3207.12
396.80	2893.78
397.01	2721.75
397.22	2850.77
397.43	2940.88
397.64	2621.40
397.84	2762.71
398.05	3088.34
398.26	2691.03
398.47	2734.04
398.67	2809.81
398.88	2709.46
399.09	2840.53
399.30	2588.63
399.51	2674.65
399.71	2506.71
399.92	2744.28
400.13	2791.38
400.34	2580.44
400.54	2736.09
400.75	2918.36
400.96	2709.46
401.17	2901.97
401.37	2908.12
401.58	2676.70
401.79	2662.36
402.00	2760.66
402.21	3194.83
402.41	2881.49
402.62	2926.55
402.83	3053.52
403.04	3094.48
403.24	3274.70
403.45	2668.50
403.66	2938.84
403.87	2844.63
404.07	3057.62
404.28	2932.69
404.49	2893.78
404.70	2811.86
404.90	2838.48
405.11	2586.58
405.32	2721.75
405.52	2652.12
405.73	2619.35
405.94	2551.77
406.15	2629.59
406.35	2856.92
406.56	2871.25
406.77	2699.22
406.98	2678.74
407.18	2684.89
407.39	2985.94
407.60	2658.26
407.80	2662.36
408.01	2670.55
408.22	2742.23
408.43	2602.97
408.63	2686.94
408.84	2916.31
409.05	2775.00
409.25	2592.73
409.46	2529.24
409.67	2627.54
409.88	2670.55
410.08	2678.74
410.29	2551.77
410.50	2826.20
410.70	2779.09
410.91	2562.01
411.12	2713.56
411.32	2744.28
411.53	2547.67
411.74	2682.84
411.95	2678.74
412.15	2766.81
412.36	2920.40
412.57	2725.85
412.77	2766.81
412.98	2727.89
413.19	2670.55
413.39	2621.40
413.60	2719.70
413.81	2850.77
414.01	2666.46
414.22	2744.28
414.43	2846.68
414.63	2736.09
414.84	2820.05
415.05	2611.16
415.25	2482.14
415.46	2752.47
415.67	2619.35
415.87	2693.08
416.08	2652.12
416.29	2723.80
416.49	2889.68
416.70	2676.70
416.91	2674.65
417.11	2664.41
417.32	2783.19
417.53	2760.66
417.73	2707.41
417.94	2713.56
418.15	2744.28
418.35	2691.03
418.56	2701.27
418.77	3090.38
418.97	2791.38
419.18	2711.51
419.38	2344.92
419.59	2764.76
419.80	2895.83
420.00	2605.02
420.21	2734.04
420.42	2854.87
420.62	2813.91
420.83	2607.06
421.04	2594.78
421.24	2686.94
421.45	2797.53
421.65	2648.02
421.86	2615.26
422.07	2785.24
422.27	2717.65
422.48	2631.64
422.69	2508.76
422.89	2678.74
423.10	2680.79
423.30	2582.49
423.51	2631.64
423.72	2760.66
423.92	2869.20
424.13	2533.34
424.33	2734.04
424.54	2818.00
424.75	2781.14
424.95	2885.59
425.16	2629.59
425.36	2676.70
425.57	2826.20
425.78	2666.46
425.98	2746.33
426.19	2748.37
426.39	2547.67
426.60	2627.54
426.81	2803.67
427.01	2750.42
427.22	2623.45
427.42	2514.91
427.63	2506.71
427.83	2785.24
428.04	2977.75
428.25	2762.71
428.45	2787.29
428.66	2951.12
428.86	2582.49
429.07	2633.69
429.28	2770.90
429.48	2731.99
429.69	2645.98
429.89	2760.66
430.10	2633.69
430.30	2887.64
430.51	2875.35
430.71	2662.36
430.92	2637.78
431.13	2633.69
431.33	2867.16
431.54	2766.81
431.74	2801.62
431.95	3055.57
432.15	2629.59
432.36	2680.79
432.56	2684.89
432.77	3016.66
432.98	3012.56
433.18	2748.37
433.39	2570.20
433.59	2754.52
433.80	3071.95
434.00	2895.83
434.21	2645.98
434.41	2605.02
434.62	3076.05
434.82	2553.82
435.03	2600.92
435.23	2787.29
435.44	2480.09
435.64	2535.39
435.85	2740.18
436.06	2836.44
436.26	2824.15
436.47	2658.26
436.67	2590.68
436.88	2705.37
437.08	2908.12
437.29	2803.67
437.49	2781.14
437.70	2942.93
437.90	2695.13
438.11	2863.06
438.31	2688.98
438.52	2930.64
438.72	2842.58
438.93	2975.70
439.13	2725.85
439.34	2930.64
439.54	2654.17
439.75	2709.46
439.95	2742.23
440.16	2652.12
440.36	2772.95
440.57	2672.60
440.77	2701.27
440.98	2619.35
441.18	2818.00
441.39	2635.74
441.59	2467.80
441.80	3055.57
442.00	2715.61
442.21	2688.98
442.41	2504.67
442.62	2883.54
442.82	2674.65
443.02	2684.89
443.23	2682.84
443.43	2686.94
443.64	2854.87
443.84	2545.63
444.05	2775.00
444.25	2742.23
444.46	2684.89
444.66	2623.45
444.87	2754.52
445.07	2502.62
445.28	2658.26
445.48	2793.43
445.69	2775.00
445.89	3172.30
446.09	2643.93
446.30	3045.33
446.50	3069.91
446.71	4599.74
446.91	5660.59
447.12	6457.25
447.32	6815.64
447.53	6514.59
447.73	5480.36
447.93	4734.90
448.14	4497.34
448.34	4505.53
448.55	3911.62
448.75	3813.32
448.96	3700.68
449.16	3370.96
449.36	3268.56
449.57	2936.79
449.77	2707.41
449.98	2697.17
450.18	2736.09
450.39	2660.31
450.59	2842.58
450.79	2736.09
451.00	2584.54
451.20	2787.29
451.41	2641.88
451.61	2826.20
451.81	2721.75
452.02	2627.54
452.22	2648.02
452.43	2660.31
452.63	2635.74
