SpectraSuite Data File
++++++++++++++++++++++++++++++++++++
Date: Thu May 05 16:20:15 CEST 2016
User: root
Dark Spectrum Present: No
Reference Spectrum Present: No
Number of Sampled Component Spectra: 1
Spectrometers: USB4C02835
Integration Time (usec): 100000 (USB4C02835)
Spectra Averaged: 1 (USB4C02835)
Boxcar Smoothing: 0 (USB4C02835)
Correct for Electrical Dark: No (USB4C02835)
Strobe/Lamp Enabled: No (USB4C02835)
Correct for Detector Non-linearity: No (USB4C02835)
Correct for Stray Light: No (USB4C02835)
Number of Pixels in Processed Spectrum: 3648
>>>>>Begin Processed Spectral Data<<<<<
177.47	2013.15
177.69	2013.15
177.91	2013.15
178.13	2074.59
178.36	2041.82
178.58	2605.02
178.80	2772.95
179.02	2523.10
179.24	2553.82
179.46	2426.84
179.68	2553.82
179.90	2695.13
180.13	2731.99
180.35	2408.41
180.57	2441.18
180.79	2775.00
181.01	2688.98
181.23	2504.67
181.45	2600.92
181.67	2844.63
181.90	2772.95
182.12	2549.72
182.34	2398.17
182.56	2891.73
182.78	2781.14
183.00	2457.56
183.22	2463.71
183.44	2514.91
183.66	3082.19
183.89	2635.74
184.11	2529.24
184.33	2766.81
184.55	2858.96
184.77	2553.82
184.99	2471.90
185.21	2658.26
185.43	3076.05
185.65	2506.71
185.87	2467.80
186.10	3006.42
186.32	3012.56
186.54	2596.82
186.76	2596.82
186.98	2873.30
187.20	2721.75
187.42	2557.91
187.64	2529.24
187.86	2854.87
188.08	2858.96
188.30	2420.70
188.52	2531.29
188.75	2901.97
188.97	2932.69
189.19	2519.00
189.41	2494.43
189.63	2832.34
189.85	2600.92
190.07	2443.23
190.29	2377.69
190.51	2719.70
190.73	2488.28
190.95	2650.07
191.17	2482.14
191.39	2506.71
191.61	2725.85
191.84	2553.82
192.06	2574.30
192.28	2521.05
192.50	3172.30
192.72	2684.89
192.94	2508.76
193.16	2854.87
193.38	2811.86
193.60	2566.10
193.82	2596.82
194.04	2963.41
194.26	2852.82
194.48	2445.27
194.70	2426.84
194.92	2645.98
195.14	2805.72
195.36	2461.66
195.58	2613.21
195.80	2645.98
196.02	2639.83
196.24	2523.10
196.46	2602.97
196.69	2617.30
196.91	3096.53
197.13	2480.09
197.35	2496.47
197.57	2912.21
197.79	2756.57
198.01	2521.05
198.23	2566.10
198.45	2768.85
198.67	2541.53
198.89	2426.84
199.11	2508.76
199.33	2635.74
199.55	2445.27
199.77	2469.85
199.99	2643.93
200.21	2680.79
200.43	2815.96
200.65	2424.80
200.87	2365.40
201.09	2717.65
201.31	2605.02
201.53	2541.53
201.75	2590.68
201.97	2762.71
202.19	2752.47
202.41	2557.91
202.63	2719.70
202.85	2791.38
203.07	2697.17
203.29	2494.43
203.51	2486.23
203.73	2607.06
203.95	3008.47
204.17	2506.71
204.39	2680.79
204.61	2746.33
204.83	2688.98
205.05	2615.26
205.27	2557.91
205.49	3080.14
205.71	2682.84
205.93	2482.14
206.15	2398.17
206.37	2637.78
206.59	2711.51
206.81	2400.22
207.03	2400.22
207.25	2572.25
207.47	2824.15
207.69	2529.24
207.91	2746.33
208.13	2949.08
208.34	2611.16
208.56	2496.47
208.78	2496.47
209.00	2658.26
209.22	2615.26
209.44	2576.34
209.66	2435.03
209.88	2772.95
210.10	2695.13
210.32	2576.34
210.54	2623.45
210.76	2740.18
210.98	2877.40
211.20	2357.21
211.42	2672.60
211.64	2848.72
211.86	2801.62
212.08	2633.69
212.30	2547.67
212.52	2658.26
212.74	2779.09
212.96	2506.71
213.17	2562.01
213.39	2793.43
213.61	3006.42
213.83	2613.21
214.05	2387.93
214.27	2863.06
214.49	2543.58
214.71	2486.23
214.93	2643.93
215.15	2703.32
215.37	2826.20
215.59	2326.49
215.81	2572.25
216.03	2949.08
216.24	2729.94
216.46	2541.53
216.68	2539.48
216.90	2805.72
217.12	2879.44
217.34	2463.71
217.56	2674.65
217.78	2901.97
218.00	2818.00
218.22	2602.97
218.44	2594.78
218.66	2750.42
218.87	2979.79
219.09	2553.82
219.31	2564.06
219.53	2711.51
219.75	2600.92
219.97	2613.21
220.19	2484.19
220.41	2711.51
220.63	2938.84
220.85	2605.02
221.06	2523.10
221.28	2830.29
221.50	2820.05
221.72	2562.01
221.94	2443.23
222.16	2721.75
222.38	2867.16
222.60	2582.49
222.82	2492.38
223.03	2809.81
223.25	2602.97
223.47	2557.91
223.69	2701.27
223.91	2793.43
224.13	2727.89
224.35	2432.99
224.57	2629.59
224.78	2856.92
225.00	2576.34
225.22	2559.96
225.44	2535.39
225.66	2787.29
225.88	2707.41
226.10	2588.63
226.32	2549.72
226.53	2930.64
226.75	2643.93
226.97	2596.82
227.19	2525.15
227.41	2691.03
227.63	2619.35
227.85	2416.60
228.06	2510.81
228.28	2760.66
228.50	2805.72
228.72	2293.72
228.94	2492.38
229.16	2482.14
229.37	2551.77
229.59	2441.18
229.81	2676.70
230.03	2652.12
230.25	2588.63
230.47	2392.03
230.69	2383.84
230.90	2858.96
231.12	2572.25
231.34	2494.43
231.56	2629.59
231.78	2627.54
232.00	2736.09
232.21	2529.24
232.43	2523.10
232.65	2459.61
232.87	2768.85
233.09	2469.85
233.30	2441.18
233.52	2850.77
233.74	2676.70
233.96	2496.47
234.18	2656.22
234.40	2711.51
234.61	3053.52
234.83	2449.37
235.05	2453.47
235.27	3006.42
235.49	2883.54
235.70	2482.14
235.92	2627.54
236.14	2787.29
236.36	3164.11
236.58	2371.55
236.79	2551.77
237.01	2736.09
237.23	2783.19
237.45	2803.67
237.67	2568.15
237.88	2791.38
238.10	2987.99
238.32	2455.51
238.54	2494.43
238.76	2713.56
238.97	2650.07
239.19	2383.84
239.41	2519.00
239.63	2875.35
239.85	2635.74
240.06	2531.29
240.28	2439.13
240.50	2809.81
240.72	2793.43
240.93	2514.91
241.15	2576.34
241.37	2676.70
241.59	2981.84
241.81	2414.56
242.02	2486.23
242.24	2703.32
242.46	2838.48
242.68	2412.51
242.89	2457.56
243.11	2830.29
243.33	2744.28
243.55	2523.10
243.76	2596.82
243.98	2615.26
244.20	2705.37
244.42	2553.82
244.64	2496.47
244.85	2486.23
245.07	2605.02
245.29	2535.39
245.51	2519.00
245.72	2779.09
245.94	2840.53
246.16	2533.34
246.38	2525.15
246.59	2670.55
246.81	2605.02
247.03	2428.89
247.24	2396.12
247.46	2615.26
247.68	2670.55
247.90	2455.51
248.11	2527.19
248.33	2889.68
248.55	2691.03
248.77	2529.24
248.98	2574.30
249.20	2955.22
249.42	2731.99
249.64	2490.33
249.85	2494.43
250.07	2607.06
250.29	2799.57
250.50	2545.63
250.72	2496.47
250.94	2797.53
251.16	3100.62
251.37	2492.38
251.59	2547.67
251.81	2766.81
252.02	2936.79
252.24	2478.04
252.46	2596.82
252.68	2658.26
252.89	2629.59
253.11	2295.77
253.33	2631.64
253.54	2947.03
253.76	2545.63
253.98	2449.37
254.20	2572.25
254.41	2562.01
254.63	2658.26
254.85	2324.44
255.06	2557.91
255.28	2715.61
255.50	2695.13
255.71	2516.95
255.93	2355.16
256.15	2670.55
256.36	2818.00
256.58	2381.79
256.80	2541.53
257.02	2678.74
257.23	2633.69
257.45	2488.28
257.67	2643.93
257.88	2537.43
258.10	2809.81
258.32	2396.12
258.53	2623.45
258.75	2975.70
258.97	2629.59
259.18	2506.71
259.40	2523.10
259.62	2947.03
259.83	2947.03
260.05	2504.67
260.27	3172.30
260.48	2889.68
260.70	2582.49
260.92	2506.71
261.13	2521.05
261.35	2752.47
261.57	2723.80
261.78	2396.12
262.00	2537.43
262.22	2830.29
262.43	2498.52
262.65	2521.05
262.86	2514.91
263.08	3147.73
263.30	2717.65
263.51	2365.40
263.73	2416.60
263.95	2930.64
264.16	2512.86
264.38	2408.41
264.60	2447.32
264.81	2666.46
265.03	2805.72
265.25	2836.44
265.46	2473.95
265.68	2949.08
265.89	2742.23
266.11	2449.37
266.33	2531.29
266.54	2875.35
266.76	2799.57
266.98	2586.58
267.19	2678.74
267.41	2858.96
267.62	2723.80
267.84	2336.73
268.06	2705.37
268.27	2666.46
268.49	2967.51
268.70	2566.10
268.92	2568.15
269.14	2627.54
269.35	2562.01
269.57	2580.44
269.79	2572.25
270.00	2598.87
270.22	3041.23
270.43	2455.51
270.65	2371.55
270.87	2811.86
271.08	2801.62
271.30	2668.50
271.51	2574.30
271.73	2783.19
271.95	2893.78
272.16	2494.43
272.38	2594.78
272.59	2635.74
272.81	2822.10
273.02	2478.04
273.24	2488.28
273.46	2895.83
273.67	2594.78
273.89	2494.43
274.10	2508.76
274.32	2842.58
274.54	2736.09
274.75	2643.93
274.97	2654.17
275.18	2883.54
275.40	2850.77
275.61	2523.10
275.83	2623.45
276.05	2627.54
276.26	2684.89
276.48	2629.59
276.69	2629.59
276.91	2678.74
277.12	3018.71
277.34	2758.61
277.55	2738.13
277.77	2738.13
277.99	2637.78
278.20	2547.67
278.42	2523.10
278.63	2652.12
278.85	2590.68
279.06	2535.39
279.28	2631.64
279.49	2840.53
279.71	2801.62
279.93	2707.41
280.14	2631.64
280.36	2691.03
280.57	2811.86
280.79	2719.70
281.00	2449.37
281.22	2623.45
281.43	2891.73
281.65	2400.22
281.86	2496.47
282.08	2813.91
282.29	2983.89
282.51	2502.62
282.73	2516.95
282.94	2512.86
283.16	2834.39
283.37	2744.28
283.59	2643.93
283.80	2758.61
284.02	2703.32
284.23	2674.65
284.45	2576.34
284.66	2615.26
284.88	2652.12
285.09	2629.59
285.31	2643.93
285.52	2797.53
285.74	2527.19
285.95	2717.65
286.17	2627.54
286.38	2781.14
286.60	2717.65
286.81	2596.82
287.03	2514.91
287.24	2670.55
287.46	2731.99
287.67	2643.93
287.89	2901.97
288.10	2731.99
288.32	2754.52
288.53	2807.77
288.75	2674.65
288.96	2805.72
289.18	2697.17
289.39	2617.30
289.61	2639.83
289.82	3047.38
290.04	2932.69
290.25	2465.75
290.47	2658.26
290.68	2617.30
290.90	2940.88
291.11	2455.51
291.33	2809.81
291.54	2545.63
291.76	2639.83
291.97	2650.07
292.18	2641.88
292.40	2742.23
292.61	2650.07
292.83	2809.81
293.04	2744.28
293.26	2678.74
293.47	2731.99
293.69	2572.25
293.90	2494.43
294.12	2922.45
294.33	2672.60
294.55	2637.78
294.76	2809.81
294.97	2916.31
295.19	2983.89
295.40	2551.77
295.62	2699.22
295.83	2897.88
296.05	2684.89
296.26	2848.72
296.48	2609.11
296.69	2731.99
296.90	2818.00
297.12	2709.46
297.33	2734.04
297.55	2736.09
297.76	2834.39
297.98	2719.70
298.19	2703.32
298.41	2676.70
298.62	2539.48
298.83	2818.00
299.05	2717.65
299.26	2645.98
299.48	2613.21
299.69	2666.46
299.90	2590.68
300.12	2596.82
300.33	2873.30
300.55	2629.59
300.76	2625.50
300.98	2572.25
301.19	2815.96
301.40	2562.01
301.62	2592.73
301.83	2729.94
302.05	2684.89
302.26	2590.68
302.47	2572.25
302.69	2588.63
302.90	2750.42
303.12	2394.08
303.33	2695.13
303.54	2901.97
303.76	2633.69
303.97	2555.86
304.19	2801.62
304.40	2596.82
304.61	2797.53
304.83	2744.28
305.04	2682.84
305.26	2760.66
305.47	2699.22
305.68	2613.21
305.90	2537.43
306.11	2826.20
306.33	2656.22
306.54	2445.27
306.75	2568.15
306.97	2492.38
307.18	2576.34
307.39	2629.59
307.61	2664.41
307.82	2725.85
308.04	2756.57
308.25	2514.91
308.46	2813.91
308.68	2719.70
308.89	2723.80
309.10	2764.76
309.32	2676.70
309.53	2660.31
309.74	2824.15
309.96	2580.44
310.17	2664.41
310.39	2617.30
310.60	2842.58
310.81	2650.07
311.03	2482.14
311.24	2713.56
311.45	2699.22
311.67	2781.14
311.88	2662.36
312.09	2627.54
312.31	2609.11
312.52	2521.05
312.73	2539.48
312.95	2506.71
313.16	2523.10
313.37	2725.85
313.59	2793.43
313.80	2824.15
314.01	2973.65
314.23	2568.15
314.44	2605.02
314.65	2617.30
314.87	2596.82
315.08	2590.68
315.29	2557.91
315.51	2553.82
315.72	2451.42
315.93	2738.13
316.15	2654.17
316.36	2627.54
316.57	2772.95
316.79	2617.30
317.00	2594.78
317.21	2840.53
317.43	2672.60
317.64	2617.30
317.85	2459.61
318.07	2596.82
318.28	2592.73
318.49	2686.94
318.70	2818.00
318.92	2850.77
319.13	2758.61
319.34	2787.29
319.56	2662.36
319.77	2899.92
319.98	2842.58
320.20	2791.38
320.41	2701.27
320.62	2754.52
320.83	2559.96
321.05	2854.87
321.26	2699.22
321.47	2717.65
321.69	2936.79
321.90	2543.58
322.11	2547.67
322.32	2731.99
322.54	2932.69
322.75	2623.45
322.96	3137.49
323.18	2443.23
323.39	2510.81
323.60	2588.63
323.81	2693.08
324.03	2576.34
324.24	2752.47
324.45	2654.17
324.66	2549.72
324.88	2832.34
325.09	3016.66
325.30	2621.40
325.52	2590.68
325.73	2768.85
325.94	2602.97
326.15	2521.05
326.37	2549.72
326.58	2924.50
326.79	3039.19
327.00	2541.53
327.22	2541.53
327.43	2652.12
327.64	2578.39
327.85	2670.55
328.07	2609.11
328.28	2987.99
328.49	2756.57
328.70	2631.64
328.92	2672.60
329.13	2686.94
329.34	2848.72
329.55	2750.42
329.76	2662.36
329.98	2709.46
330.19	2973.65
330.40	2664.41
330.61	2729.94
330.83	2783.19
331.04	2635.74
331.25	2711.51
331.46	2594.78
331.68	2510.81
331.89	2863.06
332.10	2641.88
332.31	2494.43
332.52	2775.00
332.74	2901.97
332.95	2463.71
333.16	2527.19
333.37	2834.39
333.58	2736.09
333.80	2596.82
334.01	2371.55
334.22	2688.98
334.43	2695.13
334.64	2543.58
334.86	2572.25
335.07	2605.02
335.28	2932.69
335.49	2469.85
335.70	2770.90
335.92	2885.59
336.13	3055.57
336.34	2658.26
336.55	2613.21
336.76	2719.70
336.98	2371.55
337.19	2684.89
337.40	2734.04
337.61	3102.67
337.82	2719.70
338.04	2721.75
338.25	2482.14
338.46	2656.22
338.67	2705.37
338.88	2488.28
339.09	2535.39
339.31	2641.88
339.52	2498.52
339.73	2541.53
339.94	2668.50
340.15	2889.68
340.36	2664.41
340.58	2643.93
340.79	2539.48
341.00	2858.96
341.21	2463.71
341.42	2811.86
341.63	2559.96
341.85	2828.24
342.06	2715.61
342.27	2523.10
342.48	2797.53
342.69	2437.08
342.90	2746.33
343.12	2871.25
343.33	2605.02
343.54	2865.11
343.75	2928.60
343.96	2598.87
344.17	2547.67
344.38	2742.23
344.60	2576.34
344.81	2529.24
345.02	2635.74
345.23	2834.39
345.44	3078.10
345.65	2744.28
345.86	2609.11
346.07	2777.05
346.29	2703.32
346.50	2701.27
346.71	2744.28
346.92	2899.92
347.13	3016.66
347.34	2697.17
347.55	2441.18
347.76	2783.19
347.98	2529.24
348.19	2682.84
348.40	2731.99
348.61	2729.94
348.82	2914.26
349.03	2613.21
349.24	2574.30
349.45	3022.80
349.66	2445.27
349.88	2580.44
350.09	2461.66
350.30	2873.30
350.51	2971.60
350.72	2676.70
350.93	2617.30
351.14	2670.55
351.35	2760.66
351.56	2627.54
351.77	2699.22
351.99	2744.28
352.20	2883.54
352.41	2742.23
352.62	2381.79
352.83	2715.61
353.04	2744.28
353.25	2531.29
353.46	2613.21
353.67	2906.07
353.88	2480.09
354.09	2588.63
354.30	2627.54
354.52	2854.87
354.73	2641.88
354.94	2578.39
355.15	2623.45
355.36	2918.36
355.57	2691.03
355.78	2635.74
355.99	2555.86
356.20	2703.32
356.41	2891.73
356.62	2693.08
356.83	2629.59
357.04	2881.49
357.25	2471.90
357.46	2570.20
357.68	2492.38
357.89	2625.50
358.10	2715.61
358.31	2643.93
358.52	2582.49
358.73	2555.86
358.94	2578.39
359.15	2605.02
359.36	2668.50
359.57	2652.12
359.78	2744.28
359.99	2744.28
360.20	2500.57
360.41	2721.75
360.62	2820.05
360.83	2652.12
361.04	2578.39
361.25	2826.20
361.46	3057.62
361.67	2797.53
361.88	2627.54
362.09	2863.06
362.30	2811.86
362.51	2482.14
362.72	2680.79
362.93	2824.15
363.14	2766.81
363.35	2676.70
363.56	2490.33
363.78	2873.30
363.99	2858.96
364.20	2607.06
364.41	2682.84
364.62	3022.80
364.83	2768.85
365.04	2580.44
365.25	2635.74
365.46	3008.47
365.67	2613.21
365.88	2629.59
366.09	2594.78
366.30	2662.36
366.51	2842.58
366.72	2535.39
366.93	2643.93
367.14	2785.24
367.35	2930.64
367.56	2598.87
367.77	2781.14
367.98	2668.50
368.18	2826.20
368.39	2766.81
368.60	2570.20
368.81	2887.64
369.02	2781.14
369.23	2580.44
369.44	2473.95
369.65	2666.46
369.86	2865.11
370.07	2709.46
370.28	2488.28
370.49	2725.85
370.70	2768.85
370.91	2449.37
371.12	2465.75
371.33	2797.53
371.54	2652.12
371.75	2760.66
371.96	2447.32
372.17	2736.09
372.38	2715.61
372.59	2602.97
372.80	2652.12
373.01	2744.28
373.22	2807.77
373.43	2641.88
373.64	2490.33
373.85	2846.68
374.06	2981.84
374.26	2756.57
374.47	2682.84
374.68	2861.01
374.89	2791.38
375.10	2566.10
375.31	2756.57
375.52	2686.94
375.73	2760.66
375.94	2527.19
376.15	2752.47
376.36	2615.26
376.57	2639.83
376.78	2586.58
376.99	2744.28
377.20	2934.74
377.40	2684.89
377.61	2928.60
377.82	2631.64
378.03	2820.05
378.24	2856.92
378.45	2686.94
378.66	2715.61
378.87	2519.00
379.08	2574.30
379.29	2598.87
379.50	2711.51
379.71	2709.46
379.91	2820.05
380.12	2592.73
380.33	2707.41
380.54	2731.99
380.75	2703.32
380.96	2619.35
381.17	2709.46
381.38	2772.95
381.59	2682.84
381.80	2607.06
382.00	2863.06
382.21	2709.46
382.42	3022.80
382.63	2951.12
382.84	2793.43
383.05	2826.20
383.26	2924.50
383.47	2695.13
383.68	2580.44
383.88	2820.05
384.09	2777.05
384.30	2775.00
384.51	2645.98
384.72	2637.78
384.93	2586.58
385.14	2699.22
385.35	2854.87
385.55	2537.43
385.76	2836.44
385.97	2627.54
386.18	2586.58
386.39	2629.59
386.60	2658.26
386.81	2617.30
387.02	2514.91
387.22	2574.30
387.43	2840.53
387.64	2721.75
387.85	2899.92
388.06	2848.72
388.27	3979.20
388.48	7559.05
388.68	10995.54
388.89	13381.43
389.10	14688.03
389.31	13907.76
389.52	10911.58
389.73	9254.77
389.93	8634.24
390.14	7784.33
390.35	7028.63
390.56	6291.36
390.77	5308.34
390.98	4122.56
391.18	3508.17
391.39	3200.98
391.60	2854.87
391.81	2875.35
392.02	2613.21
392.23	3063.76
392.43	2686.94
392.64	2756.57
392.85	2656.22
393.06	3024.85
393.27	2668.50
393.47	2572.25
393.68	2715.61
393.89	2674.65
394.10	2830.29
394.31	2592.73
394.52	2598.87
394.72	2586.58
394.93	2906.07
395.14	2576.34
395.35	2789.33
395.56	2652.12
395.76	2695.13
395.97	2508.76
396.18	2705.37
396.39	2826.20
396.60	3243.98
396.80	2965.46
397.01	2858.96
397.22	2916.31
397.43	2879.44
397.64	2547.67
397.84	2693.08
398.05	3080.14
398.26	2713.56
398.47	2801.62
398.67	2799.57
398.88	2699.22
399.09	2809.81
399.30	2654.17
399.51	2772.95
399.71	2619.35
399.92	2742.23
400.13	2676.70
400.34	2648.02
400.54	2635.74
400.75	2947.03
400.96	2760.66
401.17	2885.59
401.37	2813.91
401.58	2674.65
401.79	2658.26
402.00	2670.55
402.21	3112.91
402.41	2912.21
402.62	2912.21
402.83	3039.19
403.04	3096.53
403.24	3375.05
403.45	2678.74
403.66	2863.06
403.87	2910.16
404.07	2918.36
404.28	2867.16
404.49	2904.02
404.70	2818.00
404.90	2807.77
405.11	2693.08
405.32	2729.94
405.52	2637.78
405.73	2643.93
405.94	2549.72
406.15	2627.54
406.35	2822.10
406.56	2785.24
406.77	2652.12
406.98	2691.03
407.18	2615.26
407.39	2942.93
407.60	2611.16
407.80	2684.89
408.01	2703.32
408.22	2781.14
408.43	2625.50
408.63	2799.57
408.84	2850.77
409.05	2842.58
409.25	2631.64
409.46	2600.92
409.67	2609.11
409.88	2621.40
410.08	2742.23
410.29	2609.11
410.50	2772.95
410.70	2779.09
410.91	2492.38
411.12	2668.50
411.32	2705.37
411.53	2576.34
411.74	2721.75
411.95	2719.70
412.15	2701.27
412.36	2897.88
412.57	2740.18
412.77	2793.43
412.98	2654.17
413.19	2666.46
413.39	2688.98
413.60	2621.40
413.81	2932.69
414.01	2582.49
414.22	2682.84
414.43	2713.56
414.63	2686.94
414.84	2834.39
415.05	2650.07
415.25	2512.86
415.46	2768.85
415.67	2619.35
415.87	2672.60
416.08	2617.30
416.29	2691.03
416.49	2701.27
416.70	2580.44
416.91	2615.26
417.11	2703.32
417.32	2858.96
417.53	2760.66
417.73	2715.61
417.94	2725.85
418.15	2766.81
418.35	2695.13
418.56	2682.84
418.77	3129.30
418.97	2678.74
419.18	2615.26
419.38	2340.83
419.59	2670.55
419.80	2899.92
420.00	2615.26
420.21	2582.49
420.42	3006.42
420.62	2750.42
420.83	2582.49
421.04	2619.35
421.24	2650.07
421.45	2838.48
421.65	2693.08
421.86	2619.35
422.07	2840.53
422.27	2867.16
422.48	2641.88
422.69	2539.48
422.89	2731.99
423.10	2650.07
423.30	2551.77
423.51	2697.17
423.72	2805.72
423.92	2758.61
424.13	2473.95
424.33	2652.12
424.54	2863.06
424.75	2791.38
424.95	2869.20
425.16	2578.39
425.36	2639.83
425.57	2834.39
425.78	2727.89
425.98	2736.09
426.19	2754.52
426.39	2656.22
426.60	2701.27
426.81	2807.77
427.01	2801.62
427.22	2629.59
427.42	2455.51
427.63	2568.15
427.83	2922.45
428.04	2955.22
428.25	2738.13
428.45	2820.05
428.66	2813.91
428.86	2592.73
429.07	2656.22
429.28	2633.69
429.48	2701.27
429.69	2572.25
429.89	2760.66
430.10	2516.95
430.30	2863.06
430.51	2942.93
430.71	2574.30
430.92	2645.98
431.13	2656.22
431.33	2813.91
431.54	2715.61
431.74	2830.29
431.95	3076.05
432.15	2613.21
432.36	2637.78
432.56	2715.61
432.77	2987.99
432.98	2992.08
433.18	2668.50
433.39	2574.30
433.59	2703.32
433.80	3108.82
434.00	2863.06
434.21	2578.39
434.41	2621.40
434.62	3014.61
434.82	2519.00
435.03	2533.34
435.23	2809.81
435.44	2504.67
435.64	2609.11
435.85	2648.02
436.06	2807.77
436.26	2873.30
436.47	2652.12
436.67	2602.97
436.88	2744.28
437.08	2826.20
437.29	2791.38
437.49	2760.66
437.70	2949.08
437.90	2662.36
438.11	2838.48
438.31	2703.32
438.52	2918.36
438.72	2928.60
438.93	2918.36
439.13	2711.51
439.34	2869.20
439.54	2756.57
439.75	2801.62
439.95	2756.57
440.16	2660.31
440.36	2744.28
440.57	2619.35
440.77	2658.26
440.98	2707.41
441.18	2807.77
441.39	2527.19
441.59	2514.91
441.80	3063.76
442.00	2666.46
442.21	2879.44
442.41	2480.09
442.62	2901.97
442.82	2680.79
443.02	2607.06
443.23	2662.36
443.43	2697.17
443.64	2830.29
443.84	2586.58
444.05	2746.33
444.25	2809.81
444.46	2684.89
444.66	2619.35
444.87	2893.78
445.07	2490.33
445.28	2715.61
445.48	2820.05
445.69	2680.79
445.89	3037.14
446.09	2664.41
446.30	2949.08
446.50	3092.43
446.71	4693.94
446.91	5586.86
447.12	6512.54
447.32	6895.51
447.53	6635.42
447.73	5468.08
447.93	4816.82
448.14	4585.40
448.34	4597.69
448.55	3917.76
448.75	3895.24
448.96	3641.29
449.16	3426.25
449.36	3350.48
449.57	2912.21
449.77	2738.13
449.98	2760.66
450.18	2815.96
450.39	2668.50
450.59	2832.34
450.79	2793.43
451.00	2654.17
451.20	2762.71
451.41	2693.08
451.61	2846.68
451.81	2631.64
452.02	2547.67
452.22	2609.11
452.43	2572.25
452.63	2652.12
