SpectraSuite Data File
++++++++++++++++++++++++++++++++++++
Date: Thu May 05 16:20:55 CEST 2016
User: root
Dark Spectrum Present: No
Reference Spectrum Present: No
Number of Sampled Component Spectra: 1
Spectrometers: USB4C02835
Integration Time (usec): 100000 (USB4C02835)
Spectra Averaged: 1 (USB4C02835)
Boxcar Smoothing: 0 (USB4C02835)
Correct for Electrical Dark: No (USB4C02835)
Strobe/Lamp Enabled: No (USB4C02835)
Correct for Detector Non-linearity: No (USB4C02835)
Correct for Stray Light: No (USB4C02835)
Number of Pixels in Processed Spectrum: 3648
>>>>>Begin Processed Spectral Data<<<<<
177.47	2039.78
177.69	2039.78
177.91	2039.78
178.13	2072.54
178.36	1949.67
178.58	2551.77
178.80	2719.70
179.02	2521.05
179.24	2623.45
179.46	2357.21
179.68	2506.71
179.90	2719.70
180.13	2738.13
180.35	2389.98
180.57	2480.09
180.79	2777.05
181.01	2738.13
181.23	2572.25
181.45	2648.02
181.67	2881.49
181.90	2922.45
182.12	2572.25
182.34	2396.12
182.56	2854.87
182.78	2820.05
183.00	2496.47
183.22	2551.77
183.44	2408.41
183.66	3076.05
183.89	2686.94
184.11	2494.43
184.33	2811.86
184.55	2906.07
184.77	2420.70
184.99	2525.15
185.21	2639.83
185.43	3063.76
185.65	2572.25
185.87	2430.94
186.10	2994.13
186.32	3039.19
186.54	2654.17
186.76	2621.40
186.98	2803.67
187.20	2727.89
187.42	2545.63
187.64	2535.39
187.86	2783.19
188.08	2854.87
188.30	2469.85
188.52	2641.88
188.75	2992.08
188.97	2861.01
189.19	2389.98
189.41	2435.03
189.63	2832.34
189.85	2676.70
190.07	2406.36
190.29	2369.50
190.51	2834.39
190.73	2541.53
190.95	2639.83
191.17	2555.86
191.39	2510.81
191.61	2660.31
191.84	2525.15
192.06	2645.98
192.28	2551.77
192.50	3137.49
192.72	2572.25
192.94	2596.82
193.16	2863.06
193.38	2775.00
193.60	2408.41
193.82	2617.30
194.04	2914.26
194.26	2850.77
194.48	2461.66
194.70	2541.53
194.92	2580.44
195.14	2744.28
195.36	2525.15
195.58	2547.67
195.80	2701.27
196.02	2559.96
196.24	2502.62
196.46	2574.30
196.69	2566.10
196.91	3108.82
197.13	2559.96
197.35	2512.86
197.57	2977.75
197.79	2783.19
198.01	2551.77
198.23	2535.39
198.45	2818.00
198.67	2525.15
198.89	2396.12
199.11	2619.35
199.33	2555.86
199.55	2416.60
199.77	2478.04
199.99	2672.60
200.21	2711.51
200.43	2815.96
200.65	2469.85
200.87	2428.89
201.09	2670.55
201.31	2734.04
201.53	2559.96
201.75	2625.50
201.97	2858.96
202.19	2705.37
202.41	2588.63
202.63	2731.99
202.85	2803.67
203.07	2734.04
203.29	2527.19
203.51	2394.08
203.73	2623.45
203.95	3112.91
204.17	2557.91
204.39	2637.78
204.61	2703.32
204.83	2623.45
205.05	2660.31
205.27	2676.70
205.49	3063.76
205.71	2783.19
205.93	2410.46
206.15	2502.62
206.37	2764.76
206.59	2750.42
206.81	2441.18
207.03	2430.94
207.25	2629.59
207.47	2785.24
207.69	2553.82
207.91	2783.19
208.13	2969.55
208.34	2555.86
208.56	2432.99
208.78	2465.75
209.00	2645.98
209.22	2662.36
209.44	2488.28
209.66	2527.19
209.88	2693.08
210.10	2660.31
210.32	2502.62
210.54	2576.34
210.76	2684.89
210.98	2852.82
211.20	2365.40
211.42	2621.40
211.64	2822.10
211.86	2826.20
212.08	2504.67
212.30	2516.95
212.52	2664.41
212.74	2746.33
212.96	2617.30
213.17	2559.96
213.39	2856.92
213.61	2865.11
213.83	2473.95
214.05	2377.69
214.27	2895.83
214.49	2576.34
214.71	2473.95
214.93	2643.93
215.15	2760.66
215.37	2772.95
215.59	2389.98
215.81	2607.06
216.03	2959.31
216.24	2783.19
216.46	2432.99
216.68	2535.39
216.90	2863.06
217.12	2842.58
217.34	2543.58
217.56	2686.94
217.78	2940.88
218.00	2723.80
218.22	2568.15
218.44	2598.87
218.66	2734.04
218.87	3028.95
219.09	2492.38
219.31	2527.19
219.53	2766.81
219.75	2662.36
219.97	2512.86
220.19	2531.29
220.41	2660.31
220.63	2940.88
220.85	2543.58
221.06	2514.91
221.28	2895.83
221.50	2822.10
221.72	2539.48
221.94	2496.47
222.16	2721.75
222.38	2848.72
222.60	2586.58
222.82	2553.82
223.03	2887.64
223.25	2463.71
223.47	2447.32
223.69	2734.04
223.91	2871.25
224.13	2699.22
224.35	2455.51
224.57	2686.94
224.78	2797.53
225.00	2602.97
225.22	2508.76
225.44	2428.89
225.66	2775.00
225.88	2701.27
226.10	2682.84
226.32	2496.47
226.53	2863.06
226.75	2672.60
226.97	2580.44
227.19	2537.43
227.41	2629.59
227.63	2633.69
227.85	2400.22
228.06	2607.06
228.28	2682.84
228.50	2834.39
228.72	2396.12
228.94	2506.71
229.16	2490.33
229.37	2633.69
229.59	2385.88
229.81	2680.79
230.03	2645.98
230.25	2555.86
230.47	2355.16
230.69	2498.52
230.90	2881.49
231.12	2566.10
231.34	2580.44
231.56	2611.16
231.78	2537.43
232.00	2801.62
232.21	2582.49
232.43	2529.24
232.65	2400.22
232.87	2750.42
233.09	2322.40
233.30	2435.03
233.52	2883.54
233.74	2744.28
233.96	2475.99
234.18	2639.83
234.40	2637.78
234.61	3114.96
234.83	2437.08
235.05	2389.98
235.27	3143.63
235.49	2897.88
235.70	2389.98
235.92	2613.21
236.14	2842.58
236.36	3069.91
236.58	2414.56
236.79	2605.02
237.01	2756.57
237.23	2691.03
237.45	2645.98
237.67	2519.00
237.88	2766.81
238.10	3057.62
238.32	2471.90
238.54	2502.62
238.76	2693.08
238.97	2605.02
239.19	2365.40
239.41	2641.88
239.63	2908.12
239.85	2695.13
240.06	2578.39
240.28	2516.95
240.50	2867.16
240.72	2705.37
240.93	2430.94
241.15	2570.20
241.37	2719.70
241.59	2918.36
241.81	2621.40
242.02	2521.05
242.24	2777.05
242.46	2836.44
242.68	2326.49
242.89	2473.95
243.11	2916.31
243.33	2709.46
243.55	2553.82
243.76	2498.52
243.98	2678.74
244.20	2709.46
244.42	2555.86
244.64	2592.73
244.85	2586.58
245.07	2590.68
245.29	2457.56
245.51	2580.44
245.72	2752.47
245.94	2828.24
246.16	2514.91
246.38	2613.21
246.59	2693.08
246.81	2594.78
247.03	2459.61
247.24	2432.99
247.46	2668.50
247.68	2793.43
247.90	2498.52
248.11	2557.91
248.33	2834.39
248.55	2701.27
248.77	2473.95
248.98	2639.83
249.20	3022.80
249.42	2785.24
249.64	2576.34
249.85	2490.33
250.07	2654.17
250.29	2801.62
250.50	2586.58
250.72	2447.32
250.94	2826.20
251.16	3065.81
251.37	2547.67
251.59	2582.49
251.81	2809.81
252.02	2990.03
252.24	2523.10
252.46	2645.98
252.68	2574.30
252.89	2615.26
253.11	2365.40
253.33	2641.88
253.54	2955.22
253.76	2545.63
253.98	2553.82
254.20	2508.76
254.41	2480.09
254.63	2686.94
254.85	2387.93
255.06	2605.02
255.28	2695.13
255.50	2705.37
255.71	2572.25
255.93	2351.07
256.15	2801.62
256.36	2754.52
256.58	2392.03
256.80	2529.24
257.02	2703.32
257.23	2731.99
257.45	2504.67
257.67	2660.31
257.88	2684.89
258.10	2748.37
258.32	2555.86
258.53	2568.15
258.75	2906.07
258.97	2553.82
259.18	2459.61
259.40	2516.95
259.62	2998.23
259.83	2957.27
260.05	2572.25
260.27	3194.83
260.48	2867.16
260.70	2580.44
260.92	2430.94
261.13	2516.95
261.35	2731.99
261.57	2865.11
261.78	2451.42
262.00	2512.86
262.22	2793.43
262.43	2580.44
262.65	2547.67
262.86	2559.96
263.08	3055.57
263.30	2775.00
263.51	2346.97
263.73	2387.93
263.95	2893.78
264.16	2574.30
264.38	2473.95
264.60	2547.67
264.81	2715.61
265.03	2871.25
265.25	2867.16
265.46	2543.58
265.68	2875.35
265.89	2830.29
266.11	2394.08
266.33	2551.77
266.54	2906.07
266.76	2805.72
266.98	2551.77
267.19	2643.93
267.41	2965.46
267.62	2699.22
267.84	2357.21
268.06	2557.91
268.27	2695.13
268.49	2805.72
268.70	2555.86
268.92	2559.96
269.14	2656.22
269.35	2633.69
269.57	2582.49
269.79	2570.20
270.00	2590.68
270.22	2908.12
270.43	2400.22
270.65	2367.45
270.87	2832.34
271.08	2852.82
271.30	2578.39
271.51	2523.10
271.73	2813.91
271.95	3030.99
272.16	2486.23
272.38	2605.02
272.59	2678.74
272.81	2811.86
273.02	2539.48
273.24	2580.44
273.46	2869.20
273.67	2506.71
273.89	2453.47
274.10	2527.19
274.32	2838.48
274.54	2723.80
274.75	2545.63
274.97	2600.92
275.18	2770.90
275.40	2918.36
275.61	2551.77
275.83	2682.84
276.05	2543.58
276.26	2691.03
276.48	2637.78
276.69	2590.68
276.91	2682.84
277.12	2850.77
277.34	2723.80
277.55	2682.84
277.77	2777.05
277.99	2686.94
278.20	2584.54
278.42	2555.86
278.63	2605.02
278.85	2705.37
279.06	2486.23
279.28	2596.82
279.49	2906.07
279.71	2713.56
279.93	2576.34
280.14	2611.16
280.36	2619.35
280.57	2791.38
280.79	2648.02
281.00	2494.43
281.22	2691.03
281.43	2818.00
281.65	2394.08
281.86	2605.02
282.08	2795.48
282.29	2951.12
282.51	2486.23
282.73	2500.57
282.94	2437.08
283.16	2834.39
283.37	2809.81
283.59	2615.26
283.80	2727.89
284.02	2711.51
284.23	2705.37
284.45	2650.07
284.66	2539.48
284.88	2621.40
285.09	2535.39
285.31	2668.50
285.52	2742.23
285.74	2557.91
285.95	2752.47
286.17	2631.64
286.38	2891.73
286.60	2596.82
286.81	2541.53
287.03	2625.50
287.24	2658.26
287.46	2783.19
287.67	2707.41
287.89	2783.19
288.10	2740.18
288.32	2748.37
288.53	2693.08
288.75	2656.22
288.96	2793.43
289.18	2584.54
289.39	2527.19
289.61	2686.94
289.82	3117.01
290.04	2936.79
290.25	2519.00
290.47	2650.07
290.68	2652.12
290.90	2822.10
291.11	2445.27
291.33	2736.09
291.54	2545.63
291.76	2588.63
291.97	2613.21
292.18	2748.37
292.40	2674.65
292.61	2699.22
292.83	2785.24
293.04	2607.06
293.26	2758.61
293.47	2697.17
293.69	2537.43
293.90	2572.25
294.12	2846.68
294.33	2660.31
294.55	2588.63
294.76	2725.85
294.97	2904.02
295.19	3004.37
295.40	2629.59
295.62	2635.74
295.83	2801.62
296.05	2588.63
296.26	2715.61
296.48	2582.49
296.69	2738.13
296.90	2793.43
297.12	2750.42
297.33	2742.23
297.55	2840.53
297.76	2842.58
297.98	2674.65
298.19	2662.36
298.41	2748.37
298.62	2539.48
298.83	2783.19
299.05	2656.22
299.26	2600.92
299.48	2600.92
299.69	2699.22
299.90	2643.93
300.12	2512.86
300.33	2846.68
300.55	2662.36
300.76	2627.54
300.98	2562.01
301.19	2797.53
301.40	2625.50
301.62	2553.82
301.83	2787.29
302.05	2740.18
302.26	2629.59
302.47	2676.70
302.69	2553.82
302.90	2703.32
303.12	2322.40
303.33	2787.29
303.54	2994.13
303.76	2600.92
303.97	2629.59
304.19	2805.72
304.40	2559.96
304.61	2846.68
304.83	2723.80
305.04	2719.70
305.26	2785.24
305.47	2684.89
305.68	2650.07
305.90	2482.14
306.11	2879.44
306.33	2625.50
306.54	2533.34
306.75	2539.48
306.97	2496.47
307.18	2594.78
307.39	2555.86
307.61	2654.17
307.82	2691.03
308.04	2801.62
308.25	2547.67
308.46	2697.17
308.68	2760.66
308.89	2711.51
309.10	2660.31
309.32	2652.12
309.53	2639.83
309.74	2795.48
309.96	2547.67
310.17	2707.41
310.39	2654.17
310.60	2840.53
310.81	2684.89
311.03	2506.71
311.24	2813.91
311.45	2637.78
311.67	2908.12
311.88	2734.04
312.09	2684.89
312.31	2682.84
312.52	2547.67
312.73	2527.19
312.95	2455.51
313.16	2543.58
313.37	2734.04
313.59	2701.27
313.80	2842.58
314.01	3045.33
314.23	2650.07
314.44	2588.63
314.65	2504.67
314.87	2531.29
315.08	2605.02
315.29	2625.50
315.51	2596.82
315.72	2504.67
315.93	2678.74
316.15	2691.03
316.36	2693.08
316.57	2742.23
316.79	2686.94
317.00	2619.35
317.21	2801.62
317.43	2559.96
317.64	2600.92
317.85	2523.10
318.07	2637.78
318.28	2586.58
318.49	2785.24
318.70	2822.10
318.92	2781.14
319.13	2781.14
319.34	2740.18
319.56	2658.26
319.77	2830.29
319.98	2883.54
320.20	2789.33
320.41	2695.13
320.62	2840.53
320.83	2582.49
321.05	2858.96
321.26	2676.70
321.47	2746.33
321.69	2930.64
321.90	2480.09
322.11	2537.43
322.32	2641.88
322.54	2940.88
322.75	2613.21
322.96	3209.17
323.18	2549.72
323.39	2496.47
323.60	2523.10
323.81	2693.08
324.03	2645.98
324.24	2682.84
324.45	2691.03
324.66	2600.92
324.88	2840.53
325.09	2887.64
325.30	2629.59
325.52	2615.26
325.73	2787.29
325.94	2584.54
326.15	2414.56
326.37	2566.10
326.58	2807.77
326.79	2996.18
327.00	2498.52
327.22	2650.07
327.43	2652.12
327.64	2572.25
327.85	2697.17
328.07	2658.26
328.28	2996.18
328.49	2635.74
328.70	2572.25
328.92	2672.60
329.13	2789.33
329.34	2832.34
329.55	2836.44
329.76	2793.43
329.98	2705.37
330.19	2899.92
330.40	2633.69
330.61	2688.98
330.83	2805.72
331.04	2564.06
331.25	2654.17
331.46	2607.06
331.68	2588.63
331.89	2850.77
332.10	2662.36
332.31	2484.19
332.52	2686.94
332.74	2973.65
332.95	2484.19
333.16	2650.07
333.37	2826.20
333.58	2656.22
333.80	2619.35
334.01	2488.28
334.22	2668.50
334.43	2617.30
334.64	2478.04
334.86	2467.80
335.07	2607.06
335.28	2908.12
335.49	2498.52
335.70	2676.70
335.92	2906.07
336.13	3106.77
336.34	2664.41
336.55	2637.78
336.76	2844.63
336.98	2342.88
337.19	2668.50
337.40	2729.94
337.61	3061.71
337.82	2559.96
338.04	2682.84
338.25	2389.98
338.46	2666.46
338.67	2686.94
338.88	2545.63
339.09	2547.67
339.31	2713.56
339.52	2594.78
339.73	2570.20
339.94	2635.74
340.15	2838.48
340.36	2676.70
340.58	2637.78
340.79	2525.15
341.00	2826.20
341.21	2494.43
341.42	2793.43
341.63	2613.21
341.85	2826.20
342.06	2793.43
342.27	2533.34
342.48	2711.51
342.69	2551.77
342.90	2807.77
343.12	2873.30
343.33	2539.48
343.54	2906.07
343.75	2863.06
343.96	2566.10
344.17	2543.58
344.38	2793.43
344.60	2596.82
344.81	2539.48
345.02	2609.11
345.23	2887.64
345.44	3000.27
345.65	2621.40
345.86	2629.59
346.07	2793.43
346.29	2590.68
346.50	2775.00
346.71	2691.03
346.92	2899.92
347.13	2996.18
347.34	2592.73
347.55	2557.91
347.76	2799.57
347.98	2504.67
348.19	2619.35
348.40	2826.20
348.61	2600.92
348.82	2949.08
349.03	2637.78
349.24	2492.38
349.45	3024.85
349.66	2445.27
349.88	2594.78
350.09	2523.10
350.30	2951.12
350.51	2852.82
350.72	2656.22
350.93	2629.59
351.14	2701.27
351.35	2760.66
351.56	2674.65
351.77	2635.74
351.99	2738.13
352.20	3000.27
352.41	2707.41
352.62	2506.71
352.83	2590.68
353.04	2701.27
353.25	2564.06
353.46	2619.35
353.67	2818.00
353.88	2443.23
354.09	2627.54
354.30	2645.98
354.52	2772.95
354.73	2648.02
354.94	2484.19
355.15	2590.68
355.36	2983.89
355.57	2629.59
355.78	2621.40
355.99	2549.72
356.20	2660.31
356.41	2955.22
356.62	2742.23
356.83	2613.21
357.04	2854.87
357.25	2506.71
357.46	2600.92
357.68	2467.80
357.89	2627.54
358.10	2701.27
358.31	2564.06
358.52	2617.30
358.73	2607.06
358.94	2582.49
359.15	2564.06
359.36	2662.36
359.57	2652.12
359.78	2678.74
359.99	2738.13
360.20	2498.52
360.41	2703.32
360.62	2834.39
360.83	2602.97
361.04	2602.97
361.25	2797.53
361.46	2936.79
361.67	2742.23
361.88	2676.70
362.09	2848.72
362.30	2793.43
362.51	2549.72
362.72	2648.02
362.93	2787.29
363.14	2744.28
363.35	2621.40
363.56	2506.71
363.78	2762.71
363.99	2858.96
364.20	2572.25
364.41	2719.70
364.62	2889.68
364.83	2676.70
365.04	2609.11
365.25	2584.54
365.46	3030.99
365.67	2592.73
365.88	2717.65
366.09	2584.54
366.30	2658.26
366.51	2715.61
366.72	2512.86
366.93	2578.39
367.14	2652.12
367.35	2906.07
367.56	2602.97
367.77	2775.00
367.98	2654.17
368.18	2760.66
368.39	2695.13
368.60	2549.72
368.81	2832.34
369.02	2695.13
369.23	2617.30
369.44	2451.42
369.65	2566.10
369.86	2805.72
370.07	2777.05
370.28	2605.02
370.49	2785.24
370.70	2795.48
370.91	2539.48
371.12	2467.80
371.33	2875.35
371.54	2662.36
371.75	2725.85
371.96	2375.64
372.17	2791.38
372.38	2758.61
372.59	2641.88
372.80	2613.21
373.01	2678.74
373.22	2717.65
373.43	2576.34
373.64	2467.80
373.85	2842.58
374.06	3039.19
374.26	2795.48
374.47	2723.80
374.68	2850.77
374.89	2734.04
375.10	2529.24
375.31	2635.74
375.52	2795.48
375.73	2711.51
375.94	2539.48
376.15	2787.29
376.36	2619.35
376.57	2621.40
376.78	2613.21
376.99	2666.46
377.20	2899.92
377.40	2623.45
377.61	2906.07
377.82	2498.52
378.03	2969.55
378.24	2842.58
378.45	2725.85
378.66	2682.84
378.87	2484.19
379.08	2547.67
379.29	2549.72
379.50	2750.42
379.71	2715.61
379.91	2799.57
380.12	2549.72
380.33	2607.06
380.54	2711.51
380.75	2707.41
380.96	2635.74
381.17	2662.36
381.38	2695.13
381.59	2750.42
381.80	2574.30
382.00	2793.43
382.21	2746.33
382.42	3043.28
382.63	2938.84
382.84	2719.70
383.05	2822.10
383.26	2996.18
383.47	2637.78
383.68	2592.73
383.88	2928.60
384.09	2719.70
384.30	2873.30
384.51	2746.33
384.72	2625.50
384.93	2539.48
385.14	2721.75
385.35	2693.08
385.55	2619.35
385.76	2863.06
385.97	2555.86
386.18	2496.47
386.39	2674.65
386.60	2721.75
386.81	2564.06
387.02	2486.23
387.22	2545.63
387.43	2787.29
387.64	2719.70
387.85	2799.57
388.06	2775.00
388.27	4050.88
388.48	7421.84
388.68	11077.46
388.89	13557.55
389.10	14556.96
389.31	13840.17
389.52	11190.10
389.73	9525.10
389.93	8638.33
390.14	7956.36
390.35	7167.89
390.56	6492.06
390.77	5267.38
390.98	4102.08
391.18	3393.48
391.39	3174.35
391.60	2811.86
391.81	2840.53
392.02	2650.07
392.23	3057.62
392.43	2697.17
392.64	2809.81
392.85	2691.03
393.06	2891.73
393.27	2695.13
393.47	2506.71
393.68	2674.65
393.89	2662.36
394.10	2961.36
394.31	2576.34
394.52	2570.20
394.72	2631.64
394.93	2959.31
395.14	2535.39
395.35	2742.23
395.56	2625.50
395.76	2691.03
395.97	2688.98
396.18	2725.85
396.39	2744.28
396.60	3243.98
396.80	2936.79
397.01	2842.58
397.22	2858.96
397.43	2996.18
397.64	2609.11
397.84	2715.61
398.05	3063.76
398.26	2660.31
398.47	2740.18
398.67	2783.19
398.88	2713.56
399.09	2793.43
399.30	2562.01
399.51	2645.98
399.71	2600.92
399.92	2738.13
400.13	2693.08
400.34	2695.13
400.54	2754.52
400.75	2863.06
400.96	2625.50
401.17	2899.92
401.37	2799.57
401.58	2684.89
401.79	2572.25
402.00	2760.66
402.21	3164.11
402.41	2920.40
402.62	2926.55
402.83	2967.51
403.04	3082.19
403.24	3274.70
403.45	2791.38
403.66	2895.83
403.87	2918.36
404.07	2994.13
404.28	2918.36
404.49	2891.73
404.70	2803.67
404.90	2893.78
405.11	2629.59
405.32	2781.14
405.52	2578.39
405.73	2623.45
405.94	2572.25
406.15	2643.93
406.35	2850.77
406.56	2848.72
406.77	2682.84
406.98	2645.98
407.18	2629.59
407.39	2854.87
407.60	2695.13
407.80	2723.80
408.01	2623.45
408.22	2807.77
408.43	2539.48
408.63	2721.75
408.84	2959.31
409.05	2889.68
409.25	2514.91
409.46	2600.92
409.67	2668.50
409.88	2607.06
410.08	2701.27
410.29	2613.21
410.50	2873.30
410.70	2869.20
410.91	2527.19
411.12	2740.18
411.32	2717.65
411.53	2615.26
411.74	2660.31
411.95	2789.33
412.15	2752.47
412.36	2852.82
412.57	2738.13
412.77	2803.67
412.98	2703.32
413.19	2582.49
413.39	2695.13
413.60	2662.36
413.81	2916.31
414.01	2621.40
414.22	2748.37
414.43	2727.89
414.63	2613.21
414.84	2912.21
415.05	2617.30
415.25	2498.52
415.46	2824.15
415.67	2660.31
415.87	2641.88
416.08	2584.54
416.29	2625.50
416.49	2775.00
416.70	2600.92
416.91	2596.82
417.11	2662.36
417.32	2895.83
417.53	2848.72
417.73	2801.62
417.94	2719.70
418.15	2725.85
418.35	2613.21
418.56	2693.08
418.77	3020.75
418.97	2768.85
419.18	2693.08
419.38	2385.88
419.59	2768.85
419.80	2996.18
420.00	2627.54
420.21	2684.89
420.42	2940.88
420.62	2807.77
420.83	2574.30
421.04	2666.46
421.24	2674.65
421.45	2854.87
421.65	2648.02
421.86	2650.07
422.07	2838.48
422.27	2738.13
422.48	2643.93
422.69	2531.29
422.89	2635.74
423.10	2707.41
423.30	2500.57
423.51	2697.17
423.72	2760.66
423.92	2811.86
424.13	2502.62
424.33	2621.40
424.54	2783.19
424.75	2734.04
424.95	2762.71
425.16	2645.98
425.36	2785.24
425.57	2811.86
425.78	2815.96
425.98	2781.14
426.19	2609.11
426.39	2607.06
426.60	2740.18
426.81	2762.71
427.01	2801.62
427.22	2617.30
427.42	2494.43
427.63	2609.11
427.83	2877.40
428.04	2899.92
428.25	2742.23
428.45	2672.60
428.66	2793.43
428.86	2715.61
429.07	2652.12
429.28	2609.11
429.48	2752.47
429.69	2621.40
429.89	2756.57
430.10	2559.96
430.30	2848.72
430.51	2824.15
430.71	2586.58
430.92	2648.02
431.13	2643.93
431.33	2795.48
431.54	2723.80
431.74	2910.16
431.95	2979.79
432.15	2576.34
432.36	2668.50
432.56	2729.94
432.77	3039.19
432.98	2922.45
433.18	2813.91
433.39	2562.01
433.59	2717.65
433.80	2998.23
434.00	2881.49
434.21	2723.80
434.41	2543.58
434.62	3033.04
434.82	2435.03
435.03	2559.96
435.23	2781.14
435.44	2465.75
435.64	2629.59
435.85	2697.17
436.06	2785.24
436.26	2961.36
436.47	2656.22
436.67	2598.87
436.88	2670.55
437.08	2834.39
437.29	2879.44
437.49	2801.62
437.70	2846.68
437.90	2797.53
438.11	2910.16
438.31	2740.18
438.52	2990.03
438.72	2906.07
438.93	2908.12
439.13	2703.32
439.34	2901.97
439.54	2691.03
439.75	2770.90
439.95	2713.56
440.16	2639.83
440.36	2752.47
440.57	2656.22
440.77	2693.08
440.98	2686.94
441.18	2793.43
441.39	2547.67
441.59	2539.48
441.80	3043.28
442.00	2711.51
442.21	2734.04
442.41	2578.39
442.62	2920.40
442.82	2619.35
443.02	2662.36
443.23	2707.41
443.43	2658.26
443.64	2924.50
443.84	2545.63
444.05	2707.41
444.25	2785.24
444.46	2750.42
444.66	2592.73
444.87	2848.72
445.07	2480.09
445.28	2676.70
445.48	2791.38
445.69	2736.09
445.89	3157.97
446.09	2693.08
446.30	2951.12
446.50	3051.47
446.71	4544.44
446.91	5754.79
447.12	6444.96
447.32	6879.13
447.53	6596.51
447.73	5463.98
447.93	4747.19
448.14	4513.72
448.34	4407.23
448.55	3936.20
448.75	3805.13
448.96	3565.51
449.16	3364.81
449.36	3248.08
449.57	2963.41
449.77	2748.37
449.98	2643.93
450.18	2854.87
450.39	2678.74
450.59	2736.09
450.79	2703.32
451.00	2658.26
451.20	2785.24
451.41	2621.40
451.61	2785.24
451.81	2744.28
452.02	2645.98
452.22	2656.22
452.43	2670.55
452.63	2605.02
