SpectraSuite Data File
++++++++++++++++++++++++++++++++++++
Date: Thu May 05 16:20:32 CEST 2016
User: root
Dark Spectrum Present: No
Reference Spectrum Present: No
Number of Sampled Component Spectra: 1
Spectrometers: USB4C02835
Integration Time (usec): 100000 (USB4C02835)
Spectra Averaged: 1 (USB4C02835)
Boxcar Smoothing: 0 (USB4C02835)
Correct for Electrical Dark: No (USB4C02835)
Strobe/Lamp Enabled: No (USB4C02835)
Correct for Detector Non-linearity: No (USB4C02835)
Correct for Stray Light: No (USB4C02835)
Number of Pixels in Processed Spectrum: 3648
>>>>>Begin Processed Spectral Data<<<<<
177.47	1990.63
177.69	1990.63
177.91	1990.63
178.13	2027.49
178.36	2142.18
178.58	2508.76
178.80	2748.37
179.02	2531.29
179.24	2576.34
179.46	2432.99
179.68	2566.10
179.90	2758.61
180.13	2697.17
180.35	2344.92
180.57	2519.00
180.79	2871.25
181.01	2772.95
181.23	2584.54
181.45	2699.22
181.67	2746.33
181.90	2885.59
182.12	2510.81
182.34	2389.98
182.56	2777.05
182.78	2762.71
183.00	2531.29
183.22	2504.67
183.44	2432.99
183.66	3061.71
183.89	2656.22
184.11	2607.06
184.33	2709.46
184.55	2852.82
184.77	2502.62
184.99	2510.81
185.21	2717.65
185.43	3071.95
185.65	2523.10
185.87	2496.47
186.10	3069.91
186.32	3055.57
186.54	2588.63
186.76	2641.88
186.98	2942.93
187.20	2664.41
187.42	2519.00
187.64	2506.71
187.86	2809.81
188.08	2828.24
188.30	2471.90
188.52	2551.77
188.75	2977.75
188.97	2934.74
189.19	2455.51
189.41	2510.81
189.63	2768.85
189.85	2625.50
190.07	2385.88
190.29	2359.26
190.51	2768.85
190.73	2582.49
190.95	2629.59
191.17	2537.43
191.39	2445.27
191.61	2658.26
191.84	2504.67
192.06	2549.72
192.28	2514.91
192.50	3252.17
192.72	2555.86
192.94	2529.24
193.16	2885.59
193.38	2871.25
193.60	2420.70
193.82	2654.17
194.04	2867.16
194.26	2750.42
194.48	2594.78
194.70	2523.10
194.92	2559.96
195.14	2799.57
195.36	2461.66
195.58	2621.40
195.80	2736.09
196.02	2600.92
196.24	2469.85
196.46	2576.34
196.69	2619.35
196.91	3037.14
197.13	2521.05
197.35	2523.10
197.57	2944.98
197.79	2775.00
198.01	2545.63
198.23	2504.67
198.45	2799.57
198.67	2557.91
198.89	2414.56
199.11	2623.45
199.33	2621.40
199.55	2428.89
199.77	2480.09
199.99	2637.78
200.21	2631.64
200.43	2830.29
200.65	2435.03
200.87	2322.40
201.09	2727.89
201.31	2686.94
201.53	2635.74
201.75	2535.39
201.97	2799.57
202.19	2721.75
202.41	2566.10
202.63	2709.46
202.85	2818.00
203.07	2807.77
203.29	2463.71
203.51	2424.80
203.73	2596.82
203.95	3104.72
204.17	2555.86
204.39	2598.87
204.61	2686.94
204.83	2686.94
205.05	2639.83
205.27	2533.34
205.49	3055.57
205.71	2670.55
205.93	2381.79
206.15	2453.47
206.37	2717.65
206.59	2731.99
206.81	2412.51
207.03	2473.95
207.25	2549.72
207.47	2834.39
207.69	2559.96
207.91	2750.42
208.13	2981.84
208.34	2650.07
208.56	2551.77
208.78	2539.48
209.00	2629.59
209.22	2580.44
209.44	2451.42
209.66	2516.95
209.88	2731.99
210.10	2605.02
210.32	2521.05
210.54	2633.69
210.76	2742.23
210.98	2881.49
211.20	2316.25
211.42	2551.77
211.64	2951.12
211.86	2850.77
212.08	2568.15
212.30	2523.10
212.52	2699.22
212.74	2699.22
212.96	2514.91
213.17	2637.78
213.39	2826.20
213.61	3004.37
213.83	2512.86
214.05	2416.60
214.27	2832.34
214.49	2588.63
214.71	2541.53
214.93	2625.50
215.15	2711.51
215.37	2854.87
215.59	2453.47
215.81	2564.06
216.03	2879.44
216.24	2715.61
216.46	2553.82
216.68	2512.86
216.90	2807.77
217.12	2873.30
217.34	2428.89
217.56	2668.50
217.78	2910.16
218.00	2854.87
218.22	2617.30
218.44	2670.55
218.66	2801.62
218.87	3010.51
219.09	2588.63
219.31	2494.43
219.53	2715.61
219.75	2699.22
219.97	2541.53
220.19	2541.53
220.41	2791.38
220.63	3041.23
220.85	2568.15
221.06	2543.58
221.28	2920.40
221.50	2789.33
221.72	2506.71
221.94	2451.42
222.16	2760.66
222.38	2815.96
222.60	2576.34
222.82	2541.53
223.03	2820.05
223.25	2519.00
223.47	2463.71
223.69	2691.03
223.91	2852.82
224.13	2791.38
224.35	2400.22
224.57	2707.41
224.78	2805.72
225.00	2602.97
225.22	2514.91
225.44	2525.15
225.66	2877.40
225.88	2525.15
226.10	2578.39
226.32	2463.71
226.53	2924.50
226.75	2613.21
226.97	2516.95
227.19	2562.01
227.41	2631.64
227.63	2654.17
227.85	2412.51
228.06	2529.24
228.28	2727.89
228.50	2912.21
228.72	2408.41
228.94	2516.95
229.16	2465.75
229.37	2588.63
229.59	2469.85
229.81	2658.26
230.03	2609.11
230.25	2457.56
230.47	2402.27
230.69	2504.67
230.90	2852.82
231.12	2574.30
231.34	2600.92
231.56	2572.25
231.78	2494.43
232.00	2748.37
232.21	2586.58
232.43	2494.43
232.65	2453.47
232.87	2766.81
233.09	2469.85
233.30	2480.09
233.52	2801.62
233.74	2684.89
233.96	2465.75
234.18	2736.09
234.40	2670.55
234.61	3016.66
234.83	2445.27
235.05	2492.38
235.27	3069.91
235.49	2957.27
235.70	2502.62
235.92	2602.97
236.14	2858.96
236.36	3096.53
236.58	2385.88
236.79	2539.48
237.01	2643.93
237.23	2697.17
237.45	2725.85
237.67	2500.57
237.88	2750.42
238.10	2983.89
238.32	2424.80
238.54	2451.42
238.76	2723.80
238.97	2580.44
239.19	2420.70
239.41	2602.97
239.63	2807.77
239.85	2625.50
240.06	2496.47
240.28	2475.99
240.50	2889.68
240.72	2727.89
240.93	2408.41
241.15	2602.97
241.37	2719.70
241.59	2947.03
241.81	2500.57
242.02	2627.54
242.24	2766.81
242.46	2815.96
242.68	2445.27
242.89	2471.90
243.11	2789.33
243.33	2637.78
243.55	2514.91
243.76	2576.34
243.98	2635.74
244.20	2680.79
244.42	2428.89
244.64	2621.40
244.85	2539.48
245.07	2688.98
245.29	2439.13
245.51	2613.21
245.72	2877.40
245.94	2863.06
246.16	2576.34
246.38	2545.63
246.59	2617.30
246.81	2674.65
247.03	2449.37
247.24	2387.93
247.46	2701.27
247.68	2760.66
247.90	2475.99
248.11	2496.47
248.33	2869.20
248.55	2711.51
248.77	2543.58
248.98	2592.73
249.20	2963.41
249.42	2766.81
249.64	2500.57
249.85	2428.89
250.07	2592.73
250.29	2822.10
250.50	2596.82
250.72	2400.22
250.94	2736.09
251.16	3004.37
251.37	2482.14
251.59	2631.64
251.81	2783.19
252.02	2985.94
252.24	2432.99
252.46	2627.54
252.68	2578.39
252.89	2576.34
253.11	2353.12
253.33	2682.84
253.54	2895.83
253.76	2523.10
253.98	2551.77
254.20	2404.32
254.41	2557.91
254.63	2729.94
254.85	2414.56
255.06	2504.67
255.28	2793.43
255.50	2637.78
255.71	2441.18
255.93	2410.46
256.15	2635.74
256.36	2746.33
256.58	2422.75
256.80	2551.77
257.02	2617.30
257.23	2623.45
257.45	2535.39
257.67	2645.98
257.88	2557.91
258.10	2756.57
258.32	2568.15
258.53	2559.96
258.75	2944.98
258.97	2645.98
259.18	2465.75
259.40	2533.34
259.62	2990.03
259.83	2863.06
260.05	2541.53
260.27	3121.10
260.48	2957.27
260.70	2617.30
260.92	2416.60
261.13	2521.05
261.35	2766.81
261.57	2822.10
261.78	2392.03
262.00	2432.99
262.22	2842.58
262.43	2621.40
262.65	2504.67
262.86	2574.30
263.08	3039.19
263.30	2723.80
263.51	2371.55
263.73	2551.77
263.95	2996.18
264.16	2611.16
264.38	2412.51
264.60	2506.71
264.81	2740.18
265.03	2908.12
265.25	2824.15
265.46	2490.33
265.68	2901.97
265.89	2877.40
266.11	2379.74
266.33	2582.49
266.54	2920.40
266.76	2854.87
266.98	2553.82
267.19	2625.50
267.41	2871.25
267.62	2684.89
267.84	2346.97
268.06	2594.78
268.27	2672.60
268.49	2912.21
268.70	2592.73
268.92	2570.20
269.14	2478.04
269.35	2584.54
269.57	2607.06
269.79	2611.16
270.00	2621.40
270.22	2944.98
270.43	2465.75
270.65	2342.88
270.87	2764.76
271.08	2820.05
271.30	2605.02
271.51	2502.62
271.73	2809.81
271.95	2869.20
272.16	2541.53
272.38	2623.45
272.59	2688.98
272.81	2824.15
273.02	2463.71
273.24	2545.63
273.46	2899.92
273.67	2441.18
273.89	2451.42
274.10	2428.89
274.32	2842.58
274.54	2785.24
274.75	2596.82
274.97	2598.87
275.18	2809.81
275.40	2772.95
275.61	2553.82
275.83	2605.02
276.05	2523.10
276.26	2654.17
276.48	2654.17
276.69	2590.68
276.91	2582.49
277.12	2924.50
277.34	2717.65
277.55	2711.51
277.77	2756.57
277.99	2664.41
278.20	2594.78
278.42	2447.32
278.63	2602.97
278.85	2529.24
279.06	2539.48
279.28	2664.41
279.49	2797.53
279.71	2787.29
279.93	2588.63
280.14	2682.84
280.36	2572.25
280.57	2869.20
280.79	2711.51
281.00	2500.57
281.22	2615.26
281.43	3006.42
281.65	2418.65
281.86	2516.95
282.08	2758.61
282.29	3000.27
282.51	2490.33
282.73	2594.78
282.94	2502.62
283.16	2799.57
283.37	2711.51
283.59	2572.25
283.80	2801.62
284.02	2666.46
284.23	2727.89
284.45	2631.64
284.66	2600.92
284.88	2576.34
285.09	2615.26
285.31	2738.13
285.52	2766.81
285.74	2469.85
285.95	2750.42
286.17	2584.54
286.38	2815.96
286.60	2617.30
286.81	2535.39
287.03	2568.15
287.24	2715.61
287.46	2826.20
287.67	2691.03
287.89	2863.06
288.10	2740.18
288.32	2709.46
288.53	2766.81
288.75	2568.15
288.96	2791.38
289.18	2678.74
289.39	2519.00
289.61	2658.26
289.82	3024.85
290.04	2969.55
290.25	2455.51
290.47	2611.16
290.68	2658.26
290.90	2846.68
291.11	2488.28
291.33	2709.46
291.54	2621.40
291.76	2643.93
291.97	2766.81
292.18	2760.66
292.40	2686.94
292.61	2662.36
292.83	2863.06
293.04	2688.98
293.26	2815.96
293.47	2691.03
293.69	2482.14
293.90	2531.29
294.12	2965.46
294.33	2764.76
294.55	2596.82
294.76	2752.47
294.97	2918.36
295.19	3024.85
295.40	2617.30
295.62	2766.81
295.83	2834.39
296.05	2629.59
296.26	2760.66
296.48	2615.26
296.69	2756.57
296.90	2725.85
297.12	2701.27
297.33	2740.18
297.55	2805.72
297.76	2775.00
297.98	2731.99
298.19	2684.89
298.41	2684.89
298.62	2584.54
298.83	2807.77
299.05	2672.60
299.26	2693.08
299.48	2645.98
299.69	2697.17
299.90	2658.26
300.12	2580.44
300.33	2854.87
300.55	2580.44
300.76	2682.84
300.98	2572.25
301.19	2809.81
301.40	2621.40
301.62	2537.43
301.83	2744.28
302.05	2738.13
302.26	2594.78
302.47	2623.45
302.69	2613.21
302.90	2676.70
303.12	2404.32
303.33	2738.13
303.54	3043.28
303.76	2619.35
303.97	2613.21
304.19	2826.20
304.40	2572.25
304.61	2785.24
304.83	2775.00
305.04	2734.04
305.26	2854.87
305.47	2660.31
305.68	2670.55
305.90	2471.90
306.11	2895.83
306.33	2686.94
306.54	2478.04
306.75	2578.39
306.97	2469.85
307.18	2516.95
307.39	2637.78
307.61	2744.28
307.82	2621.40
308.04	2756.57
308.25	2506.71
308.46	2703.32
308.68	2715.61
308.89	2727.89
309.10	2752.47
309.32	2680.79
309.53	2717.65
309.74	2785.24
309.96	2609.11
310.17	2693.08
310.39	2660.31
310.60	2850.77
310.81	2678.74
311.03	2418.65
311.24	2770.90
311.45	2645.98
311.67	2846.68
311.88	2688.98
312.09	2641.88
312.31	2648.02
312.52	2588.63
312.73	2529.24
312.95	2562.01
313.16	2582.49
313.37	2820.05
313.59	2662.36
313.80	2879.44
314.01	2949.08
314.23	2648.02
314.44	2541.53
314.65	2551.77
314.87	2621.40
315.08	2613.21
315.29	2553.82
315.51	2576.34
315.72	2500.57
315.93	2768.85
316.15	2641.88
316.36	2641.88
316.57	2680.79
316.79	2615.26
317.00	2629.59
317.21	2760.66
317.43	2570.20
317.64	2693.08
317.85	2572.25
318.07	2598.87
318.28	2723.80
318.49	2641.88
318.70	2887.64
318.92	2799.57
319.13	2914.26
319.34	2799.57
319.56	2668.50
319.77	2787.29
319.98	2869.20
320.20	2830.29
320.41	2699.22
320.62	2850.77
320.83	2525.15
321.05	2834.39
321.26	2623.45
321.47	2801.62
321.69	2879.44
321.90	2506.71
322.11	2535.39
322.32	2734.04
322.54	2912.21
322.75	2578.39
322.96	3123.15
323.18	2576.34
323.39	2494.43
323.60	2504.67
323.81	2709.46
324.03	2596.82
324.24	2682.84
324.45	2697.17
324.66	2576.34
324.88	2971.60
325.09	2944.98
325.30	2660.31
325.52	2588.63
325.73	2811.86
325.94	2555.86
326.15	2512.86
326.37	2551.77
326.58	2805.72
326.79	2940.88
327.00	2531.29
327.22	2549.72
327.43	2629.59
327.64	2494.43
327.85	2772.95
328.07	2678.74
328.28	2971.60
328.49	2654.17
328.70	2633.69
328.92	2617.30
329.13	2680.79
329.34	2734.04
329.55	2836.44
329.76	2787.29
329.98	2652.12
330.19	2920.40
330.40	2686.94
330.61	2688.98
330.83	2828.24
331.04	2549.72
331.25	2703.32
331.46	2582.49
331.68	2625.50
331.89	2932.69
332.10	2594.78
332.31	2455.51
332.52	2709.46
332.74	2899.92
332.95	2461.66
333.16	2615.26
333.37	2838.48
333.58	2643.93
333.80	2625.50
334.01	2420.70
334.22	2703.32
334.43	2564.06
334.64	2568.15
334.86	2559.96
335.07	2596.82
335.28	2930.64
335.49	2539.48
335.70	2680.79
335.92	2947.03
336.13	3082.19
336.34	2654.17
336.55	2660.31
336.76	2850.77
336.98	2494.43
337.19	2621.40
337.40	2783.19
337.61	3059.67
337.82	2701.27
338.04	2725.85
338.25	2398.17
338.46	2674.65
338.67	2590.68
338.88	2555.86
339.09	2506.71
339.31	2641.88
339.52	2486.23
339.73	2502.62
339.94	2619.35
340.15	2801.62
340.36	2682.84
340.58	2535.39
340.79	2553.82
341.00	2815.96
341.21	2572.25
341.42	2744.28
341.63	2570.20
341.85	2957.27
342.06	2781.14
342.27	2525.15
342.48	2723.80
342.69	2475.99
342.90	2824.15
343.12	2865.11
343.33	2533.34
343.54	2893.78
343.75	2865.11
343.96	2658.26
344.17	2504.67
344.38	2658.26
344.60	2605.02
344.81	2615.26
345.02	2596.82
345.23	2922.45
345.44	3022.80
345.65	2684.89
345.86	2695.13
346.07	2793.43
346.29	2643.93
346.50	2725.85
346.71	2734.04
346.92	2983.89
347.13	3053.52
347.34	2652.12
347.55	2547.67
347.76	2822.10
347.98	2506.71
348.19	2666.46
348.40	2693.08
348.61	2748.37
348.82	3037.14
349.03	2709.46
349.24	2555.86
349.45	3045.33
349.66	2447.32
349.88	2588.63
350.09	2621.40
350.30	2922.45
350.51	2797.53
350.72	2660.31
350.93	2658.26
351.14	2629.59
351.35	2789.33
351.56	2693.08
351.77	2617.30
351.99	2768.85
352.20	2875.35
352.41	2795.48
352.62	2469.85
352.83	2656.22
353.04	2748.37
353.25	2586.58
353.46	2656.22
353.67	2824.15
353.88	2430.94
354.09	2535.39
354.30	2650.07
354.52	2840.53
354.73	2725.85
354.94	2613.21
355.15	2654.17
355.36	3039.19
355.57	2605.02
355.78	2607.06
355.99	2539.48
356.20	2654.17
356.41	2920.40
356.62	2592.73
356.83	2623.45
357.04	2981.84
357.25	2498.52
357.46	2580.44
357.68	2406.36
357.89	2645.98
358.10	2693.08
358.31	2666.46
358.52	2664.41
358.73	2572.25
358.94	2555.86
359.15	2574.30
359.36	2645.98
359.57	2664.41
359.78	2656.22
359.99	2762.71
360.20	2582.49
360.41	2684.89
360.62	2813.91
360.83	2697.17
361.04	2631.64
361.25	2795.48
361.46	2994.13
361.67	2752.47
361.88	2629.59
362.09	2875.35
362.30	2775.00
362.51	2514.91
362.72	2682.84
362.93	2842.58
363.14	2920.40
363.35	2703.32
363.56	2496.47
363.78	2920.40
363.99	2858.96
364.20	2551.77
364.41	2691.03
364.62	3069.91
364.83	2809.81
365.04	2623.45
365.25	2645.98
365.46	3035.09
365.67	2598.87
365.88	2650.07
366.09	2555.86
366.30	2668.50
366.51	2715.61
366.72	2523.10
366.93	2682.84
367.14	2656.22
367.35	2914.26
367.56	2557.91
367.77	2701.27
367.98	2756.57
368.18	2797.53
368.39	2691.03
368.60	2623.45
368.81	2762.71
369.02	2805.72
369.23	2619.35
369.44	2457.56
369.65	2631.64
369.86	2777.05
370.07	2691.03
370.28	2547.67
370.49	2742.23
370.70	2811.86
370.91	2521.05
371.12	2469.85
371.33	2908.12
371.54	2605.02
371.75	2727.89
371.96	2377.69
372.17	2779.09
372.38	2715.61
372.59	2658.26
372.80	2592.73
373.01	2678.74
373.22	2797.53
373.43	2621.40
373.64	2467.80
373.85	2944.98
374.06	2990.03
374.26	2775.00
374.47	2731.99
374.68	2883.54
374.89	2785.24
375.10	2629.59
375.31	2713.56
375.52	2826.20
375.73	2772.95
375.94	2531.29
376.15	2750.42
376.36	2602.97
376.57	2631.64
376.78	2584.54
376.99	2633.69
377.20	2889.68
377.40	2750.42
377.61	2863.06
377.82	2562.01
378.03	2828.24
378.24	2777.05
378.45	2668.50
378.66	2605.02
378.87	2559.96
379.08	2514.91
379.29	2586.58
379.50	2848.72
379.71	2727.89
379.91	2856.92
380.12	2662.36
380.33	2668.50
380.54	2652.12
380.75	2699.22
380.96	2664.41
381.17	2775.00
381.38	2676.70
381.59	2703.32
381.80	2660.31
382.00	2840.53
382.21	2824.15
382.42	2930.64
382.63	2938.84
382.84	2705.37
383.05	2879.44
383.26	3035.09
383.47	2703.32
383.68	2645.98
383.88	2809.81
384.09	2650.07
384.30	2844.63
384.51	2752.47
384.72	2643.93
384.93	2508.76
385.14	2684.89
385.35	2760.66
385.55	2471.90
385.76	2869.20
385.97	2607.06
386.18	2516.95
386.39	2557.91
386.60	2639.83
386.81	2607.06
387.02	2498.52
387.22	2533.34
387.43	2930.64
387.64	2674.65
387.85	2840.53
388.06	2887.64
388.27	3895.24
388.48	7460.75
388.68	11106.13
388.89	13336.37
389.10	14262.05
389.31	13874.99
389.52	10954.58
389.73	9314.16
389.93	8601.47
390.14	7831.43
390.35	6909.85
390.56	6307.74
390.77	5298.10
390.98	4061.12
391.18	3493.83
391.39	3094.48
391.60	2736.09
391.81	2848.72
392.02	2682.84
392.23	3047.38
392.43	2748.37
392.64	2709.46
392.85	2699.22
393.06	2977.75
393.27	2734.04
393.47	2613.21
393.68	2658.26
393.89	2744.28
394.10	2922.45
394.31	2602.97
394.52	2602.97
394.72	2682.84
394.93	2883.54
395.14	2643.93
395.35	2713.56
395.56	2641.88
395.76	2777.05
395.97	2633.69
396.18	2770.90
396.39	2713.56
396.60	3239.89
396.80	2975.70
397.01	2775.00
397.22	2914.26
397.43	2928.60
397.64	2625.50
397.84	2627.54
398.05	3006.42
398.26	2758.61
398.47	2783.19
398.67	2799.57
398.88	2734.04
399.09	2820.05
399.30	2508.76
399.51	2738.13
399.71	2570.20
399.92	2707.41
400.13	2717.65
400.34	2602.97
400.54	2662.36
400.75	2928.60
400.96	2668.50
401.17	2889.68
401.37	2799.57
401.58	2727.89
401.79	2596.82
402.00	2789.33
402.21	3172.30
402.41	2930.64
402.62	2883.54
402.83	3010.51
403.04	3096.53
403.24	3340.24
403.45	2686.94
403.66	2891.73
403.87	2844.63
404.07	2957.27
404.28	2877.40
404.49	2998.23
404.70	2680.79
404.90	2785.24
405.11	2611.16
405.32	2731.99
405.52	2631.64
405.73	2682.84
405.94	2637.78
406.15	2691.03
406.35	2805.72
406.56	2881.49
406.77	2736.09
406.98	2650.07
407.18	2650.07
407.39	2904.02
407.60	2588.63
407.80	2707.41
408.01	2576.34
408.22	2746.33
408.43	2516.95
408.63	2711.51
408.84	2787.29
409.05	2836.44
409.25	2547.67
409.46	2598.87
409.67	2670.55
409.88	2660.31
410.08	2731.99
410.29	2641.88
410.50	2854.87
410.70	2703.32
410.91	2523.10
411.12	2703.32
411.32	2721.75
411.53	2582.49
411.74	2691.03
411.95	2727.89
412.15	2744.28
412.36	2805.72
412.57	2750.42
412.77	2942.93
412.98	2637.78
413.19	2568.15
413.39	2695.13
413.60	2621.40
413.81	2836.44
414.01	2559.96
414.22	2709.46
414.43	2725.85
414.63	2705.37
414.84	2854.87
415.05	2676.70
415.25	2447.32
415.46	2791.38
415.67	2576.34
415.87	2703.32
416.08	2639.83
416.29	2721.75
416.49	2805.72
416.70	2611.16
416.91	2609.11
417.11	2793.43
417.32	2842.58
417.53	2756.57
417.73	2731.99
417.94	2740.18
418.15	2709.46
418.35	2717.65
418.56	2621.40
418.77	3041.23
418.97	2666.46
419.18	2772.95
419.38	2400.22
419.59	2709.46
419.80	2897.88
420.00	2594.78
420.21	2623.45
420.42	2889.68
420.62	2775.00
420.83	2650.07
421.04	2631.64
421.24	2731.99
421.45	2764.76
421.65	2719.70
421.86	2650.07
422.07	2807.77
422.27	2822.10
422.48	2562.01
422.69	2459.61
422.89	2768.85
423.10	2703.32
423.30	2523.10
423.51	2695.13
423.72	2750.42
423.92	2779.09
424.13	2539.48
424.33	2686.94
424.54	2854.87
424.75	2717.65
424.95	2861.01
425.16	2619.35
425.36	2709.46
425.57	2906.07
425.78	2744.28
425.98	2869.20
426.19	2736.09
426.39	2592.73
426.60	2756.57
426.81	2715.61
427.01	2770.90
427.22	2588.63
427.42	2404.32
427.63	2590.68
427.83	2858.96
428.04	3002.32
428.25	2744.28
428.45	2695.13
428.66	2834.39
428.86	2631.64
429.07	2670.55
429.28	2672.60
429.48	2709.46
429.69	2660.31
429.89	2760.66
430.10	2514.91
430.30	2875.35
430.51	2840.53
430.71	2623.45
430.92	2656.22
431.13	2705.37
431.33	2850.77
431.54	2723.80
431.74	2836.44
431.95	3108.82
432.15	2639.83
432.36	2635.74
432.56	2760.66
432.77	3037.14
432.98	3026.90
433.18	2734.04
433.39	2568.15
433.59	2721.75
433.80	3057.62
434.00	2818.00
434.21	2660.31
434.41	2627.54
434.62	3024.85
434.82	2582.49
435.03	2588.63
435.23	2768.85
435.44	2455.51
435.64	2658.26
435.85	2736.09
436.06	2811.86
436.26	2871.25
436.47	2637.78
436.67	2611.16
436.88	2746.33
437.08	2858.96
437.29	2783.19
437.49	2711.51
437.70	3000.27
437.90	2666.46
438.11	2928.60
438.31	2725.85
438.52	2920.40
438.72	2912.21
438.93	2938.84
439.13	2662.36
439.34	2856.92
439.54	2684.89
439.75	2711.51
439.95	2758.61
440.16	2580.44
440.36	2734.04
440.57	2621.40
440.77	2607.06
440.98	2754.52
441.18	2785.24
441.39	2650.07
441.59	2529.24
441.80	3071.95
442.00	2801.62
442.21	2758.61
442.41	2533.34
442.62	2867.16
442.82	2674.65
443.02	2623.45
443.23	2697.17
443.43	2668.50
443.64	2867.16
443.84	2576.34
444.05	2756.57
444.25	2662.36
444.46	2711.51
444.66	2643.93
444.87	2840.53
445.07	2609.11
445.28	2602.97
445.48	2777.05
445.69	2717.65
445.89	3149.78
446.09	2693.08
446.30	3004.37
446.50	3022.80
446.71	4587.45
446.91	5709.74
447.12	6473.63
447.32	6856.60
447.53	6506.40
447.73	5347.25
447.93	4808.63
448.14	4478.91
448.34	4552.63
448.55	3911.62
448.75	3899.33
448.96	3663.82
449.16	3368.91
449.36	3241.93
449.57	2828.24
449.77	2717.65
449.98	2695.13
450.18	2904.02
450.39	2660.31
450.59	2797.53
450.79	2619.35
451.00	2645.98
451.20	2838.48
451.41	2562.01
451.61	2750.42
451.81	2635.74
452.02	2564.06
452.22	2623.45
452.43	2666.46
452.63	2562.01
