SpectraSuite Data File
++++++++++++++++++++++++++++++++++++
Date: Thu May 05 16:20:48 CEST 2016
User: root
Dark Spectrum Present: No
Reference Spectrum Present: No
Number of Sampled Component Spectra: 1
Spectrometers: USB4C02835
Integration Time (usec): 100000 (USB4C02835)
Spectra Averaged: 1 (USB4C02835)
Boxcar Smoothing: 0 (USB4C02835)
Correct for Electrical Dark: No (USB4C02835)
Strobe/Lamp Enabled: No (USB4C02835)
Correct for Detector Non-linearity: No (USB4C02835)
Correct for Stray Light: No (USB4C02835)
Number of Pixels in Processed Spectrum: 3648
>>>>>Begin Processed Spectral Data<<<<<
177.47	2035.68
177.69	2035.68
177.91	2035.68
178.13	1996.77
178.36	2066.40
178.58	2609.11
178.80	2686.94
179.02	2480.09
179.24	2555.86
179.46	2441.18
179.68	2502.62
179.90	2635.74
180.13	2697.17
180.35	2424.80
180.57	2529.24
180.79	2852.82
181.01	2654.17
181.23	2506.71
181.45	2611.16
181.67	2768.85
181.90	2861.01
182.12	2570.20
182.34	2291.68
182.56	2770.90
182.78	2805.72
183.00	2494.43
183.22	2533.34
183.44	2408.41
183.66	2990.03
183.89	2652.12
184.11	2543.58
184.33	2734.04
184.55	2879.44
184.77	2480.09
184.99	2545.63
185.21	2693.08
185.43	3063.76
185.65	2521.05
185.87	2484.19
186.10	3022.80
186.32	3069.91
186.54	2545.63
186.76	2670.55
186.98	2832.34
187.20	2711.51
187.42	2564.06
187.64	2480.09
187.86	2795.48
188.08	2836.44
188.30	2400.22
188.52	2562.01
188.75	2887.64
188.97	2918.36
189.19	2553.82
189.41	2502.62
189.63	2795.48
189.85	2666.46
190.07	2428.89
190.29	2447.32
190.51	2854.87
190.73	2461.66
190.95	2605.02
191.17	2549.72
191.39	2555.86
191.61	2723.80
191.84	2555.86
192.06	2594.78
192.28	2527.19
192.50	3180.50
192.72	2645.98
192.94	2592.73
193.16	2836.44
193.38	2791.38
193.60	2439.13
193.82	2584.54
194.04	2873.30
194.26	2742.23
194.48	2572.25
194.70	2498.52
194.92	2639.83
195.14	2912.21
195.36	2441.18
195.58	2508.76
195.80	2676.70
196.02	2680.79
196.24	2424.80
196.46	2711.51
196.69	2580.44
196.91	3094.48
197.13	2600.92
197.35	2553.82
197.57	2985.94
197.79	2785.24
198.01	2555.86
198.23	2547.67
198.45	2824.15
198.67	2582.49
198.89	2449.37
199.11	2553.82
199.33	2580.44
199.55	2408.41
199.77	2514.91
199.99	2631.64
200.21	2658.26
200.43	2717.65
200.65	2402.27
200.87	2359.26
201.09	2691.03
201.31	2731.99
201.53	2535.39
201.75	2566.10
201.97	2832.34
202.19	2742.23
202.41	2625.50
202.63	2648.02
202.85	2785.24
203.07	2770.90
203.29	2559.96
203.51	2459.61
203.73	2648.02
203.95	3178.45
204.17	2590.68
204.39	2631.64
204.61	2772.95
204.83	2703.32
205.05	2627.54
205.27	2527.19
205.49	3039.19
205.71	2639.83
205.93	2408.41
206.15	2396.12
206.37	2783.19
206.59	2703.32
206.81	2387.93
207.03	2408.41
207.25	2607.06
207.47	2783.19
207.69	2521.05
207.91	2809.81
208.13	2949.08
208.34	2664.41
208.56	2469.85
208.78	2576.34
209.00	2676.70
209.22	2650.07
209.44	2502.62
209.66	2465.75
209.88	2775.00
210.10	2607.06
210.32	2478.04
210.54	2598.87
210.76	2684.89
210.98	2861.01
211.20	2381.79
211.42	2551.77
211.64	2959.31
211.86	2744.28
212.08	2609.11
212.30	2527.19
212.52	2705.37
212.74	2799.57
212.96	2512.86
213.17	2588.63
213.39	2807.77
213.61	2963.41
213.83	2545.63
214.05	2381.79
214.27	2922.45
214.49	2580.44
214.71	2455.51
214.93	2602.97
215.15	2711.51
215.37	2783.19
215.59	2437.08
215.81	2602.97
216.03	2957.27
216.24	2678.74
216.46	2523.10
216.68	2576.34
216.90	2858.96
217.12	2893.78
217.34	2455.51
217.56	2629.59
217.78	2904.02
218.00	2863.06
218.22	2584.54
218.44	2662.36
218.66	2797.53
218.87	2959.31
219.09	2539.48
219.31	2523.10
219.53	2787.29
219.75	2637.78
219.97	2488.28
220.19	2615.26
220.41	2734.04
220.63	2901.97
220.85	2619.35
221.06	2535.39
221.28	2871.25
221.50	2779.09
221.72	2549.72
221.94	2473.95
222.16	2744.28
222.38	2881.49
222.60	2555.86
222.82	2553.82
223.03	2885.59
223.25	2631.64
223.47	2551.77
223.69	2715.61
223.91	2807.77
224.13	2738.13
224.35	2396.12
224.57	2645.98
224.78	2727.89
225.00	2592.73
225.22	2539.48
225.44	2461.66
225.66	2797.53
225.88	2660.31
226.10	2639.83
226.32	2609.11
226.53	2957.27
226.75	2654.17
226.97	2559.96
227.19	2473.95
227.41	2621.40
227.63	2699.22
227.85	2346.97
228.06	2551.77
228.28	2842.58
228.50	2854.87
228.72	2338.78
228.94	2533.34
229.16	2484.19
229.37	2619.35
229.59	2447.32
229.81	2734.04
230.03	2682.84
230.25	2527.19
230.47	2424.80
230.69	2424.80
230.90	2854.87
231.12	2633.69
231.34	2578.39
231.56	2537.43
231.78	2562.01
232.00	2756.57
232.21	2488.28
232.43	2484.19
232.65	2432.99
232.87	2852.82
233.09	2387.93
233.30	2420.70
233.52	2850.77
233.74	2678.74
233.96	2490.33
234.18	2658.26
234.40	2701.27
234.61	3063.76
234.83	2379.74
235.05	2494.43
235.27	3149.78
235.49	2981.84
235.70	2455.51
235.92	2596.82
236.14	2787.29
236.36	3151.82
236.58	2402.27
236.79	2576.34
237.01	2715.61
237.23	2707.41
237.45	2652.12
237.67	2490.33
237.88	2729.94
238.10	3022.80
238.32	2451.42
238.54	2428.89
238.76	2719.70
238.97	2609.11
239.19	2439.13
239.41	2629.59
239.63	2928.60
239.85	2707.41
240.06	2502.62
240.28	2488.28
240.50	2955.22
240.72	2781.14
240.93	2510.81
241.15	2629.59
241.37	2717.65
241.59	2969.55
241.81	2539.48
242.02	2553.82
242.24	2746.33
242.46	2832.34
242.68	2426.84
242.89	2523.10
243.11	2842.58
243.33	2713.56
243.55	2568.15
243.76	2570.20
243.98	2641.88
244.20	2662.36
244.42	2598.87
244.64	2525.15
244.85	2482.14
245.07	2633.69
245.29	2504.67
245.51	2562.01
245.72	2834.39
245.94	2891.73
246.16	2570.20
246.38	2516.95
246.59	2641.88
246.81	2535.39
247.03	2387.93
247.24	2428.89
247.46	2662.36
247.68	2758.61
247.90	2482.14
248.11	2471.90
248.33	2865.11
248.55	2725.85
248.77	2543.58
248.98	2588.63
249.20	3061.71
249.42	2738.13
249.64	2475.99
249.85	2516.95
250.07	2568.15
250.29	2807.77
250.50	2578.39
250.72	2400.22
250.94	2805.72
251.16	3030.99
251.37	2535.39
251.59	2543.58
251.81	2766.81
252.02	2910.16
252.24	2521.05
252.46	2580.44
252.68	2596.82
252.89	2668.50
253.11	2392.03
253.33	2643.93
253.54	2908.12
253.76	2555.86
253.98	2547.67
254.20	2512.86
254.41	2527.19
254.63	2654.17
254.85	2371.55
255.06	2668.50
255.28	2885.59
255.50	2709.46
255.71	2482.14
255.93	2412.51
256.15	2695.13
256.36	2852.82
256.58	2389.98
256.80	2394.08
257.02	2707.41
257.23	2678.74
257.45	2527.19
257.67	2605.02
257.88	2629.59
258.10	2809.81
258.32	2531.29
258.53	2623.45
258.75	3004.37
258.97	2635.74
259.18	2498.52
259.40	2545.63
259.62	2990.03
259.83	2930.64
260.05	2549.72
260.27	3164.11
260.48	2906.07
260.70	2584.54
260.92	2418.65
261.13	2545.63
261.35	2795.48
261.57	2734.04
261.78	2392.03
262.00	2463.71
262.22	2777.05
262.43	2559.96
262.65	2545.63
262.86	2617.30
263.08	3061.71
263.30	2746.33
263.51	2340.83
263.73	2369.50
263.95	2871.25
264.16	2564.06
264.38	2469.85
264.60	2457.56
264.81	2688.98
265.03	2863.06
265.25	2750.42
265.46	2519.00
265.68	2932.69
265.89	2844.63
266.11	2400.22
266.33	2527.19
266.54	2885.59
266.76	2731.99
266.98	2598.87
267.19	2670.55
267.41	2899.92
267.62	2666.46
267.84	2375.64
268.06	2672.60
268.27	2754.52
268.49	2842.58
268.70	2594.78
268.92	2609.11
269.14	2613.21
269.35	2596.82
269.57	2555.86
269.79	2666.46
270.00	2670.55
270.22	2990.03
270.43	2482.14
270.65	2312.16
270.87	2775.00
271.08	2813.91
271.30	2555.86
271.51	2580.44
271.73	2793.43
271.95	2920.40
272.16	2514.91
272.38	2570.20
272.59	2551.77
272.81	2764.76
273.02	2400.22
273.24	2592.73
273.46	2908.12
273.67	2559.96
273.89	2408.41
274.10	2453.47
274.32	2908.12
274.54	2727.89
274.75	2664.41
274.97	2521.05
275.18	2848.72
275.40	2815.96
275.61	2535.39
275.83	2623.45
276.05	2572.25
276.26	2637.78
276.48	2639.83
276.69	2539.48
276.91	2621.40
277.12	2971.60
277.34	2717.65
277.55	2756.57
277.77	2760.66
277.99	2721.75
278.20	2539.48
278.42	2457.56
278.63	2676.70
278.85	2658.26
279.06	2467.80
279.28	2660.31
279.49	2893.78
279.71	2779.09
279.93	2635.74
280.14	2521.05
280.36	2641.88
280.57	2779.09
280.79	2699.22
281.00	2533.34
281.22	2617.30
281.43	2893.78
281.65	2428.89
281.86	2523.10
282.08	2750.42
282.29	3061.71
282.51	2492.38
282.73	2430.94
282.94	2535.39
283.16	2734.04
283.37	2703.32
283.59	2535.39
283.80	2721.75
284.02	2779.09
284.23	2637.78
284.45	2562.01
284.66	2621.40
284.88	2611.16
285.09	2578.39
285.31	2691.03
285.52	2801.62
285.74	2469.85
285.95	2742.23
286.17	2643.93
286.38	2867.16
286.60	2635.74
286.81	2514.91
287.03	2592.73
287.24	2703.32
287.46	2858.96
287.67	2621.40
287.89	2920.40
288.10	2711.51
288.32	2736.09
288.53	2764.76
288.75	2666.46
288.96	2826.20
289.18	2682.84
289.39	2570.20
289.61	2666.46
289.82	3016.66
290.04	3049.43
290.25	2494.43
290.47	2566.10
290.68	2611.16
290.90	2828.24
291.11	2410.46
291.33	2789.33
291.54	2654.17
291.76	2543.58
291.97	2691.03
292.18	2744.28
292.40	2609.11
292.61	2617.30
292.83	2805.72
293.04	2699.22
293.26	2764.76
293.47	2713.56
293.69	2459.61
293.90	2537.43
294.12	2883.54
294.33	2670.55
294.55	2666.46
294.76	2762.71
294.97	2936.79
295.19	3026.90
295.40	2609.11
295.62	2705.37
295.83	2875.35
296.05	2570.20
296.26	2807.77
296.48	2521.05
296.69	2742.23
296.90	2674.65
297.12	2789.33
297.33	2734.04
297.55	2658.26
297.76	2875.35
297.98	2717.65
298.19	2703.32
298.41	2686.94
298.62	2541.53
298.83	2697.17
299.05	2648.02
299.26	2658.26
299.48	2596.82
299.69	2645.98
299.90	2633.69
300.12	2568.15
300.33	2762.71
300.55	2670.55
300.76	2600.92
300.98	2539.48
301.19	2852.82
301.40	2598.87
301.62	2586.58
301.83	2764.76
302.05	2662.36
302.26	2586.58
302.47	2723.80
302.69	2523.10
302.90	2795.48
303.12	2410.46
303.33	2682.84
303.54	3039.19
303.76	2641.88
303.97	2553.82
304.19	2856.92
304.40	2627.54
304.61	2725.85
304.83	2758.61
305.04	2727.89
305.26	2850.77
305.47	2680.79
305.68	2590.68
305.90	2539.48
306.11	2938.84
306.33	2707.41
306.54	2588.63
306.75	2568.15
306.97	2502.62
307.18	2545.63
307.39	2576.34
307.61	2660.31
307.82	2658.26
308.04	2805.72
308.25	2508.76
308.46	2729.94
308.68	2719.70
308.89	2711.51
309.10	2764.76
309.32	2658.26
309.53	2711.51
309.74	2832.34
309.96	2594.78
310.17	2717.65
310.39	2674.65
310.60	2752.47
310.81	2654.17
311.03	2523.10
311.24	2846.68
311.45	2688.98
311.67	2877.40
311.88	2680.79
312.09	2672.60
312.31	2648.02
312.52	2553.82
312.73	2453.47
312.95	2547.67
313.16	2660.31
313.37	2686.94
313.59	2678.74
313.80	2885.59
314.01	2930.64
314.23	2590.68
314.44	2572.25
314.65	2543.58
314.87	2576.34
315.08	2588.63
315.29	2664.41
315.51	2572.25
315.72	2504.67
315.93	2695.13
316.15	2668.50
316.36	2615.26
316.57	2688.98
316.79	2625.50
317.00	2537.43
317.21	2758.61
317.43	2627.54
317.64	2625.50
317.85	2584.54
318.07	2631.64
318.28	2691.03
318.49	2695.13
318.70	2895.83
318.92	2842.58
319.13	2865.11
319.34	2809.81
319.56	2674.65
319.77	2768.85
319.98	2840.53
320.20	2826.20
320.41	2768.85
320.62	2750.42
320.83	2594.78
321.05	2881.49
321.26	2637.78
321.47	2629.59
321.69	2889.68
321.90	2539.48
322.11	2625.50
322.32	2705.37
322.54	2908.12
322.75	2594.78
322.96	3286.99
323.18	2521.05
323.39	2494.43
323.60	2576.34
323.81	2707.41
324.03	2645.98
324.24	2678.74
324.45	2703.32
324.66	2613.21
324.88	2822.10
325.09	2965.46
325.30	2680.79
325.52	2625.50
325.73	2807.77
325.94	2570.20
326.15	2494.43
326.37	2559.96
326.58	2834.39
326.79	2951.12
327.00	2570.20
327.22	2590.68
327.43	2731.99
327.64	2535.39
327.85	2717.65
328.07	2658.26
328.28	3026.90
328.49	2695.13
328.70	2621.40
328.92	2582.49
329.13	2668.50
329.34	2729.94
329.55	2805.72
329.76	2672.60
329.98	2670.55
330.19	2965.46
330.40	2719.70
330.61	2633.69
330.83	2799.57
331.04	2641.88
331.25	2650.07
331.46	2637.78
331.68	2574.30
331.89	2826.20
332.10	2686.94
332.31	2461.66
332.52	2680.79
332.74	2973.65
332.95	2396.12
333.16	2541.53
333.37	2738.13
333.58	2670.55
333.80	2635.74
334.01	2408.41
334.22	2676.70
334.43	2648.02
334.64	2547.67
334.86	2584.54
335.07	2545.63
335.28	2932.69
335.49	2543.58
335.70	2703.32
335.92	2908.12
336.13	3006.42
336.34	2662.36
336.55	2670.55
336.76	2824.15
336.98	2375.64
337.19	2559.96
337.40	2744.28
337.61	3100.62
337.82	2756.57
338.04	2674.65
338.25	2531.29
338.46	2760.66
338.67	2654.17
338.88	2463.71
339.09	2496.47
339.31	2645.98
339.52	2533.34
339.73	2539.48
339.94	2645.98
340.15	2795.48
340.36	2633.69
340.58	2666.46
340.79	2500.57
341.00	2822.10
341.21	2506.71
341.42	2805.72
341.63	2619.35
341.85	2861.01
342.06	2682.84
342.27	2562.01
342.48	2695.13
342.69	2512.86
342.90	2820.05
343.12	2807.77
343.33	2553.82
343.54	2897.88
343.75	2883.54
343.96	2660.31
344.17	2523.10
344.38	2758.61
344.60	2570.20
344.81	2648.02
345.02	2586.58
345.23	2865.11
345.44	3196.88
345.65	2699.22
345.86	2688.98
346.07	2772.95
346.29	2625.50
346.50	2619.35
346.71	2613.21
346.92	2852.82
347.13	3028.95
347.34	2621.40
347.55	2498.52
347.76	2772.95
347.98	2525.15
348.19	2586.58
348.40	2746.33
348.61	2635.74
348.82	2899.92
349.03	2744.28
349.24	2576.34
349.45	2928.60
349.66	2461.66
349.88	2580.44
350.09	2602.97
350.30	2826.20
350.51	2928.60
350.72	2695.13
350.93	2549.72
351.14	2693.08
351.35	2748.37
351.56	2705.37
351.77	2674.65
351.99	2750.42
352.20	2883.54
352.41	2783.19
352.62	2516.95
352.83	2783.19
353.04	2709.46
353.25	2553.82
353.46	2660.31
353.67	2869.20
353.88	2453.47
354.09	2594.78
354.30	2643.93
354.52	2828.24
354.73	2705.37
354.94	2643.93
355.15	2686.94
355.36	2963.41
355.57	2510.81
355.78	2623.45
355.99	2602.97
356.20	2564.06
356.41	2967.51
356.62	2668.50
356.83	2645.98
357.04	2889.68
357.25	2559.96
357.46	2609.11
357.68	2500.57
357.89	2613.21
358.10	2736.09
358.31	2592.73
358.52	2572.25
358.73	2588.63
358.94	2549.72
359.15	2582.49
359.36	2648.02
359.57	2758.61
359.78	2664.41
359.99	2750.42
360.20	2527.19
360.41	2764.76
360.62	2869.20
360.83	2627.54
361.04	2605.02
361.25	2838.48
361.46	2955.22
361.67	2686.94
361.88	2637.78
362.09	2838.48
362.30	2785.24
362.51	2545.63
362.72	2576.34
362.93	2797.53
363.14	2766.81
363.35	2623.45
363.56	2494.43
363.78	2901.97
363.99	2885.59
364.20	2598.87
364.41	2701.27
364.62	3012.56
364.83	2832.34
365.04	2627.54
365.25	2674.65
365.46	3055.57
365.67	2668.50
365.88	2715.61
366.09	2664.41
366.30	2727.89
366.51	2748.37
366.72	2506.71
366.93	2639.83
367.14	2688.98
367.35	2869.20
367.56	2600.92
367.77	2695.13
367.98	2715.61
368.18	2717.65
368.39	2770.90
368.60	2449.37
368.81	2807.77
369.02	2731.99
369.23	2637.78
369.44	2504.67
369.65	2617.30
369.86	2809.81
370.07	2676.70
370.28	2480.09
370.49	2793.43
370.70	2805.72
370.91	2570.20
371.12	2471.90
371.33	2836.44
371.54	2568.15
371.75	2772.95
371.96	2379.74
372.17	2807.77
372.38	2670.55
372.59	2658.26
372.80	2492.38
373.01	2699.22
373.22	2758.61
373.43	2664.41
373.64	2553.82
373.85	2891.73
374.06	2992.08
374.26	2770.90
374.47	2701.27
374.68	2957.27
374.89	2729.94
375.10	2605.02
375.31	2746.33
375.52	2740.18
375.73	2766.81
375.94	2475.99
376.15	2832.34
376.36	2631.64
376.57	2629.59
376.78	2635.74
376.99	2668.50
377.20	3012.56
377.40	2697.17
377.61	2871.25
377.82	2590.68
378.03	2998.23
378.24	2813.91
378.45	2715.61
378.66	2631.64
378.87	2428.89
379.08	2478.04
379.29	2645.98
379.50	2723.80
379.71	2666.46
379.91	2805.72
380.12	2631.64
380.33	2713.56
380.54	2701.27
380.75	2721.75
380.96	2609.11
381.17	2715.61
381.38	2719.70
381.59	2766.81
381.80	2658.26
382.00	2795.48
382.21	2791.38
382.42	2957.27
382.63	2922.45
382.84	2731.99
383.05	2791.38
383.26	2918.36
383.47	2705.37
383.68	2662.36
383.88	2904.02
384.09	2734.04
384.30	2787.29
384.51	2719.70
384.72	2701.27
384.93	2467.80
385.14	2670.55
385.35	2777.05
385.55	2551.77
385.76	2940.88
385.97	2629.59
386.18	2465.75
386.39	2641.88
386.60	2650.07
386.81	2527.19
387.02	2510.81
387.22	2564.06
387.43	2893.78
387.64	2762.71
387.85	2811.86
388.06	2842.58
388.27	3901.38
388.48	7413.65
388.68	10893.15
388.89	13422.39
389.10	14444.32
389.31	13975.34
389.52	10930.01
389.73	9242.48
389.93	8537.98
390.14	7704.46
390.35	7026.58
390.56	6487.96
390.77	5412.78
390.98	4079.55
391.18	3487.69
391.39	3129.30
391.60	2867.16
391.81	2801.62
392.02	2664.41
392.23	3145.68
392.43	2789.33
392.64	2613.21
392.85	2705.37
393.06	2990.03
393.27	2740.18
393.47	2619.35
393.68	2701.27
393.89	2686.94
394.10	2899.92
394.31	2602.97
394.52	2539.48
394.72	2619.35
394.93	2922.45
395.14	2566.10
395.35	2770.90
395.56	2641.88
395.76	2699.22
395.97	2617.30
396.18	2693.08
396.39	2744.28
396.60	3260.37
396.80	2998.23
397.01	2858.96
397.22	2912.21
397.43	2996.18
397.64	2633.69
397.84	2738.13
398.05	3057.62
398.26	2660.31
398.47	2881.49
398.67	2822.10
398.88	2709.46
399.09	2844.63
399.30	2568.15
399.51	2695.13
399.71	2611.16
399.92	2664.41
400.13	2727.89
400.34	2650.07
400.54	2691.03
400.75	2979.79
400.96	2609.11
401.17	2869.20
401.37	2807.77
401.58	2713.56
401.79	2711.51
402.00	2695.13
402.21	3127.25
402.41	2977.75
402.62	2928.60
402.83	3055.57
403.04	3100.62
403.24	3307.47
403.45	2768.85
403.66	2953.17
403.87	2906.07
404.07	2963.41
404.28	2858.96
404.49	2985.94
404.70	2764.76
404.90	2883.54
405.11	2664.41
405.32	2693.08
405.52	2674.65
405.73	2596.82
405.94	2588.63
406.15	2674.65
406.35	2844.63
406.56	2854.87
406.77	2756.57
406.98	2715.61
407.18	2629.59
407.39	2924.50
407.60	2629.59
407.80	2668.50
408.01	2605.02
408.22	2809.81
408.43	2545.63
408.63	2680.79
408.84	2768.85
409.05	2813.91
409.25	2602.97
409.46	2623.45
409.67	2697.17
409.88	2557.91
410.08	2701.27
410.29	2519.00
410.50	2799.57
410.70	2795.48
410.91	2555.86
411.12	2664.41
411.32	2785.24
411.53	2641.88
411.74	2719.70
411.95	2770.90
412.15	2717.65
412.36	2901.97
412.57	2713.56
412.77	2844.63
412.98	2693.08
413.19	2684.89
413.39	2752.47
413.60	2707.41
413.81	2861.01
414.01	2463.71
414.22	2688.98
414.43	2742.23
414.63	2586.58
414.84	2947.03
415.05	2709.46
415.25	2568.15
415.46	2818.00
415.67	2637.78
415.87	2672.60
416.08	2629.59
416.29	2682.84
416.49	2826.20
416.70	2600.92
416.91	2596.82
417.11	2744.28
417.32	2883.54
417.53	2744.28
417.73	2744.28
417.94	2641.88
418.15	2854.87
418.35	2652.12
418.56	2564.06
418.77	3014.61
418.97	2719.70
419.18	2611.16
419.38	2373.60
419.59	2670.55
419.80	2901.97
420.00	2602.97
420.21	2701.27
420.42	2924.50
420.62	2854.87
420.83	2654.17
421.04	2629.59
421.24	2658.26
421.45	2912.21
421.65	2674.65
421.86	2598.87
422.07	2795.48
422.27	2738.13
422.48	2633.69
422.69	2553.82
422.89	2703.32
423.10	2643.93
423.30	2586.58
423.51	2779.09
423.72	2736.09
423.92	2883.54
424.13	2465.75
424.33	2666.46
424.54	2846.68
424.75	2809.81
424.95	2822.10
425.16	2707.41
425.36	2637.78
425.57	2842.58
425.78	2766.81
425.98	2746.33
426.19	2652.12
426.39	2590.68
426.60	2688.98
426.81	2721.75
427.01	2736.09
427.22	2656.22
427.42	2504.67
427.63	2543.58
427.83	2869.20
428.04	2969.55
428.25	2731.99
428.45	2809.81
428.66	2967.51
428.86	2641.88
429.07	2662.36
429.28	2725.85
429.48	2750.42
429.69	2664.41
429.89	2723.80
430.10	2547.67
430.30	2822.10
430.51	2854.87
430.71	2600.92
430.92	2688.98
431.13	2615.26
431.33	2801.62
431.54	2666.46
431.74	2818.00
431.95	3061.71
432.15	2660.31
432.36	2719.70
432.56	2752.47
432.77	2951.12
432.98	2992.08
433.18	2703.32
433.39	2576.34
433.59	2701.27
433.80	2932.69
434.00	2899.92
434.21	2621.40
434.41	2662.36
434.62	3102.67
434.82	2504.67
435.03	2539.48
435.23	2809.81
435.44	2471.90
435.64	2592.73
435.85	2699.22
436.06	2867.16
436.26	2924.50
436.47	2666.46
436.67	2551.77
436.88	2678.74
437.08	2809.81
437.29	2811.86
437.49	2678.74
437.70	2951.12
437.90	2766.81
438.11	2815.96
438.31	2721.75
438.52	3014.61
438.72	2904.02
438.93	2961.36
439.13	2691.03
439.34	2832.34
439.54	2643.93
439.75	2772.95
439.95	2746.33
440.16	2611.16
440.36	2656.22
440.57	2707.41
440.77	2639.83
440.98	2711.51
441.18	2736.09
441.39	2555.86
441.59	2510.81
441.80	3026.90
442.00	2746.33
442.21	2668.50
442.41	2502.62
442.62	2901.97
442.82	2674.65
443.02	2701.27
443.23	2721.75
443.43	2633.69
443.64	2963.41
443.84	2600.92
444.05	2797.53
444.25	2707.41
444.46	2748.37
444.66	2564.06
444.87	2861.01
445.07	2490.33
445.28	2633.69
445.48	2795.48
445.69	2754.52
445.89	3033.04
446.09	2723.80
446.30	2998.23
446.50	3059.67
446.71	4497.34
446.91	5640.11
447.12	6442.91
447.32	6600.60
447.53	6496.16
447.73	5459.88
447.93	4669.37
448.14	4546.49
448.34	4458.43
448.55	3860.42
448.75	3895.24
448.96	3674.06
449.16	3375.05
449.36	3284.94
449.57	2858.96
449.77	2707.41
449.98	2678.74
450.18	2830.29
450.39	2617.30
450.59	2844.63
450.79	2717.65
451.00	2590.68
451.20	2731.99
451.41	2668.50
451.61	2783.19
451.81	2662.36
452.02	2553.82
452.22	2723.80
452.43	2586.58
452.63	2699.22
