SpectraSuite Data File
++++++++++++++++++++++++++++++++++++
Date: Thu May 05 16:21:05 CEST 2016
User: root
Dark Spectrum Present: No
Reference Spectrum Present: No
Number of Sampled Component Spectra: 1
Spectrometers: USB4C02835
Integration Time (usec): 100000 (USB4C02835)
Spectra Averaged: 1 (USB4C02835)
Boxcar Smoothing: 0 (USB4C02835)
Correct for Electrical Dark: No (USB4C02835)
Strobe/Lamp Enabled: No (USB4C02835)
Correct for Detector Non-linearity: No (USB4C02835)
Correct for Stray Light: No (USB4C02835)
Number of Pixels in Processed Spectrum: 3648
>>>>>Begin Processed Spectral Data<<<<<
177.47	2068.45
177.69	2068.45
177.91	2068.45
178.13	2054.11
178.36	1990.63
178.58	2498.52
178.80	2703.32
179.02	2519.00
179.24	2605.02
179.46	2523.10
179.68	2502.62
179.90	2650.07
180.13	2731.99
180.35	2447.32
180.57	2504.67
180.79	2850.77
181.01	2658.26
181.23	2484.19
181.45	2686.94
181.67	2865.11
181.90	2893.78
182.12	2564.06
182.34	2381.79
182.56	2789.33
182.78	2758.61
183.00	2478.04
183.22	2531.29
183.44	2480.09
183.66	3123.15
183.89	2670.55
184.11	2500.57
184.33	2686.94
184.55	2920.40
184.77	2531.29
184.99	2529.24
185.21	2645.98
185.43	3112.91
185.65	2527.19
185.87	2482.14
186.10	3090.38
186.32	3084.24
186.54	2533.34
186.76	2473.95
186.98	2836.44
187.20	2703.32
187.42	2572.25
187.64	2527.19
187.86	2754.52
188.08	2979.79
188.30	2422.75
188.52	2488.28
188.75	2932.69
188.97	2918.36
189.19	2600.92
189.41	2449.37
189.63	2795.48
189.85	2645.98
190.07	2396.12
190.29	2430.94
190.51	2740.18
190.73	2531.29
190.95	2688.98
191.17	2551.77
191.39	2562.01
191.61	2742.23
191.84	2555.86
192.06	2623.45
192.28	2537.43
192.50	3190.74
192.72	2627.54
192.94	2531.29
193.16	2826.20
193.38	2748.37
193.60	2451.42
193.82	2566.10
194.04	2865.11
194.26	2664.41
194.48	2504.67
194.70	2492.38
194.92	2695.13
195.14	2799.57
195.36	2457.56
195.58	2611.16
195.80	2678.74
196.02	2617.30
196.24	2445.27
196.46	2516.95
196.69	2576.34
196.91	3098.58
197.13	2537.43
197.35	2613.21
197.57	2965.46
197.79	2861.01
198.01	2617.30
198.23	2625.50
198.45	2904.02
198.67	2566.10
198.89	2441.18
199.11	2557.91
199.33	2562.01
199.55	2416.60
199.77	2461.66
199.99	2592.73
200.21	2717.65
200.43	2746.33
200.65	2525.15
200.87	2353.12
201.09	2777.05
201.31	2652.12
201.53	2498.52
201.75	2568.15
201.97	2766.81
202.19	2693.08
202.41	2541.53
202.63	2635.74
202.85	2775.00
203.07	2676.70
203.29	2605.02
203.51	2342.88
203.73	2600.92
203.95	3026.90
204.17	2480.09
204.39	2627.54
204.61	2619.35
204.83	2656.22
205.05	2613.21
205.27	2551.77
205.49	3030.99
205.71	2699.22
205.93	2461.66
206.15	2459.61
206.37	2818.00
206.59	2719.70
206.81	2387.93
207.03	2394.08
207.25	2600.92
207.47	2836.44
207.69	2461.66
207.91	2664.41
208.13	2953.17
208.34	2639.83
208.56	2432.99
208.78	2564.06
209.00	2666.46
209.22	2594.78
209.44	2484.19
209.66	2457.56
209.88	2748.37
210.10	2672.60
210.32	2521.05
210.54	2629.59
210.76	2648.02
210.98	2850.77
211.20	2408.41
211.42	2629.59
211.64	2893.78
211.86	2836.44
212.08	2553.82
212.30	2375.64
212.52	2719.70
212.74	2715.61
212.96	2508.76
213.17	2541.53
213.39	2832.34
213.61	2940.88
213.83	2527.19
214.05	2377.69
214.27	2858.96
214.49	2545.63
214.71	2527.19
214.93	2654.17
215.15	2697.17
215.37	2775.00
215.59	2449.37
215.81	2498.52
216.03	2942.93
216.24	2721.75
216.46	2523.10
216.68	2615.26
216.90	2805.72
217.12	2777.05
217.34	2465.75
217.56	2648.02
217.78	2977.75
218.00	2822.10
218.22	2547.67
218.44	2582.49
218.66	2727.89
218.87	3045.33
219.09	2514.91
219.31	2564.06
219.53	2848.72
219.75	2717.65
219.97	2572.25
220.19	2576.34
220.41	2680.79
220.63	2969.55
220.85	2527.19
221.06	2463.71
221.28	2899.92
221.50	2727.89
221.72	2529.24
221.94	2449.37
222.16	2664.41
222.38	2889.68
222.60	2435.03
222.82	2496.47
223.03	2875.35
223.25	2525.15
223.47	2506.71
223.69	2695.13
223.91	2875.35
224.13	2701.27
224.35	2447.32
224.57	2688.98
224.78	2766.81
225.00	2662.36
225.22	2590.68
225.44	2435.03
225.66	2799.57
225.88	2648.02
226.10	2578.39
226.32	2609.11
226.53	2916.31
226.75	2664.41
226.97	2645.98
227.19	2525.15
227.41	2578.39
227.63	2637.78
227.85	2426.84
228.06	2572.25
228.28	2809.81
228.50	2818.00
228.72	2486.23
228.94	2469.85
229.16	2455.51
229.37	2527.19
229.59	2457.56
229.81	2742.23
230.03	2637.78
230.25	2572.25
230.47	2461.66
230.69	2398.17
230.90	2797.53
231.12	2625.50
231.34	2568.15
231.56	2648.02
231.78	2510.81
232.00	2791.38
232.21	2551.77
232.43	2607.06
232.65	2457.56
232.87	2781.14
233.09	2353.12
233.30	2484.19
233.52	2897.88
233.74	2680.79
233.96	2451.42
234.18	2613.21
234.40	2650.07
234.61	3045.33
234.83	2480.09
235.05	2471.90
235.27	3059.67
235.49	2881.49
235.70	2449.37
235.92	2562.01
236.14	2779.09
236.36	3071.95
236.58	2369.50
236.79	2600.92
237.01	2635.74
237.23	2691.03
237.45	2770.90
237.67	2572.25
237.88	2793.43
238.10	2990.03
238.32	2498.52
238.54	2551.77
238.76	2791.38
238.97	2631.64
239.19	2441.18
239.41	2598.87
239.63	2906.07
239.85	2721.75
240.06	2551.77
240.28	2420.70
240.50	2887.64
240.72	2721.75
240.93	2414.56
241.15	2570.20
241.37	2752.47
241.59	2969.55
241.81	2551.77
242.02	2529.24
242.24	2760.66
242.46	2818.00
242.68	2418.65
242.89	2500.57
243.11	2889.68
243.33	2629.59
243.55	2547.67
243.76	2519.00
243.98	2654.17
244.20	2756.57
244.42	2510.81
244.64	2541.53
244.85	2514.91
245.07	2617.30
245.29	2527.19
245.51	2496.47
245.72	2799.57
245.94	2871.25
246.16	2502.62
246.38	2533.34
246.59	2553.82
246.81	2643.93
247.03	2475.99
247.24	2422.75
247.46	2674.65
247.68	2672.60
247.90	2471.90
248.11	2512.86
248.33	2893.78
248.55	2666.46
248.77	2625.50
248.98	2625.50
249.20	2949.08
249.42	2781.14
249.64	2516.95
249.85	2506.71
250.07	2652.12
250.29	2840.53
250.50	2555.86
250.72	2441.18
250.94	2809.81
251.16	2957.27
251.37	2537.43
251.59	2566.10
251.81	2844.63
252.02	2897.88
252.24	2478.04
252.46	2652.12
252.68	2631.64
252.89	2574.30
253.11	2359.26
253.33	2711.51
253.54	2875.35
253.76	2596.82
253.98	2564.06
254.20	2584.54
254.41	2547.67
254.63	2688.98
254.85	2389.98
255.06	2564.06
255.28	2842.58
255.50	2664.41
255.71	2482.14
255.93	2342.88
256.15	2703.32
256.36	2746.33
256.58	2387.93
256.80	2465.75
257.02	2656.22
257.23	2602.97
257.45	2465.75
257.67	2609.11
257.88	2598.87
258.10	2783.19
258.32	2521.05
258.53	2537.43
258.75	2981.84
258.97	2648.02
259.18	2494.43
259.40	2482.14
259.62	2963.41
259.83	2889.68
260.05	2553.82
260.27	3104.72
260.48	2893.78
260.70	2564.06
260.92	2435.03
261.13	2461.66
261.35	2768.85
261.57	2744.28
261.78	2404.32
262.00	2488.28
262.22	2834.39
262.43	2629.59
262.65	2441.18
262.86	2570.20
263.08	3028.95
263.30	2731.99
263.51	2406.36
263.73	2424.80
263.95	2897.88
264.16	2588.63
264.38	2449.37
264.60	2447.32
264.81	2709.46
265.03	2893.78
265.25	2836.44
265.46	2543.58
265.68	2942.93
265.89	2912.21
266.11	2422.75
266.33	2482.14
266.54	2838.48
266.76	2766.81
266.98	2609.11
267.19	2658.26
267.41	2852.82
267.62	2734.04
267.84	2338.78
268.06	2699.22
268.27	2711.51
268.49	2875.35
268.70	2519.00
268.92	2553.82
269.14	2559.96
269.35	2510.81
269.57	2600.92
269.79	2605.02
270.00	2584.54
270.22	3008.47
270.43	2469.85
270.65	2301.92
270.87	2746.33
271.08	2719.70
271.30	2666.46
271.51	2570.20
271.73	2822.10
271.95	2940.88
272.16	2451.42
272.38	2682.84
272.59	2625.50
272.81	2799.57
273.02	2463.71
273.24	2564.06
273.46	2848.72
273.67	2605.02
273.89	2439.13
274.10	2498.52
274.32	2908.12
274.54	2756.57
274.75	2596.82
274.97	2611.16
275.18	2848.72
275.40	2766.81
275.61	2617.30
275.83	2711.51
276.05	2568.15
276.26	2666.46
276.48	2562.01
276.69	2670.55
276.91	2668.50
277.12	2906.07
277.34	2676.70
277.55	2740.18
277.77	2760.66
277.99	2711.51
278.20	2650.07
278.42	2539.48
278.63	2637.78
278.85	2586.58
279.06	2521.05
279.28	2703.32
279.49	2858.96
279.71	2906.07
279.93	2643.93
280.14	2693.08
280.36	2629.59
280.57	2811.86
280.79	2699.22
281.00	2549.72
281.22	2557.91
281.43	2850.77
281.65	2402.27
281.86	2539.48
282.08	2727.89
282.29	3035.09
282.51	2437.08
282.73	2545.63
282.94	2478.04
283.16	2836.44
283.37	2729.94
283.59	2613.21
283.80	2791.38
284.02	2707.41
284.23	2660.31
284.45	2549.72
284.66	2584.54
284.88	2627.54
285.09	2688.98
285.31	2670.55
285.52	2736.09
285.74	2574.30
285.95	2809.81
286.17	2619.35
286.38	2805.72
286.60	2611.16
286.81	2617.30
287.03	2605.02
287.24	2725.85
287.46	2813.91
287.67	2645.98
287.89	2807.77
288.10	2686.94
288.32	2754.52
288.53	2787.29
288.75	2668.50
288.96	2887.64
289.18	2574.30
289.39	2570.20
289.61	2650.07
289.82	2955.22
290.04	3010.51
290.25	2459.61
290.47	2629.59
290.68	2750.42
290.90	2834.39
291.11	2506.71
291.33	2701.27
291.54	2695.13
291.76	2605.02
291.97	2711.51
292.18	2711.51
292.40	2648.02
292.61	2682.84
292.83	2838.48
293.04	2637.78
293.26	2789.33
293.47	2713.56
293.69	2478.04
293.90	2584.54
294.12	2879.44
294.33	2670.55
294.55	2619.35
294.76	2777.05
294.97	2971.60
295.19	2955.22
295.40	2559.96
295.62	2625.50
295.83	2818.00
296.05	2572.25
296.26	2795.48
296.48	2568.15
296.69	2693.08
296.90	2727.89
297.12	2775.00
297.33	2744.28
297.55	2693.08
297.76	2818.00
297.98	2738.13
298.19	2707.41
298.41	2697.17
298.62	2576.34
298.83	2852.82
299.05	2705.37
299.26	2588.63
299.48	2557.91
299.69	2617.30
299.90	2600.92
300.12	2570.20
300.33	2789.33
300.55	2658.26
300.76	2668.50
300.98	2584.54
301.19	2828.24
301.40	2580.44
301.62	2580.44
301.83	2766.81
302.05	2697.17
302.26	2529.24
302.47	2621.40
302.69	2541.53
302.90	2752.47
303.12	2404.32
303.33	2736.09
303.54	3065.81
303.76	2621.40
303.97	2619.35
304.19	2813.91
304.40	2580.44
304.61	2772.95
304.83	2740.18
305.04	2705.37
305.26	2777.05
305.47	2668.50
305.68	2580.44
305.90	2461.66
306.11	2811.86
306.33	2707.41
306.54	2541.53
306.75	2529.24
306.97	2490.33
307.18	2547.67
307.39	2611.16
307.61	2629.59
307.82	2807.77
308.04	2729.94
308.25	2465.75
308.46	2666.46
308.68	2777.05
308.89	2731.99
309.10	2750.42
309.32	2709.46
309.53	2658.26
309.74	2877.40
309.96	2607.06
310.17	2736.09
310.39	2785.24
310.60	2813.91
310.81	2684.89
311.03	2428.89
311.24	2795.48
311.45	2686.94
311.67	2822.10
311.88	2777.05
312.09	2570.20
312.31	2654.17
312.52	2570.20
312.73	2547.67
312.95	2533.34
313.16	2607.06
313.37	2797.53
313.59	2768.85
313.80	2871.25
314.01	2877.40
314.23	2619.35
314.44	2471.90
314.65	2596.82
314.87	2564.06
315.08	2586.58
315.29	2523.10
315.51	2590.68
315.72	2482.14
315.93	2662.36
316.15	2600.92
316.36	2592.73
316.57	2697.17
316.79	2643.93
317.00	2635.74
317.21	2709.46
317.43	2588.63
317.64	2623.45
317.85	2529.24
318.07	2596.82
318.28	2666.46
318.49	2752.47
318.70	2842.58
318.92	2766.81
319.13	2803.67
319.34	2752.47
319.56	2654.17
319.77	2834.39
319.98	2830.29
320.20	2869.20
320.41	2805.72
320.62	2815.96
320.83	2564.06
321.05	2797.53
321.26	2664.41
321.47	2795.48
321.69	2934.74
321.90	2531.29
322.11	2559.96
322.32	2768.85
322.54	2932.69
322.75	2572.25
322.96	3194.83
323.18	2475.99
323.39	2510.81
323.60	2553.82
323.81	2709.46
324.03	2635.74
324.24	2736.09
324.45	2686.94
324.66	2568.15
324.88	2936.79
325.09	2895.83
325.30	2594.78
325.52	2590.68
325.73	2781.14
325.94	2580.44
326.15	2453.47
326.37	2430.94
326.58	2912.21
326.79	2889.68
327.00	2539.48
327.22	2578.39
327.43	2697.17
327.64	2576.34
327.85	2656.22
328.07	2652.12
328.28	3024.85
328.49	2637.78
328.70	2568.15
328.92	2602.97
329.13	2684.89
329.34	2824.15
329.55	2830.29
329.76	2758.61
329.98	2715.61
330.19	2906.07
330.40	2682.84
330.61	2693.08
330.83	2824.15
331.04	2662.36
331.25	2652.12
331.46	2650.07
331.68	2572.25
331.89	2891.73
332.10	2682.84
332.31	2523.10
332.52	2707.41
332.74	2947.03
332.95	2424.80
333.16	2545.63
333.37	2830.29
333.58	2686.94
333.80	2707.41
334.01	2482.14
334.22	2662.36
334.43	2666.46
334.64	2678.74
334.86	2519.00
335.07	2559.96
335.28	2891.73
335.49	2504.67
335.70	2752.47
335.92	2881.49
336.13	3057.62
336.34	2695.13
336.55	2641.88
336.76	2768.85
336.98	2424.80
337.19	2678.74
337.40	2701.27
337.61	3117.01
337.82	2631.64
338.04	2762.71
338.25	2480.09
338.46	2699.22
338.67	2680.79
338.88	2539.48
339.09	2609.11
339.31	2746.33
339.52	2564.06
339.73	2521.05
339.94	2656.22
340.15	2856.92
340.36	2631.64
340.58	2607.06
340.79	2617.30
341.00	2813.91
341.21	2514.91
341.42	2803.67
341.63	2547.67
341.85	2854.87
342.06	2686.94
342.27	2537.43
342.48	2637.78
342.69	2496.47
342.90	2725.85
343.12	2793.43
343.33	2566.10
343.54	2795.48
343.75	2990.03
343.96	2641.88
344.17	2514.91
344.38	2686.94
344.60	2613.21
344.81	2521.05
345.02	2623.45
345.23	2899.92
345.44	3069.91
345.65	2641.88
345.86	2643.93
346.07	2785.24
346.29	2596.82
346.50	2772.95
346.71	2650.07
346.92	2951.12
347.13	3037.14
347.34	2635.74
347.55	2568.15
347.76	2711.51
347.98	2516.95
348.19	2619.35
348.40	2856.92
348.61	2654.17
348.82	2944.98
349.03	2705.37
349.24	2605.02
349.45	2887.64
349.66	2441.18
349.88	2602.97
350.09	2475.99
350.30	2940.88
350.51	2906.07
350.72	2643.93
350.93	2688.98
351.14	2676.70
351.35	2822.10
351.56	2605.02
351.77	2623.45
351.99	2801.62
352.20	2940.88
352.41	2723.80
352.62	2400.22
352.83	2748.37
353.04	2656.22
353.25	2572.25
353.46	2643.93
353.67	2850.77
353.88	2385.88
354.09	2596.82
354.30	2631.64
354.52	2815.96
354.73	2717.65
354.94	2559.96
355.15	2596.82
355.36	2983.89
355.57	2631.64
355.78	2648.02
355.99	2545.63
356.20	2684.89
356.41	2861.01
356.62	2658.26
356.83	2637.78
357.04	2897.88
357.25	2469.85
357.46	2633.69
357.68	2453.47
357.89	2682.84
358.10	2744.28
358.31	2588.63
358.52	2555.86
358.73	2535.39
358.94	2527.19
359.15	2637.78
359.36	2709.46
359.57	2721.75
359.78	2678.74
359.99	2736.09
360.20	2568.15
360.41	2713.56
360.62	2787.29
360.83	2711.51
361.04	2678.74
361.25	2834.39
361.46	2869.20
361.67	2658.26
361.88	2699.22
362.09	2846.68
362.30	2768.85
362.51	2582.49
362.72	2676.70
362.93	2861.01
363.14	2830.29
363.35	2660.31
363.56	2572.25
363.78	2832.34
363.99	2906.07
364.20	2627.54
364.41	2596.82
364.62	2973.65
364.83	2738.13
365.04	2590.68
365.25	2650.07
365.46	3092.43
365.67	2623.45
365.88	2658.26
366.09	2617.30
366.30	2641.88
366.51	2762.71
366.72	2480.09
366.93	2607.06
367.14	2717.65
367.35	2932.69
367.56	2609.11
367.77	2734.04
367.98	2695.13
368.18	2762.71
368.39	2717.65
368.60	2580.44
368.81	2772.95
369.02	2723.80
369.23	2633.69
369.44	2449.37
369.65	2615.26
369.86	2715.61
370.07	2711.51
370.28	2480.09
370.49	2818.00
370.70	2826.20
370.91	2506.71
371.12	2584.54
371.33	2879.44
371.54	2619.35
371.75	2742.23
371.96	2402.27
372.17	2697.17
372.38	2828.24
372.59	2678.74
372.80	2570.20
373.01	2748.37
373.22	2789.33
373.43	2639.83
373.64	2512.86
373.85	2875.35
374.06	2998.23
374.26	2754.52
374.47	2697.17
374.68	2963.41
374.89	2846.68
375.10	2492.38
375.31	2713.56
375.52	2725.85
375.73	2695.13
375.94	2521.05
376.15	2658.26
376.36	2588.63
376.57	2607.06
376.78	2578.39
376.99	2668.50
377.20	2897.88
377.40	2799.57
377.61	2877.40
377.82	2594.78
378.03	2906.07
378.24	2756.57
378.45	2680.79
378.66	2731.99
378.87	2432.99
379.08	2576.34
379.29	2533.34
379.50	2768.85
379.71	2721.75
379.91	2768.85
380.12	2676.70
380.33	2641.88
380.54	2666.46
380.75	2711.51
380.96	2652.12
381.17	2686.94
381.38	2654.17
381.59	2744.28
381.80	2717.65
382.00	2799.57
382.21	2686.94
382.42	2981.84
382.63	2875.35
382.84	2740.18
383.05	2942.93
383.26	2912.21
383.47	2748.37
383.68	2605.02
383.88	2826.20
384.09	2705.37
384.30	2842.58
384.51	2668.50
384.72	2666.46
384.93	2514.91
385.14	2711.51
385.35	2729.94
385.55	2580.44
385.76	2934.74
385.97	2627.54
386.18	2496.47
386.39	2609.11
386.60	2645.98
386.81	2654.17
387.02	2490.33
387.22	2496.47
387.43	2834.39
387.64	2787.29
387.85	2801.62
388.06	2807.77
388.27	3897.28
388.48	7612.30
388.68	10954.58
388.89	13305.65
389.10	14458.66
389.31	13748.01
389.52	10868.57
389.73	9293.68
389.93	8513.41
390.14	7743.37
390.35	7063.44
390.56	6371.23
390.77	5296.05
390.98	4032.45
391.18	3426.25
391.39	3117.01
391.60	2832.34
391.81	2869.20
392.02	2643.93
392.23	3045.33
392.43	2688.98
392.64	2734.04
392.85	2633.69
393.06	3043.28
393.27	2789.33
393.47	2623.45
393.68	2637.78
393.89	2650.07
394.10	2797.53
394.31	2502.62
394.52	2586.58
394.72	2666.46
394.93	2908.12
395.14	2547.67
395.35	2707.41
395.56	2578.39
395.76	2676.70
395.97	2643.93
396.18	2832.34
396.39	2797.53
396.60	3243.98
396.80	2936.79
397.01	2846.68
397.22	2813.91
397.43	2842.58
397.64	2602.97
397.84	2789.33
398.05	2961.36
398.26	2676.70
398.47	2731.99
398.67	2809.81
398.88	2648.02
399.09	2777.05
399.30	2574.30
399.51	2711.51
399.71	2682.84
399.92	2668.50
400.13	2703.32
400.34	2650.07
400.54	2772.95
400.75	2987.99
400.96	2736.09
401.17	2865.11
401.37	2791.38
401.58	2676.70
401.79	2645.98
402.00	2777.05
402.21	3147.73
402.41	2926.55
402.62	2959.31
402.83	3014.61
403.04	3143.63
403.24	3350.48
403.45	2764.76
403.66	2914.26
403.87	2848.72
404.07	3012.56
404.28	2861.01
404.49	2881.49
404.70	2809.81
404.90	2867.16
405.11	2713.56
405.32	2707.41
405.52	2605.02
405.73	2648.02
405.94	2488.28
406.15	2623.45
406.35	2781.14
406.56	2779.09
406.77	2631.64
406.98	2645.98
407.18	2695.13
407.39	2953.17
407.60	2695.13
407.80	2734.04
408.01	2611.16
408.22	2809.81
408.43	2637.78
408.63	2693.08
408.84	2826.20
409.05	2875.35
409.25	2609.11
409.46	2588.63
409.67	2570.20
409.88	2658.26
410.08	2715.61
410.29	2658.26
410.50	2875.35
410.70	2856.92
410.91	2514.91
411.12	2727.89
411.32	2727.89
411.53	2529.24
411.74	2666.46
411.95	2781.14
412.15	2797.53
412.36	2867.16
412.57	2762.71
412.77	2809.81
412.98	2738.13
413.19	2688.98
413.39	2676.70
413.60	2645.98
413.81	2901.97
414.01	2621.40
414.22	2633.69
414.43	2695.13
414.63	2691.03
414.84	2858.96
415.05	2729.94
415.25	2453.47
415.46	2856.92
415.67	2662.36
415.87	2674.65
416.08	2621.40
416.29	2641.88
416.49	2912.21
416.70	2625.50
416.91	2695.13
417.11	2654.17
417.32	2879.44
417.53	2633.69
417.73	2656.22
417.94	2750.42
418.15	2729.94
418.35	2691.03
418.56	2627.54
418.77	3014.61
418.97	2731.99
419.18	2695.13
419.38	2422.75
419.59	2639.83
419.80	2879.44
420.00	2631.64
420.21	2691.03
420.42	2914.26
420.62	2768.85
420.83	2654.17
421.04	2611.16
421.24	2688.98
421.45	2861.01
421.65	2695.13
421.86	2592.73
422.07	2854.87
422.27	2818.00
422.48	2658.26
422.69	2519.00
422.89	2697.17
423.10	2607.06
423.30	2539.48
423.51	2648.02
423.72	2795.48
423.92	2830.29
424.13	2576.34
424.33	2621.40
424.54	2826.20
424.75	2744.28
424.95	2861.01
425.16	2717.65
425.36	2719.70
425.57	2832.34
425.78	2699.22
425.98	2666.46
426.19	2727.89
426.39	2666.46
426.60	2711.51
426.81	2760.66
427.01	2826.20
427.22	2703.32
427.42	2453.47
427.63	2641.88
427.83	2854.87
428.04	2963.41
428.25	2729.94
428.45	2838.48
428.66	2863.06
428.86	2643.93
429.07	2570.20
429.28	2686.94
429.48	2686.94
429.69	2572.25
429.89	2666.46
430.10	2549.72
430.30	2883.54
430.51	2840.53
430.71	2582.49
430.92	2619.35
431.13	2643.93
431.33	2854.87
431.54	2684.89
431.74	2770.90
431.95	3055.57
432.15	2650.07
432.36	2605.02
432.56	2752.47
432.77	2899.92
432.98	3002.32
433.18	2717.65
433.39	2605.02
433.59	2697.17
433.80	3055.57
434.00	2856.92
434.21	2697.17
434.41	2615.26
434.62	3037.14
434.82	2621.40
435.03	2535.39
435.23	2742.23
435.44	2531.29
435.64	2660.31
435.85	2670.55
436.06	2863.06
436.26	2826.20
436.47	2625.50
436.67	2621.40
436.88	2719.70
437.08	2922.45
437.29	2736.09
437.49	2713.56
437.70	2928.60
437.90	2643.93
438.11	2842.58
438.31	2674.65
438.52	2949.08
438.72	2940.88
438.93	2979.79
439.13	2693.08
439.34	2940.88
439.54	2645.98
439.75	2760.66
439.95	2676.70
440.16	2654.17
440.36	2703.32
440.57	2592.73
440.77	2695.13
440.98	2752.47
441.18	2867.16
441.39	2596.82
441.59	2543.58
441.80	3035.09
442.00	2734.04
442.21	2791.38
442.41	2504.67
442.62	2869.20
442.82	2625.50
443.02	2662.36
443.23	2615.26
443.43	2707.41
443.64	2973.65
443.84	2611.16
444.05	2734.04
444.25	2744.28
444.46	2701.27
444.66	2635.74
444.87	2901.97
445.07	2572.25
445.28	2602.97
445.48	2832.34
445.69	2703.32
445.89	3151.82
446.09	2760.66
446.30	2987.99
446.50	3117.01
446.71	4526.01
446.91	5805.99
447.12	6463.39
447.32	6756.25
447.53	6428.57
447.73	5445.55
447.93	4743.10
448.14	4526.01
448.34	4390.84
448.55	3872.71
448.75	3811.27
448.96	3729.35
449.16	3420.11
449.36	3305.42
449.57	2897.88
449.77	2729.94
449.98	2744.28
450.18	2772.95
450.39	2666.46
450.59	2840.53
450.79	2709.46
451.00	2598.87
451.20	2734.04
451.41	2672.60
451.61	2742.23
451.81	2738.13
452.02	2662.36
452.22	2678.74
452.43	2627.54
452.63	2699.22
