SpectraSuite Data File
++++++++++++++++++++++++++++++++++++
Date: Thu May 05 16:20:12 CEST 2016
User: root
Dark Spectrum Present: No
Reference Spectrum Present: No
Number of Sampled Component Spectra: 1
Spectrometers: USB4C02835
Integration Time (usec): 100000 (USB4C02835)
Spectra Averaged: 1 (USB4C02835)
Boxcar Smoothing: 0 (USB4C02835)
Correct for Electrical Dark: No (USB4C02835)
Strobe/Lamp Enabled: No (USB4C02835)
Correct for Detector Non-linearity: No (USB4C02835)
Correct for Stray Light: No (USB4C02835)
Number of Pixels in Processed Spectrum: 3648
>>>>>Begin Processed Spectral Data<<<<<
177.47	2066.40
177.69	2066.40
177.91	2066.40
178.13	1996.77
178.36	2029.54
178.58	2629.59
178.80	2748.37
179.02	2529.24
179.24	2527.19
179.46	2408.41
179.68	2504.67
179.90	2641.88
180.13	2637.78
180.35	2449.37
180.57	2525.15
180.79	2779.09
181.01	2697.17
181.23	2602.97
181.45	2605.02
181.67	2828.24
181.90	2863.06
182.12	2600.92
182.34	2402.27
182.56	2830.29
182.78	2789.33
183.00	2490.33
183.22	2547.67
183.44	2414.56
183.66	3125.20
183.89	2590.68
184.11	2508.76
184.33	2813.91
184.55	2904.02
184.77	2588.63
184.99	2559.96
185.21	2645.98
185.43	3069.91
185.65	2527.19
185.87	2473.95
186.10	3030.99
186.32	3053.52
186.54	2635.74
186.76	2617.30
186.98	2770.90
187.20	2666.46
187.42	2514.91
187.64	2498.52
187.86	2715.61
188.08	2852.82
188.30	2400.22
188.52	2598.87
188.75	2885.59
188.97	2893.78
189.19	2475.99
189.41	2441.18
189.63	2846.68
189.85	2615.26
190.07	2428.89
190.29	2344.92
190.51	2744.28
190.73	2613.21
190.95	2643.93
191.17	2521.05
191.39	2555.86
191.61	2672.60
191.84	2549.72
192.06	2619.35
192.28	2473.95
192.50	3141.58
192.72	2600.92
192.94	2492.38
193.16	2797.53
193.38	2793.43
193.60	2467.80
193.82	2600.92
194.04	2891.73
194.26	2834.39
194.48	2557.91
194.70	2447.32
194.92	2686.94
195.14	2738.13
195.36	2529.24
195.58	2541.53
195.80	2742.23
196.02	2652.12
196.24	2457.56
196.46	2633.69
196.69	2652.12
196.91	3094.48
197.13	2553.82
197.35	2510.81
197.57	2992.08
197.79	2838.48
198.01	2598.87
198.23	2582.49
198.45	2775.00
198.67	2566.10
198.89	2394.08
199.11	2678.74
199.33	2678.74
199.55	2420.70
199.77	2469.85
199.99	2617.30
200.21	2633.69
200.43	2697.17
200.65	2398.17
200.87	2439.13
201.09	2676.70
201.31	2691.03
201.53	2512.86
201.75	2584.54
201.97	2738.13
202.19	2740.18
202.41	2619.35
202.63	2723.80
202.85	2850.77
203.07	2748.37
203.29	2613.21
203.51	2471.90
203.73	2688.98
203.95	3131.34
204.17	2533.34
204.39	2598.87
204.61	2715.61
204.83	2666.46
205.05	2650.07
205.27	2607.06
205.49	3014.61
205.71	2705.37
205.93	2430.94
206.15	2363.36
206.37	2742.23
206.59	2662.36
206.81	2441.18
207.03	2416.60
207.25	2600.92
207.47	2832.34
207.69	2553.82
207.91	2680.79
208.13	2998.23
208.34	2607.06
208.56	2383.84
208.78	2547.67
209.00	2619.35
209.22	2621.40
209.44	2547.67
209.66	2461.66
209.88	2709.46
210.10	2656.22
210.32	2435.03
210.54	2582.49
210.76	2709.46
210.98	2863.06
211.20	2326.49
211.42	2600.92
211.64	3010.51
211.86	2744.28
212.08	2600.92
212.30	2549.72
212.52	2652.12
212.74	2762.71
212.96	2555.86
213.17	2590.68
213.39	2873.30
213.61	2940.88
213.83	2576.34
214.05	2426.84
214.27	2922.45
214.49	2566.10
214.71	2457.56
214.93	2654.17
215.15	2725.85
215.37	2867.16
215.59	2373.60
215.81	2525.15
216.03	2955.22
216.24	2740.18
216.46	2566.10
216.68	2555.86
216.90	2871.25
217.12	2910.16
217.34	2473.95
217.56	2619.35
217.78	2924.50
218.00	2807.77
218.22	2512.86
218.44	2627.54
218.66	2768.85
218.87	2987.99
219.09	2539.48
219.31	2451.42
219.53	2772.95
219.75	2574.30
219.97	2525.15
220.19	2580.44
220.41	2713.56
220.63	2949.08
220.85	2486.23
221.06	2598.87
221.28	2854.87
221.50	2834.39
221.72	2502.62
221.94	2453.47
222.16	2795.48
222.38	2844.63
222.60	2480.09
222.82	2586.58
223.03	2834.39
223.25	2582.49
223.47	2543.58
223.69	2766.81
223.91	2838.48
224.13	2736.09
224.35	2414.56
224.57	2670.55
224.78	2828.24
225.00	2596.82
225.22	2592.73
225.44	2457.56
225.66	2830.29
225.88	2650.07
226.10	2645.98
226.32	2549.72
226.53	2877.40
226.75	2693.08
226.97	2555.86
227.19	2533.34
227.41	2592.73
227.63	2742.23
227.85	2326.49
228.06	2543.58
228.28	2734.04
228.50	2934.74
228.72	2414.56
228.94	2482.14
229.16	2482.14
229.37	2609.11
229.59	2473.95
229.81	2809.81
230.03	2574.30
230.25	2547.67
230.47	2344.92
230.69	2430.94
230.90	2787.29
231.12	2598.87
231.34	2531.29
231.56	2615.26
231.78	2615.26
232.00	2652.12
232.21	2387.93
232.43	2512.86
232.65	2486.23
232.87	2775.00
233.09	2377.69
233.30	2465.75
233.52	2897.88
233.74	2670.55
233.96	2449.37
234.18	2631.64
234.40	2701.27
234.61	3030.99
234.83	2527.19
235.05	2414.56
235.27	3020.75
235.49	2867.16
235.70	2459.61
235.92	2598.87
236.14	2744.28
236.36	3082.19
236.58	2437.08
236.79	2580.44
237.01	2676.70
237.23	2701.27
237.45	2725.85
237.67	2572.25
237.88	2768.85
238.10	2928.60
238.32	2377.69
238.54	2486.23
238.76	2701.27
238.97	2627.54
239.19	2412.51
239.41	2564.06
239.63	2893.78
239.85	2611.16
240.06	2496.47
240.28	2447.32
240.50	2869.20
240.72	2791.38
240.93	2430.94
241.15	2627.54
241.37	2711.51
241.59	2906.07
241.81	2578.39
242.02	2527.19
242.24	2785.24
242.46	2805.72
242.68	2465.75
242.89	2502.62
243.11	2858.96
243.33	2729.94
243.55	2525.15
243.76	2537.43
243.98	2613.21
244.20	2699.22
244.42	2478.04
244.64	2523.10
244.85	2566.10
245.07	2609.11
245.29	2537.43
245.51	2572.25
245.72	2727.89
245.94	2891.73
246.16	2486.23
246.38	2568.15
246.59	2650.07
246.81	2553.82
247.03	2453.47
247.24	2416.60
247.46	2674.65
247.68	2744.28
247.90	2455.51
248.11	2492.38
248.33	2844.63
248.55	2686.94
248.77	2566.10
248.98	2578.39
249.20	2965.46
249.42	2842.58
249.64	2531.29
249.85	2533.34
250.07	2678.74
250.29	2828.24
250.50	2576.34
250.72	2387.93
250.94	2744.28
251.16	3049.43
251.37	2523.10
251.59	2512.86
251.81	2838.48
252.02	2981.84
252.24	2484.19
252.46	2631.64
252.68	2578.39
252.89	2684.89
253.11	2353.12
253.33	2648.02
253.54	2897.88
253.76	2510.81
253.98	2529.24
254.20	2502.62
254.41	2533.34
254.63	2645.98
254.85	2457.56
255.06	2678.74
255.28	2809.81
255.50	2668.50
255.71	2529.24
255.93	2336.73
256.15	2711.51
256.36	2701.27
256.58	2404.32
256.80	2564.06
257.02	2713.56
257.23	2691.03
257.45	2578.39
257.67	2625.50
257.88	2643.93
258.10	2775.00
258.32	2475.99
258.53	2576.34
258.75	2934.74
258.97	2715.61
259.18	2406.36
259.40	2478.04
259.62	2944.98
259.83	2932.69
260.05	2533.34
260.27	3194.83
260.48	2844.63
260.70	2539.48
260.92	2404.32
261.13	2592.73
261.35	2635.74
261.57	2848.72
261.78	2383.84
262.00	2422.75
262.22	2865.11
262.43	2611.16
262.65	2529.24
262.86	2584.54
263.08	3049.43
263.30	2707.41
263.51	2367.45
263.73	2508.76
263.95	2912.21
264.16	2691.03
264.38	2449.37
264.60	2465.75
264.81	2734.04
265.03	2856.92
265.25	2787.29
265.46	2445.27
265.68	2895.83
265.89	2852.82
266.11	2461.66
266.33	2486.23
266.54	2965.46
266.76	2719.70
266.98	2557.91
267.19	2609.11
267.41	2799.57
267.62	2701.27
267.84	2367.45
268.06	2613.21
268.27	2752.47
268.49	2871.25
268.70	2588.63
268.92	2539.48
269.14	2584.54
269.35	2465.75
269.57	2580.44
269.79	2613.21
270.00	2602.97
270.22	2924.50
270.43	2351.07
270.65	2414.56
270.87	2752.47
271.08	2920.40
271.30	2594.78
271.51	2551.77
271.73	2826.20
271.95	2963.41
272.16	2519.00
272.38	2555.86
272.59	2666.46
272.81	2754.52
273.02	2469.85
273.24	2564.06
273.46	2889.68
273.67	2502.62
273.89	2430.94
274.10	2457.56
274.32	2846.68
274.54	2707.41
274.75	2607.06
274.97	2559.96
275.18	2854.87
275.40	2809.81
275.61	2519.00
275.83	2609.11
276.05	2537.43
276.26	2719.70
276.48	2658.26
276.69	2598.87
276.91	2703.32
277.12	3000.27
277.34	2686.94
277.55	2678.74
277.77	2707.41
277.99	2658.26
278.20	2539.48
278.42	2502.62
278.63	2559.96
278.85	2619.35
279.06	2553.82
279.28	2727.89
279.49	2867.16
279.71	2830.29
279.93	2602.97
280.14	2574.30
280.36	2570.20
280.57	2797.53
280.79	2686.94
281.00	2525.15
281.22	2668.50
281.43	2861.01
281.65	2453.47
281.86	2539.48
282.08	2809.81
282.29	3053.52
282.51	2449.37
282.73	2578.39
282.94	2502.62
283.16	2803.67
283.37	2748.37
283.59	2641.88
283.80	2824.15
284.02	2711.51
284.23	2629.59
284.45	2543.58
284.66	2645.98
284.88	2564.06
285.09	2666.46
285.31	2779.09
285.52	2785.24
285.74	2512.86
285.95	2736.09
286.17	2688.98
286.38	2891.73
286.60	2664.41
286.81	2574.30
287.03	2617.30
287.24	2652.12
287.46	2879.44
287.67	2729.94
287.89	2768.85
288.10	2684.89
288.32	2762.71
288.53	2805.72
288.75	2596.82
288.96	2883.54
289.18	2691.03
289.39	2637.78
289.61	2680.79
289.82	3047.38
290.04	3016.66
290.25	2553.82
290.47	2682.84
290.68	2729.94
290.90	2863.06
291.11	2502.62
291.33	2686.94
291.54	2633.69
291.76	2590.68
291.97	2703.32
292.18	2682.84
292.40	2629.59
292.61	2592.73
292.83	2869.20
293.04	2658.26
293.26	2756.57
293.47	2783.19
293.69	2494.43
293.90	2539.48
294.12	2826.20
294.33	2766.81
294.55	2607.06
294.76	2785.24
294.97	2899.92
295.19	3033.04
295.40	2605.02
295.62	2672.60
295.83	2899.92
296.05	2613.21
296.26	2768.85
296.48	2613.21
296.69	2754.52
296.90	2750.42
297.12	2660.31
297.33	2736.09
297.55	2764.76
297.76	2815.96
297.98	2670.55
298.19	2668.50
298.41	2717.65
298.62	2541.53
298.83	2805.72
299.05	2736.09
299.26	2609.11
299.48	2568.15
299.69	2748.37
299.90	2658.26
300.12	2605.02
300.33	2834.39
300.55	2682.84
300.76	2619.35
300.98	2580.44
301.19	2912.21
301.40	2564.06
301.62	2570.20
301.83	2834.39
302.05	2719.70
302.26	2580.44
302.47	2664.41
302.69	2557.91
302.90	2652.12
303.12	2381.79
303.33	2666.46
303.54	2969.55
303.76	2623.45
303.97	2564.06
304.19	2777.05
304.40	2693.08
304.61	2748.37
304.83	2756.57
305.04	2725.85
305.26	2748.37
305.47	2736.09
305.68	2693.08
305.90	2445.27
306.11	2887.64
306.33	2678.74
306.54	2596.82
306.75	2629.59
306.97	2441.18
307.18	2549.72
307.39	2559.96
307.61	2674.65
307.82	2619.35
308.04	2877.40
308.25	2486.23
308.46	2693.08
308.68	2686.94
308.89	2727.89
309.10	2691.03
309.32	2713.56
309.53	2742.23
309.74	2846.68
309.96	2559.96
310.17	2676.70
310.39	2625.50
310.60	2770.90
310.81	2719.70
311.03	2478.04
311.24	2797.53
311.45	2797.53
311.67	2811.86
311.88	2707.41
312.09	2678.74
312.31	2666.46
312.52	2623.45
312.73	2572.25
312.95	2502.62
313.16	2613.21
313.37	2760.66
313.59	2697.17
313.80	2805.72
314.01	3012.56
314.23	2590.68
314.44	2535.39
314.65	2596.82
314.87	2621.40
315.08	2527.19
315.29	2674.65
315.51	2580.44
315.72	2514.91
315.93	2693.08
316.15	2686.94
316.36	2625.50
316.57	2707.41
316.79	2643.93
317.00	2510.81
317.21	2797.53
317.43	2572.25
317.64	2684.89
317.85	2613.21
318.07	2566.10
318.28	2678.74
318.49	2717.65
318.70	2867.16
318.92	2793.43
319.13	2766.81
319.34	2742.23
319.56	2654.17
319.77	2664.41
319.98	2850.77
320.20	2752.47
320.41	2715.61
320.62	2832.34
320.83	2584.54
321.05	2861.01
321.26	2660.31
321.47	2719.70
321.69	2752.47
321.90	2490.33
322.11	2514.91
322.32	2775.00
322.54	2920.40
322.75	2592.73
322.96	3227.60
323.18	2527.19
323.39	2430.94
323.60	2523.10
323.81	2742.23
324.03	2645.98
324.24	2723.80
324.45	2758.61
324.66	2551.77
324.88	2914.26
325.09	3039.19
325.30	2588.63
325.52	2586.58
325.73	2744.28
325.94	2627.54
326.15	2437.08
326.37	2480.09
326.58	2901.97
326.79	2979.79
327.00	2570.20
327.22	2584.54
327.43	2613.21
327.64	2566.10
327.85	2633.69
328.07	2629.59
328.28	3020.75
328.49	2658.26
328.70	2586.58
328.92	2674.65
329.13	2621.40
329.34	2750.42
329.55	2834.39
329.76	2678.74
329.98	2740.18
330.19	2865.11
330.40	2686.94
330.61	2697.17
330.83	2861.01
331.04	2654.17
331.25	2662.36
331.46	2602.97
331.68	2531.29
331.89	2971.60
332.10	2635.74
332.31	2490.33
332.52	2715.61
332.74	2818.00
332.95	2529.24
333.16	2641.88
333.37	2856.92
333.58	2654.17
333.80	2639.83
334.01	2420.70
334.22	2662.36
334.43	2639.83
334.64	2586.58
334.86	2551.77
335.07	2602.97
335.28	2940.88
335.49	2533.34
335.70	2725.85
335.92	2918.36
336.13	2934.74
336.34	2682.84
336.55	2688.98
336.76	2731.99
336.98	2416.60
337.19	2658.26
337.40	2699.22
337.61	3147.73
337.82	2686.94
338.04	2717.65
338.25	2437.08
338.46	2678.74
338.67	2678.74
338.88	2506.71
339.09	2547.67
339.31	2650.07
339.52	2586.58
339.73	2527.19
339.94	2594.78
340.15	2906.07
340.36	2705.37
340.58	2555.86
340.79	2525.15
341.00	2781.14
341.21	2551.77
341.42	2867.16
341.63	2695.13
341.85	2758.61
342.06	2736.09
342.27	2523.10
342.48	2680.79
342.69	2498.52
342.90	2744.28
343.12	2906.07
343.33	2539.48
343.54	2916.31
343.75	2947.03
343.96	2656.22
344.17	2553.82
344.38	2641.88
344.60	2555.86
344.81	2596.82
345.02	2633.69
345.23	2858.96
345.44	3088.34
345.65	2742.23
345.86	2627.54
346.07	2744.28
346.29	2670.55
346.50	2699.22
346.71	2709.46
346.92	2910.16
347.13	3106.77
347.34	2621.40
347.55	2486.23
347.76	2736.09
347.98	2510.81
348.19	2652.12
348.40	2762.71
348.61	2744.28
348.82	3047.38
349.03	2709.46
349.24	2545.63
349.45	3018.71
349.66	2437.08
349.88	2594.78
350.09	2469.85
350.30	2947.03
350.51	2924.50
350.72	2682.84
350.93	2639.83
351.14	2645.98
351.35	2875.35
351.56	2658.26
351.77	2625.50
351.99	2752.47
352.20	2967.51
352.41	2721.75
352.62	2396.12
352.83	2602.97
353.04	2617.30
353.25	2605.02
353.46	2643.93
353.67	2838.48
353.88	2496.47
354.09	2543.58
354.30	2576.34
354.52	2822.10
354.73	2740.18
354.94	2586.58
355.15	2641.88
355.36	3012.56
355.57	2627.54
355.78	2596.82
355.99	2664.41
356.20	2670.55
356.41	2908.12
356.62	2680.79
356.83	2559.96
357.04	2895.83
357.25	2588.63
357.46	2514.91
357.68	2473.95
357.89	2572.25
358.10	2688.98
358.31	2541.53
358.52	2643.93
358.73	2553.82
358.94	2574.30
359.15	2555.86
359.36	2643.93
359.57	2807.77
359.78	2713.56
359.99	2801.62
360.20	2506.71
360.41	2619.35
360.62	2770.90
360.83	2641.88
361.04	2668.50
361.25	2785.24
361.46	2971.60
361.67	2672.60
361.88	2695.13
362.09	2901.97
362.30	2723.80
362.51	2553.82
362.72	2635.74
362.93	2826.20
363.14	2791.38
363.35	2707.41
363.56	2570.20
363.78	2889.68
363.99	2848.72
364.20	2568.15
364.41	2641.88
364.62	2957.27
364.83	2725.85
365.04	2590.68
365.25	2637.78
365.46	3016.66
365.67	2652.12
365.88	2729.94
366.09	2568.15
366.30	2633.69
366.51	2736.09
366.72	2533.34
366.93	2582.49
367.14	2760.66
367.35	2934.74
367.56	2564.06
367.77	2756.57
367.98	2801.62
368.18	2672.60
368.39	2664.41
368.60	2510.81
368.81	2818.00
369.02	2748.37
369.23	2631.64
369.44	2447.32
369.65	2568.15
369.86	2775.00
370.07	2742.23
370.28	2512.86
370.49	2858.96
370.70	2703.32
370.91	2514.91
371.12	2496.47
371.33	2949.08
371.54	2621.40
371.75	2801.62
371.96	2424.80
372.17	2721.75
372.38	2678.74
372.59	2666.46
372.80	2576.34
373.01	2645.98
373.22	2762.71
373.43	2619.35
373.64	2496.47
373.85	2840.53
374.06	2897.88
374.26	2731.99
374.47	2670.55
374.68	2963.41
374.89	2740.18
375.10	2602.97
375.31	2719.70
375.52	2723.80
375.73	2742.23
375.94	2469.85
376.15	2750.42
376.36	2684.89
376.57	2615.26
376.78	2584.54
376.99	2707.41
377.20	2947.03
377.40	2621.40
377.61	2854.87
377.82	2473.95
378.03	2897.88
378.24	2883.54
378.45	2664.41
378.66	2648.02
378.87	2482.14
379.08	2475.99
379.29	2637.78
379.50	2703.32
379.71	2695.13
379.91	2838.48
380.12	2598.87
380.33	2635.74
380.54	2645.98
380.75	2699.22
380.96	2611.16
381.17	2611.16
381.38	2621.40
381.59	2729.94
381.80	2594.78
382.00	2910.16
382.21	2738.13
382.42	3067.86
382.63	2965.46
382.84	2758.61
383.05	2858.96
383.26	2906.07
383.47	2701.27
383.68	2568.15
383.88	2744.28
384.09	2719.70
384.30	2904.02
384.51	2797.53
384.72	2570.20
384.93	2502.62
385.14	2701.27
385.35	2844.63
385.55	2502.62
385.76	2858.96
385.97	2600.92
386.18	2441.18
386.39	2545.63
386.60	2648.02
386.81	2621.40
387.02	2478.04
387.22	2490.33
387.43	2865.11
387.64	2707.41
387.85	2779.09
388.06	2871.25
388.27	3928.00
388.48	7462.80
388.68	11007.83
388.89	13549.36
389.10	14462.76
389.31	13608.75
389.52	10917.72
389.73	9455.47
389.93	8603.52
390.14	7831.43
390.35	7034.77
390.56	6336.42
390.77	5404.59
390.98	4054.98
391.18	3499.98
391.39	3231.69
391.60	2758.61
391.81	2899.92
392.02	2609.11
392.23	3125.20
392.43	2775.00
392.64	2772.95
392.85	2707.41
393.06	3004.37
393.27	2805.72
393.47	2578.39
393.68	2695.13
393.89	2631.64
394.10	2901.97
394.31	2566.10
394.52	2551.77
394.72	2617.30
394.93	2920.40
395.14	2617.30
395.35	2762.71
395.56	2627.54
395.76	2709.46
395.97	2650.07
396.18	2705.37
396.39	2762.71
396.60	3254.22
396.80	3061.71
397.01	2869.20
397.22	2795.48
397.43	2940.88
397.64	2588.63
397.84	2772.95
398.05	3055.57
398.26	2766.81
398.47	2807.77
398.67	2779.09
398.88	2725.85
399.09	2842.58
399.30	2592.73
399.51	2691.03
399.71	2580.44
399.92	2662.36
400.13	2637.78
400.34	2582.49
400.54	2805.72
400.75	2942.93
400.96	2680.79
401.17	2883.54
401.37	2738.13
401.58	2715.61
401.79	2633.69
402.00	2785.24
402.21	3051.47
402.41	2965.46
402.62	2920.40
402.83	3049.43
403.04	3096.53
403.24	3317.71
403.45	2744.28
403.66	2887.64
403.87	2899.92
404.07	2996.18
404.28	3010.51
404.49	2920.40
404.70	2768.85
404.90	2858.96
405.11	2688.98
405.32	2750.42
405.52	2666.46
405.73	2584.54
405.94	2613.21
406.15	2615.26
406.35	2824.15
406.56	2863.06
406.77	2785.24
406.98	2654.17
407.18	2637.78
407.39	2846.68
407.60	2633.69
407.80	2672.60
408.01	2596.82
408.22	2801.62
408.43	2508.76
408.63	2777.05
408.84	2936.79
409.05	2920.40
409.25	2654.17
409.46	2623.45
409.67	2672.60
409.88	2660.31
410.08	2711.51
410.29	2635.74
410.50	2824.15
410.70	2789.33
410.91	2574.30
411.12	2742.23
411.32	2697.17
411.53	2564.06
411.74	2717.65
411.95	2791.38
412.15	2727.89
412.36	2871.25
412.57	2725.85
412.77	2729.94
412.98	2703.32
413.19	2713.56
413.39	2678.74
413.60	2740.18
413.81	2906.07
414.01	2564.06
414.22	2627.54
414.43	2727.89
414.63	2627.54
414.84	2875.35
415.05	2648.02
415.25	2486.23
415.46	2834.39
415.67	2701.27
415.87	2742.23
416.08	2674.65
416.29	2678.74
416.49	2922.45
416.70	2695.13
416.91	2615.26
417.11	2693.08
417.32	2824.15
417.53	2729.94
417.73	2750.42
417.94	2729.94
418.15	2738.13
418.35	2699.22
418.56	2637.78
418.77	3047.38
418.97	2731.99
419.18	2678.74
419.38	2445.27
419.59	2775.00
419.80	2975.70
420.00	2627.54
420.21	2752.47
420.42	2848.72
420.62	2772.95
420.83	2572.25
421.04	2625.50
421.24	2686.94
421.45	2805.72
421.65	2709.46
421.86	2654.17
422.07	2783.19
422.27	2703.32
422.48	2666.46
422.69	2553.82
422.89	2815.96
423.10	2658.26
423.30	2514.91
423.51	2721.75
423.72	2805.72
423.92	2748.37
424.13	2488.28
424.33	2785.24
424.54	2834.39
424.75	2717.65
424.95	2899.92
425.16	2617.30
425.36	2676.70
425.57	2906.07
425.78	2725.85
425.98	2750.42
426.19	2691.03
426.39	2633.69
426.60	2715.61
426.81	2789.33
427.01	2693.08
427.22	2594.78
427.42	2467.80
427.63	2551.77
427.83	2932.69
428.04	3004.37
428.25	2768.85
428.45	2695.13
428.66	2824.15
428.86	2777.05
429.07	2670.55
429.28	2623.45
429.48	2637.78
429.69	2613.21
429.89	2725.85
430.10	2516.95
430.30	2832.34
430.51	2824.15
430.71	2580.44
430.92	2709.46
431.13	2682.84
431.33	2723.80
431.54	2711.51
431.74	2908.12
431.95	3168.21
432.15	2609.11
432.36	2709.46
432.56	2725.85
432.77	2992.08
432.98	2965.46
433.18	2623.45
433.39	2549.72
433.59	2711.51
433.80	3053.52
434.00	2824.15
434.21	2605.02
434.41	2592.73
434.62	3069.91
434.82	2527.19
435.03	2545.63
435.23	2760.66
435.44	2502.62
435.64	2588.63
435.85	2680.79
436.06	2834.39
436.26	2867.16
436.47	2555.86
436.67	2635.74
436.88	2699.22
437.08	2914.26
437.29	2840.53
437.49	2709.46
437.70	3014.61
437.90	2713.56
438.11	2869.20
438.31	2672.60
438.52	2936.79
438.72	2930.64
438.93	2932.69
439.13	2723.80
439.34	2879.44
439.54	2746.33
439.75	2734.04
439.95	2754.52
440.16	2594.78
440.36	2678.74
440.57	2658.26
440.77	2705.37
440.98	2680.79
441.18	2764.76
441.39	2613.21
441.59	2478.04
441.80	3000.27
442.00	2791.38
442.21	2734.04
442.41	2457.56
442.62	2906.07
442.82	2617.30
443.02	2596.82
443.23	2727.89
443.43	2666.46
443.64	2990.03
443.84	2588.63
444.05	2723.80
444.25	2826.20
444.46	2607.06
444.66	2664.41
444.87	2863.06
445.07	2521.05
445.28	2684.89
445.48	2797.53
445.69	2752.47
445.89	3088.34
446.09	2703.32
446.30	2951.12
446.50	3137.49
446.71	4579.26
446.91	5636.01
447.12	6408.09
447.32	6752.15
447.53	6612.89
447.73	5334.96
447.93	4794.29
448.14	4558.78
448.34	4546.49
448.55	3870.66
448.75	3823.56
448.96	3461.07
449.16	3426.25
449.36	3241.93
449.57	2871.25
449.77	2680.79
449.98	2635.74
450.18	2828.24
450.39	2756.57
450.59	2729.94
450.79	2781.14
451.00	2652.12
451.20	2787.29
451.41	2641.88
451.61	2711.51
451.81	2703.32
452.02	2617.30
452.22	2602.97
452.43	2627.54
452.63	2666.46
