SpectraSuite Data File
++++++++++++++++++++++++++++++++++++
Date: Thu May 05 16:20:16 CEST 2016
User: root
Dark Spectrum Present: No
Reference Spectrum Present: No
Number of Sampled Component Spectra: 1
Spectrometers: USB4C02835
Integration Time (usec): 100000 (USB4C02835)
Spectra Averaged: 1 (USB4C02835)
Boxcar Smoothing: 0 (USB4C02835)
Correct for Electrical Dark: No (USB4C02835)
Strobe/Lamp Enabled: No (USB4C02835)
Correct for Detector Non-linearity: No (USB4C02835)
Correct for Stray Light: No (USB4C02835)
Number of Pixels in Processed Spectrum: 3648
>>>>>Begin Processed Spectral Data<<<<<
177.47	2041.82
177.69	2041.82
177.91	2041.82
178.13	2004.96
178.36	2017.25
178.58	2596.82
178.80	2740.18
179.02	2473.95
179.24	2559.96
179.46	2410.46
179.68	2611.16
179.90	2668.50
180.13	2772.95
180.35	2449.37
180.57	2486.23
180.79	2883.54
181.01	2752.47
181.23	2486.23
181.45	2566.10
181.67	2832.34
181.90	2826.20
182.12	2502.62
182.34	2344.92
182.56	2740.18
182.78	2729.94
183.00	2478.04
183.22	2596.82
183.44	2523.10
183.66	3084.24
183.89	2637.78
184.11	2512.86
184.33	2793.43
184.55	2944.98
184.77	2525.15
184.99	2537.43
185.21	2639.83
185.43	3110.86
185.65	2475.99
185.87	2461.66
186.10	3065.81
186.32	3026.90
186.54	2650.07
186.76	2686.94
186.98	2840.53
187.20	2703.32
187.42	2621.40
187.64	2457.56
187.86	2760.66
188.08	2897.88
188.30	2437.08
188.52	2602.97
188.75	2963.41
188.97	2953.17
189.19	2514.91
189.41	2512.86
189.63	2793.43
189.85	2650.07
190.07	2371.55
190.29	2338.78
190.51	2838.48
190.73	2547.67
190.95	2566.10
191.17	2557.91
191.39	2455.51
191.61	2682.84
191.84	2465.75
192.06	2686.94
192.28	2564.06
192.50	3129.30
192.72	2574.30
192.94	2551.77
193.16	2846.68
193.38	2770.90
193.60	2467.80
193.82	2584.54
194.04	2873.30
194.26	2766.81
194.48	2521.05
194.70	2523.10
194.92	2648.02
195.14	2840.53
195.36	2447.32
195.58	2553.82
195.80	2717.65
196.02	2629.59
196.24	2459.61
196.46	2557.91
196.69	2635.74
196.91	3039.19
197.13	2525.15
197.35	2555.86
197.57	2953.17
197.79	2844.63
198.01	2525.15
198.23	2564.06
198.45	2760.66
198.67	2541.53
198.89	2398.17
199.11	2629.59
199.33	2623.45
199.55	2455.51
199.77	2545.63
199.99	2576.34
200.21	2611.16
200.43	2789.33
200.65	2471.90
200.87	2373.60
201.09	2742.23
201.31	2715.61
201.53	2551.77
201.75	2629.59
201.97	2781.14
202.19	2756.57
202.41	2545.63
202.63	2654.17
202.85	2766.81
203.07	2748.37
203.29	2617.30
203.51	2414.56
203.73	2645.98
203.95	3123.15
204.17	2486.23
204.39	2682.84
204.61	2641.88
204.83	2662.36
205.05	2600.92
205.27	2506.71
205.49	3035.09
205.71	2658.26
205.93	2445.27
206.15	2432.99
206.37	2717.65
206.59	2688.98
206.81	2418.65
207.03	2457.56
207.25	2602.97
207.47	2693.08
207.69	2467.80
207.91	2713.56
208.13	2994.13
208.34	2598.87
208.56	2461.66
208.78	2494.43
209.00	2701.27
209.22	2607.06
209.44	2523.10
209.66	2512.86
209.88	2658.26
210.10	2588.63
210.32	2535.39
210.54	2553.82
210.76	2576.34
210.98	2879.44
211.20	2394.08
211.42	2596.82
211.64	2875.35
211.86	2752.47
212.08	2545.63
212.30	2512.86
212.52	2725.85
212.74	2731.99
212.96	2602.97
213.17	2584.54
213.39	2801.62
213.61	2965.46
213.83	2580.44
214.05	2353.12
214.27	2822.10
214.49	2547.67
214.71	2457.56
214.93	2652.12
215.15	2717.65
215.37	2799.57
215.59	2379.74
215.81	2631.64
216.03	2897.88
216.24	2707.41
216.46	2537.43
216.68	2510.81
216.90	2858.96
217.12	2871.25
217.34	2498.52
217.56	2617.30
217.78	2963.41
218.00	2779.09
218.22	2615.26
218.44	2600.92
218.66	2775.00
218.87	3035.09
219.09	2580.44
219.31	2506.71
219.53	2863.06
219.75	2654.17
219.97	2621.40
220.19	2510.81
220.41	2693.08
220.63	2967.51
220.85	2543.58
221.06	2512.86
221.28	2891.73
221.50	2844.63
221.72	2506.71
221.94	2523.10
222.16	2781.14
222.38	2842.58
222.60	2494.43
222.82	2545.63
223.03	2863.06
223.25	2559.96
223.47	2543.58
223.69	2758.61
223.91	2908.12
224.13	2775.00
224.35	2443.23
224.57	2641.88
224.78	2818.00
225.00	2631.64
225.22	2613.21
225.44	2508.76
225.66	2908.12
225.88	2625.50
226.10	2676.70
226.32	2488.28
226.53	3014.61
226.75	2680.79
226.97	2508.76
227.19	2519.00
227.41	2590.68
227.63	2686.94
227.85	2285.53
228.06	2539.48
228.28	2795.48
228.50	2811.86
228.72	2398.17
228.94	2506.71
229.16	2523.10
229.37	2586.58
229.59	2430.94
229.81	2719.70
230.03	2693.08
230.25	2588.63
230.47	2389.98
230.69	2478.04
230.90	2895.83
231.12	2641.88
231.34	2613.21
231.56	2564.06
231.78	2564.06
232.00	2705.37
232.21	2508.76
232.43	2482.14
232.65	2428.89
232.87	2824.15
233.09	2412.51
233.30	2498.52
233.52	2856.92
233.74	2740.18
233.96	2469.85
234.18	2629.59
234.40	2772.95
234.61	3041.23
234.83	2447.32
235.05	2535.39
235.27	3100.62
235.49	2965.46
235.70	2490.33
235.92	2598.87
236.14	2799.57
236.36	2998.23
236.58	2363.36
236.79	2652.12
237.01	2723.80
237.23	2744.28
237.45	2717.65
237.67	2529.24
237.88	2805.72
238.10	3051.47
238.32	2394.08
238.54	2428.89
238.76	2625.50
238.97	2600.92
239.19	2435.03
239.41	2629.59
239.63	2850.77
239.85	2645.98
240.06	2510.81
240.28	2537.43
240.50	2848.72
240.72	2688.98
240.93	2381.79
241.15	2580.44
241.37	2727.89
241.59	2967.51
241.81	2512.86
242.02	2584.54
242.24	2809.81
242.46	2748.37
242.68	2414.56
242.89	2420.70
243.11	2832.34
243.33	2723.80
243.55	2523.10
243.76	2461.66
243.98	2607.06
244.20	2736.09
244.42	2533.34
244.64	2506.71
244.85	2529.24
245.07	2684.89
245.29	2525.15
245.51	2600.92
245.72	2717.65
245.94	2887.64
246.16	2459.61
246.38	2478.04
246.59	2674.65
246.81	2711.51
247.03	2441.18
247.24	2396.12
247.46	2668.50
247.68	2705.37
247.90	2424.80
248.11	2537.43
248.33	2791.38
248.55	2656.22
248.77	2549.72
248.98	2594.78
249.20	2904.02
249.42	2822.10
249.64	2539.48
249.85	2445.27
250.07	2699.22
250.29	2807.77
250.50	2617.30
250.72	2482.14
250.94	2807.77
251.16	3006.42
251.37	2492.38
251.59	2584.54
251.81	2838.48
252.02	3022.80
252.24	2404.32
252.46	2650.07
252.68	2627.54
252.89	2641.88
253.11	2379.74
253.33	2713.56
253.54	2912.21
253.76	2484.19
253.98	2527.19
254.20	2471.90
254.41	2510.81
254.63	2625.50
254.85	2387.93
255.06	2564.06
255.28	2768.85
255.50	2637.78
255.71	2519.00
255.93	2392.03
256.15	2703.32
256.36	2818.00
256.58	2465.75
256.80	2523.10
257.02	2686.94
257.23	2711.51
257.45	2547.67
257.67	2600.92
257.88	2613.21
258.10	2807.77
258.32	2531.29
258.53	2523.10
258.75	2942.93
258.97	2607.06
259.18	2498.52
259.40	2424.80
259.62	2983.89
259.83	2965.46
260.05	2578.39
260.27	3209.17
260.48	2889.68
260.70	2488.28
260.92	2416.60
261.13	2568.15
261.35	2736.09
261.57	2693.08
261.78	2420.70
262.00	2469.85
262.22	2760.66
262.43	2617.30
262.65	2486.23
262.86	2539.48
263.08	3076.05
263.30	2740.18
263.51	2404.32
263.73	2482.14
263.95	2957.27
264.16	2621.40
264.38	2361.31
264.60	2498.52
264.81	2750.42
265.03	2832.34
265.25	2824.15
265.46	2545.63
265.68	2879.44
265.89	2723.80
266.11	2432.99
266.33	2506.71
266.54	2908.12
266.76	2826.20
266.98	2580.44
267.19	2611.16
267.41	2807.77
267.62	2727.89
267.84	2351.07
268.06	2682.84
268.27	2736.09
268.49	2852.82
268.70	2643.93
268.92	2555.86
269.14	2637.78
269.35	2475.99
269.57	2523.10
269.79	2559.96
270.00	2734.04
270.22	2987.99
270.43	2439.13
270.65	2387.93
270.87	2818.00
271.08	2901.97
271.30	2658.26
271.51	2549.72
271.73	2830.29
271.95	2863.06
272.16	2441.18
272.38	2664.41
272.59	2699.22
272.81	2826.20
273.02	2439.13
273.24	2627.54
273.46	2846.68
273.67	2596.82
273.89	2418.65
274.10	2545.63
274.32	2893.78
274.54	2785.24
274.75	2547.67
274.97	2459.61
275.18	2695.13
275.40	2725.85
275.61	2596.82
275.83	2582.49
276.05	2572.25
276.26	2731.99
276.48	2629.59
276.69	2555.86
276.91	2672.60
277.12	2963.41
277.34	2688.98
277.55	2709.46
277.77	2752.47
277.99	2621.40
278.20	2535.39
278.42	2404.32
278.63	2678.74
278.85	2549.72
279.06	2486.23
279.28	2715.61
279.49	2908.12
279.71	2820.05
279.93	2652.12
280.14	2645.98
280.36	2617.30
280.57	2871.25
280.79	2674.65
281.00	2504.67
281.22	2590.68
281.43	2895.83
281.65	2392.03
281.86	2529.24
282.08	2815.96
282.29	2949.08
282.51	2512.86
282.73	2457.56
282.94	2467.80
283.16	2772.95
283.37	2684.89
283.59	2633.69
283.80	2754.52
284.02	2688.98
284.23	2693.08
284.45	2592.73
284.66	2627.54
284.88	2529.24
285.09	2660.31
285.31	2725.85
285.52	2756.57
285.74	2453.47
285.95	2768.85
286.17	2748.37
286.38	2844.63
286.60	2613.21
286.81	2547.67
287.03	2529.24
287.24	2717.65
287.46	2770.90
287.67	2695.13
287.89	2846.68
288.10	2746.33
288.32	2684.89
288.53	2762.71
288.75	2621.40
288.96	2826.20
289.18	2674.65
289.39	2521.05
289.61	2701.27
289.82	3020.75
290.04	2965.46
290.25	2494.43
290.47	2654.17
290.68	2746.33
290.90	2764.76
291.11	2424.80
291.33	2695.13
291.54	2686.94
291.76	2674.65
291.97	2682.84
292.18	2678.74
292.40	2688.98
292.61	2686.94
292.83	2879.44
293.04	2596.82
293.26	2811.86
293.47	2639.83
293.69	2547.67
293.90	2523.10
294.12	2844.63
294.33	2674.65
294.55	2635.74
294.76	2711.51
294.97	2904.02
295.19	3082.19
295.40	2574.30
295.62	2674.65
295.83	2877.40
296.05	2658.26
296.26	2775.00
296.48	2590.68
296.69	2783.19
296.90	2711.51
297.12	2736.09
297.33	2768.85
297.55	2678.74
297.76	2719.70
297.98	2772.95
298.19	2717.65
298.41	2717.65
298.62	2557.91
298.83	2746.33
299.05	2650.07
299.26	2680.79
299.48	2572.25
299.69	2678.74
299.90	2580.44
300.12	2568.15
300.33	2781.14
300.55	2656.22
300.76	2715.61
300.98	2572.25
301.19	2822.10
301.40	2562.01
301.62	2650.07
301.83	2824.15
302.05	2785.24
302.26	2584.54
302.47	2719.70
302.69	2613.21
302.90	2781.14
303.12	2482.14
303.33	2719.70
303.54	2979.79
303.76	2727.89
303.97	2613.21
304.19	2750.42
304.40	2607.06
304.61	2801.62
304.83	2731.99
305.04	2670.55
305.26	2840.53
305.47	2662.36
305.68	2594.78
305.90	2502.62
306.11	2867.16
306.33	2648.02
306.54	2525.15
306.75	2605.02
306.97	2512.86
307.18	2629.59
307.39	2576.34
307.61	2662.36
307.82	2672.60
308.04	2746.33
308.25	2488.28
308.46	2729.94
308.68	2666.46
308.89	2629.59
309.10	2719.70
309.32	2641.88
309.53	2727.89
309.74	2824.15
309.96	2539.48
310.17	2725.85
310.39	2652.12
310.60	2871.25
310.81	2684.89
311.03	2465.75
311.24	2787.29
311.45	2684.89
311.67	2897.88
311.88	2686.94
312.09	2611.16
312.31	2586.58
312.52	2547.67
312.73	2572.25
312.95	2586.58
313.16	2596.82
313.37	2715.61
313.59	2756.57
313.80	2891.73
314.01	3037.14
314.23	2588.63
314.44	2596.82
314.65	2557.91
314.87	2557.91
315.08	2621.40
315.29	2478.04
315.51	2564.06
315.72	2486.23
315.93	2652.12
316.15	2682.84
316.36	2666.46
316.57	2756.57
316.79	2686.94
317.00	2621.40
317.21	2764.76
317.43	2582.49
317.64	2582.49
317.85	2484.19
318.07	2621.40
318.28	2582.49
318.49	2777.05
318.70	2811.86
318.92	2801.62
319.13	2840.53
319.34	2797.53
319.56	2643.93
319.77	2760.66
319.98	2848.72
320.20	2693.08
320.41	2750.42
320.62	2791.38
320.83	2582.49
321.05	2863.06
321.26	2672.60
321.47	2736.09
321.69	2869.20
321.90	2531.29
322.11	2598.87
322.32	2744.28
322.54	2889.68
322.75	2557.91
322.96	3219.41
323.18	2529.24
323.39	2445.27
323.60	2523.10
323.81	2775.00
324.03	2631.64
324.24	2643.93
324.45	2660.31
324.66	2586.58
324.88	2877.40
325.09	2985.94
325.30	2584.54
325.52	2631.64
325.73	2754.52
325.94	2566.10
326.15	2428.89
326.37	2539.48
326.58	2799.57
326.79	2904.02
327.00	2531.29
327.22	2592.73
327.43	2693.08
327.64	2594.78
327.85	2715.61
328.07	2660.31
328.28	2947.03
328.49	2590.68
328.70	2617.30
328.92	2594.78
329.13	2678.74
329.34	2803.67
329.55	2797.53
329.76	2791.38
329.98	2617.30
330.19	2932.69
330.40	2748.37
330.61	2699.22
330.83	2789.33
331.04	2623.45
331.25	2701.27
331.46	2613.21
331.68	2607.06
331.89	2873.30
332.10	2609.11
332.31	2535.39
332.52	2777.05
332.74	2820.05
332.95	2439.13
333.16	2521.05
333.37	2838.48
333.58	2629.59
333.80	2621.40
334.01	2453.47
334.22	2674.65
334.43	2625.50
334.64	2539.48
334.86	2502.62
335.07	2531.29
335.28	2959.31
335.49	2447.32
335.70	2715.61
335.92	2887.64
336.13	3002.32
336.34	2664.41
336.55	2625.50
336.76	2850.77
336.98	2471.90
337.19	2658.26
337.40	2740.18
337.61	3157.97
337.82	2684.89
338.04	2713.56
338.25	2402.27
338.46	2691.03
338.67	2670.55
338.88	2488.28
339.09	2482.14
339.31	2674.65
339.52	2619.35
339.73	2490.33
339.94	2752.47
340.15	2852.82
340.36	2615.26
340.58	2600.92
340.79	2633.69
341.00	2807.77
341.21	2619.35
341.42	2803.67
341.63	2607.06
341.85	2850.77
342.06	2752.47
342.27	2568.15
342.48	2729.94
342.69	2496.47
342.90	2766.81
343.12	2766.81
343.33	2527.19
343.54	2879.44
343.75	2895.83
343.96	2723.80
344.17	2496.47
344.38	2711.51
344.60	2672.60
344.81	2570.20
345.02	2557.91
345.23	2932.69
345.44	3160.02
345.65	2672.60
345.86	2699.22
346.07	2748.37
346.29	2588.63
346.50	2670.55
346.71	2723.80
346.92	2926.55
347.13	3059.67
347.34	2719.70
347.55	2478.04
347.76	2813.91
347.98	2553.82
348.19	2641.88
348.40	2789.33
348.61	2605.02
348.82	2856.92
349.03	2578.39
349.24	2559.96
349.45	3004.37
349.66	2453.47
349.88	2547.67
350.09	2478.04
350.30	3016.66
350.51	2949.08
350.72	2666.46
350.93	2656.22
351.14	2615.26
351.35	2748.37
351.56	2645.98
351.77	2648.02
351.99	2760.66
352.20	3000.27
352.41	2666.46
352.62	2471.90
352.83	2678.74
353.04	2744.28
353.25	2523.10
353.46	2678.74
353.67	2879.44
353.88	2443.23
354.09	2607.06
354.30	2588.63
354.52	2818.00
354.73	2777.05
354.94	2596.82
355.15	2680.79
355.36	3016.66
355.57	2611.16
355.78	2553.82
355.99	2602.97
356.20	2750.42
356.41	2901.97
356.62	2648.02
356.83	2662.36
357.04	2904.02
357.25	2506.71
357.46	2482.14
357.68	2568.15
357.89	2570.20
358.10	2725.85
358.31	2643.93
358.52	2590.68
358.73	2588.63
358.94	2545.63
359.15	2631.64
359.36	2715.61
359.57	2695.13
359.78	2684.89
359.99	2789.33
360.20	2533.34
360.41	2701.27
360.62	2836.44
360.83	2645.98
361.04	2588.63
361.25	2775.00
361.46	2969.55
361.67	2768.85
361.88	2723.80
362.09	2875.35
362.30	2725.85
362.51	2506.71
362.72	2668.50
362.93	2826.20
363.14	2844.63
363.35	2777.05
363.56	2516.95
363.78	2840.53
363.99	2873.30
364.20	2633.69
364.41	2676.70
364.62	2926.55
364.83	2719.70
365.04	2658.26
365.25	2641.88
365.46	3104.72
365.67	2562.01
365.88	2701.27
366.09	2576.34
366.30	2629.59
366.51	2805.72
366.72	2506.71
366.93	2594.78
367.14	2740.18
367.35	2908.12
367.56	2551.77
367.77	2781.14
367.98	2711.51
368.18	2715.61
368.39	2613.21
368.60	2492.38
368.81	2830.29
369.02	2740.18
369.23	2639.83
369.44	2510.81
369.65	2627.54
369.86	2768.85
370.07	2731.99
370.28	2551.77
370.49	2832.34
370.70	2738.13
370.91	2510.81
371.12	2482.14
371.33	2869.20
371.54	2643.93
371.75	2760.66
371.96	2385.88
372.17	2736.09
372.38	2723.80
372.59	2695.13
372.80	2576.34
373.01	2709.46
373.22	2715.61
373.43	2676.70
373.64	2494.43
373.85	2904.02
374.06	3010.51
374.26	2752.47
374.47	2691.03
374.68	2871.25
374.89	2750.42
375.10	2605.02
375.31	2707.41
375.52	2731.99
375.73	2723.80
375.94	2506.71
376.15	2748.37
376.36	2654.17
376.57	2705.37
376.78	2564.06
376.99	2635.74
377.20	2873.30
377.40	2641.88
377.61	2854.87
377.82	2572.25
378.03	2942.93
378.24	2822.10
378.45	2654.17
378.66	2652.12
378.87	2473.95
379.08	2519.00
379.29	2643.93
379.50	2791.38
379.71	2660.31
379.91	2807.77
380.12	2654.17
380.33	2643.93
380.54	2619.35
380.75	2717.65
380.96	2611.16
381.17	2643.93
381.38	2658.26
381.59	2731.99
381.80	2633.69
382.00	2772.95
382.21	2764.76
382.42	2998.23
382.63	3012.56
382.84	2818.00
383.05	2891.73
383.26	2912.21
383.47	2668.50
383.68	2609.11
383.88	2856.92
384.09	2654.17
384.30	2793.43
384.51	2699.22
384.72	2691.03
384.93	2551.77
385.14	2678.74
385.35	2740.18
385.55	2545.63
385.76	2897.88
385.97	2602.97
386.18	2484.19
386.39	2592.73
386.60	2723.80
386.81	2629.59
387.02	2437.08
387.22	2578.39
387.43	2805.72
387.64	2738.13
387.85	2885.59
388.06	2815.96
388.27	3985.35
388.48	7362.45
388.68	11032.41
388.89	13270.84
389.10	14333.73
389.31	13987.63
389.52	10921.82
389.73	9381.74
389.93	8503.17
390.14	7798.66
390.35	7042.96
390.56	6348.70
390.77	5269.42
390.98	4054.98
391.18	3375.05
391.39	3086.29
391.60	2826.20
391.81	2826.20
392.02	2697.17
392.23	3043.28
392.43	2772.95
392.64	2772.95
392.85	2678.74
393.06	2908.12
393.27	2660.31
393.47	2555.86
393.68	2688.98
393.89	2697.17
394.10	2908.12
394.31	2568.15
394.52	2551.77
394.72	2633.69
394.93	2973.65
395.14	2506.71
395.35	2707.41
395.56	2641.88
395.76	2742.23
395.97	2693.08
396.18	2772.95
396.39	2803.67
396.60	3207.12
396.80	2901.97
397.01	2936.79
397.22	2832.34
397.43	2897.88
397.64	2598.87
397.84	2801.62
398.05	3078.10
398.26	2686.94
398.47	2715.61
398.67	2715.61
398.88	2705.37
399.09	2801.62
399.30	2600.92
399.51	2691.03
399.71	2559.96
399.92	2691.03
400.13	2686.94
400.34	2605.02
400.54	2760.66
400.75	3035.09
400.96	2734.04
401.17	2856.92
401.37	2834.39
401.58	2701.27
401.79	2602.97
402.00	2770.90
402.21	3078.10
402.41	2965.46
402.62	2916.31
402.83	2990.03
403.04	3030.99
403.24	3395.53
403.45	2666.46
403.66	2924.50
403.87	2916.31
404.07	3022.80
404.28	2875.35
404.49	2805.72
404.70	2686.94
404.90	2781.14
405.11	2641.88
405.32	2719.70
405.52	2660.31
405.73	2713.56
405.94	2555.86
406.15	2650.07
406.35	2875.35
406.56	2836.44
406.77	2742.23
406.98	2641.88
407.18	2648.02
407.39	2969.55
407.60	2686.94
407.80	2680.79
408.01	2658.26
408.22	2789.33
408.43	2494.43
408.63	2744.28
408.84	2848.72
409.05	2818.00
409.25	2568.15
409.46	2559.96
409.67	2623.45
409.88	2621.40
410.08	2678.74
410.29	2623.45
410.50	2834.39
410.70	2779.09
410.91	2533.34
411.12	2686.94
411.32	2799.57
411.53	2611.16
411.74	2674.65
411.95	2660.31
412.15	2777.05
412.36	2904.02
412.57	2738.13
412.77	2822.10
412.98	2633.69
413.19	2600.92
413.39	2666.46
413.60	2688.98
413.81	2887.64
414.01	2486.23
414.22	2711.51
414.43	2807.77
414.63	2637.78
414.84	2914.26
415.05	2670.55
415.25	2482.14
415.46	2865.11
415.67	2684.89
415.87	2752.47
416.08	2645.98
416.29	2695.13
416.49	2824.15
416.70	2643.93
416.91	2566.10
417.11	2736.09
417.32	2904.02
417.53	2768.85
417.73	2801.62
417.94	2725.85
418.15	2703.32
418.35	2719.70
418.56	2672.60
418.77	3071.95
418.97	2738.13
419.18	2701.27
419.38	2349.02
419.59	2717.65
419.80	2947.03
420.00	2545.63
420.21	2617.30
420.42	2858.96
420.62	2688.98
420.83	2645.98
421.04	2566.10
421.24	2691.03
421.45	2916.31
421.65	2752.47
421.86	2666.46
422.07	2805.72
422.27	2805.72
422.48	2611.16
422.69	2564.06
422.89	2699.22
423.10	2662.36
423.30	2592.73
423.51	2719.70
423.72	2760.66
423.92	2809.81
424.13	2475.99
424.33	2746.33
424.54	2889.68
424.75	2770.90
424.95	2832.34
425.16	2611.16
425.36	2725.85
425.57	2852.82
425.78	2752.47
425.98	2734.04
426.19	2717.65
426.39	2596.82
426.60	2693.08
426.81	2795.48
427.01	2725.85
427.22	2607.06
427.42	2510.81
427.63	2576.34
427.83	2867.16
428.04	2926.55
428.25	2725.85
428.45	2783.19
428.66	2846.68
428.86	2650.07
429.07	2609.11
429.28	2672.60
429.48	2633.69
429.69	2658.26
429.89	2688.98
430.10	2553.82
430.30	2877.40
430.51	2897.88
430.71	2543.58
430.92	2736.09
431.13	2727.89
431.33	2766.81
431.54	2764.76
431.74	2863.06
431.95	3069.91
432.15	2559.96
432.36	2592.73
432.56	2658.26
432.77	2924.50
432.98	2920.40
433.18	2691.03
433.39	2559.96
433.59	2688.98
433.80	2983.89
434.00	2811.86
434.21	2666.46
434.41	2619.35
434.62	3147.73
434.82	2512.86
435.03	2523.10
435.23	2764.76
435.44	2516.95
435.64	2619.35
435.85	2662.36
436.06	2824.15
436.26	2852.82
436.47	2648.02
436.67	2508.76
436.88	2725.85
437.08	2840.53
437.29	2795.48
437.49	2717.65
437.70	2992.08
437.90	2746.33
438.11	2815.96
438.31	2664.41
438.52	2883.54
438.72	2897.88
438.93	2936.79
439.13	2766.81
439.34	2842.58
439.54	2658.26
439.75	2781.14
439.95	2828.24
440.16	2584.54
440.36	2795.48
440.57	2797.53
440.77	2709.46
440.98	2697.17
441.18	2781.14
441.39	2572.25
441.59	2541.53
441.80	2922.45
442.00	2693.08
442.21	2891.73
442.41	2465.75
442.62	2852.82
442.82	2641.88
443.02	2627.54
443.23	2652.12
443.43	2654.17
443.64	2867.16
443.84	2629.59
444.05	2832.34
444.25	2693.08
444.46	2674.65
444.66	2654.17
444.87	2869.20
445.07	2547.67
445.28	2723.80
445.48	2858.96
445.69	2688.98
445.89	3033.04
446.09	2742.23
446.30	2920.40
446.50	3067.86
446.71	4489.15
446.91	5787.56
447.12	6426.53
447.32	6766.49
447.53	6504.35
447.73	5408.69
447.93	4827.06
448.14	4622.27
448.34	4493.24
448.55	3917.76
448.75	3839.94
448.96	3569.61
449.16	3299.28
449.36	3203.02
449.57	2885.59
449.77	2775.00
449.98	2717.65
450.18	2865.11
450.39	2615.26
450.59	2811.86
450.79	2695.13
451.00	2627.54
451.20	2867.16
451.41	2717.65
451.61	2756.57
451.81	2666.46
452.02	2574.30
452.22	2668.50
452.43	2627.54
452.63	2572.25
