SpectraSuite Data File
++++++++++++++++++++++++++++++++++++
Date: Thu May 05 16:20:46 CEST 2016
User: root
Dark Spectrum Present: No
Reference Spectrum Present: No
Number of Sampled Component Spectra: 1
Spectrometers: USB4C02835
Integration Time (usec): 100000 (USB4C02835)
Spectra Averaged: 1 (USB4C02835)
Boxcar Smoothing: 0 (USB4C02835)
Correct for Electrical Dark: No (USB4C02835)
Strobe/Lamp Enabled: No (USB4C02835)
Correct for Detector Non-linearity: No (USB4C02835)
Correct for Stray Light: No (USB4C02835)
Number of Pixels in Processed Spectrum: 3648
>>>>>Begin Processed Spectral Data<<<<<
177.47	2088.93
177.69	2088.93
177.91	2088.93
178.13	1957.86
178.36	2047.97
178.58	2572.25
178.80	2740.18
179.02	2553.82
179.24	2588.63
179.46	2482.14
179.68	2584.54
179.90	2729.94
180.13	2785.24
180.35	2457.56
180.57	2498.52
180.79	2842.58
181.01	2641.88
181.23	2535.39
181.45	2674.65
181.67	2826.20
181.90	2838.48
182.12	2531.29
182.34	2420.70
182.56	2783.19
182.78	2760.66
183.00	2465.75
183.22	2539.48
183.44	2418.65
183.66	3194.83
183.89	2645.98
184.11	2478.04
184.33	2856.92
184.55	2891.73
184.77	2600.92
184.99	2559.96
185.21	2723.80
185.43	3035.09
185.65	2453.47
185.87	2449.37
186.10	3014.61
186.32	3092.43
186.54	2588.63
186.76	2527.19
186.98	2875.35
187.20	2662.36
187.42	2543.58
187.64	2557.91
187.86	2760.66
188.08	2932.69
188.30	2490.33
188.52	2559.96
188.75	2899.92
188.97	2932.69
189.19	2529.24
189.41	2457.56
189.63	2727.89
189.85	2631.64
190.07	2396.12
190.29	2373.60
190.51	2815.96
190.73	2568.15
190.95	2768.85
191.17	2486.23
191.39	2475.99
191.61	2713.56
191.84	2492.38
192.06	2564.06
192.28	2478.04
192.50	3155.92
192.72	2619.35
192.94	2525.15
193.16	2867.16
193.38	2721.75
193.60	2498.52
193.82	2676.70
194.04	2899.92
194.26	2656.22
194.48	2504.67
194.70	2531.29
194.92	2664.41
195.14	2813.91
195.36	2414.56
195.58	2516.95
195.80	2662.36
196.02	2682.84
196.24	2527.19
196.46	2557.91
196.69	2656.22
196.91	3041.23
197.13	2633.69
197.35	2691.03
197.57	3012.56
197.79	2781.14
198.01	2660.31
198.23	2621.40
198.45	2695.13
198.67	2500.57
198.89	2435.03
199.11	2627.54
199.33	2596.82
199.55	2410.46
199.77	2512.86
199.99	2609.11
200.21	2635.74
200.43	2762.71
200.65	2455.51
200.87	2355.16
201.09	2621.40
201.31	2674.65
201.53	2521.05
201.75	2582.49
201.97	2768.85
202.19	2783.19
202.41	2580.44
202.63	2688.98
202.85	2787.29
203.07	2854.87
203.29	2529.24
203.51	2371.55
203.73	2605.02
203.95	3139.54
204.17	2504.67
204.39	2602.97
204.61	2693.08
204.83	2750.42
205.05	2629.59
205.27	2525.15
205.49	3022.80
205.71	2744.28
205.93	2389.98
206.15	2463.71
206.37	2826.20
206.59	2766.81
206.81	2303.96
207.03	2469.85
207.25	2611.16
207.47	2830.29
207.69	2447.32
207.91	2713.56
208.13	2971.60
208.34	2557.91
208.56	2521.05
208.78	2619.35
209.00	2719.70
209.22	2635.74
209.44	2584.54
209.66	2537.43
209.88	2772.95
210.10	2602.97
210.32	2527.19
210.54	2572.25
210.76	2695.13
210.98	2836.44
211.20	2330.59
211.42	2598.87
211.64	2928.60
211.86	2836.44
212.08	2605.02
212.30	2533.34
212.52	2652.12
212.74	2764.76
212.96	2623.45
213.17	2625.50
213.39	2777.05
213.61	2967.51
213.83	2527.19
214.05	2418.65
214.27	2832.34
214.49	2543.58
214.71	2457.56
214.93	2641.88
215.15	2686.94
215.37	2856.92
215.59	2310.11
215.81	2605.02
216.03	2856.92
216.24	2856.92
216.46	2506.71
216.68	2572.25
216.90	2854.87
217.12	2861.01
217.34	2455.51
217.56	2627.54
217.78	2906.07
218.00	2815.96
218.22	2564.06
218.44	2545.63
218.66	2785.24
218.87	2953.17
219.09	2482.14
219.31	2494.43
219.53	2682.84
219.75	2656.22
219.97	2527.19
220.19	2449.37
220.41	2680.79
220.63	3016.66
220.85	2590.68
221.06	2510.81
221.28	2924.50
221.50	2842.58
221.72	2490.33
221.94	2482.14
222.16	2684.89
222.38	2840.53
222.60	2582.49
222.82	2537.43
223.03	2852.82
223.25	2592.73
223.47	2506.71
223.69	2660.31
223.91	2899.92
224.13	2717.65
224.35	2459.61
224.57	2686.94
224.78	2783.19
225.00	2553.82
225.22	2555.86
225.44	2551.77
225.66	2777.05
225.88	2586.58
226.10	2605.02
226.32	2512.86
226.53	2957.27
226.75	2648.02
226.97	2635.74
227.19	2562.01
227.41	2600.92
227.63	2670.55
227.85	2334.68
228.06	2545.63
228.28	2705.37
228.50	2875.35
228.72	2443.23
228.94	2400.22
229.16	2424.80
229.37	2625.50
229.59	2490.33
229.81	2699.22
230.03	2703.32
230.25	2531.29
230.47	2373.60
230.69	2453.47
230.90	2777.05
231.12	2551.77
231.34	2580.44
231.56	2582.49
231.78	2496.47
232.00	2676.70
232.21	2463.71
232.43	2504.67
232.65	2349.02
232.87	2777.05
233.09	2402.27
233.30	2576.34
233.52	2858.96
233.74	2803.67
233.96	2508.76
234.18	2639.83
234.40	2613.21
234.61	3092.43
234.83	2504.67
235.05	2424.80
235.27	3110.86
235.49	2854.87
235.70	2418.65
235.92	2607.06
236.14	2856.92
236.36	3067.86
236.58	2346.97
236.79	2566.10
237.01	2777.05
237.23	2727.89
237.45	2713.56
237.67	2541.53
237.88	2848.72
238.10	2955.22
238.32	2449.37
238.54	2514.91
238.76	2725.85
238.97	2557.91
239.19	2447.32
239.41	2615.26
239.63	2807.77
239.85	2682.84
240.06	2580.44
240.28	2533.34
240.50	2838.48
240.72	2748.37
240.93	2445.27
241.15	2584.54
241.37	2717.65
241.59	2883.54
241.81	2566.10
242.02	2551.77
242.24	2775.00
242.46	2899.92
242.68	2502.62
242.89	2543.58
243.11	2842.58
243.33	2648.02
243.55	2535.39
243.76	2516.95
243.98	2572.25
244.20	2678.74
244.42	2482.14
244.64	2578.39
244.85	2602.97
245.07	2600.92
245.29	2568.15
245.51	2498.52
245.72	2676.70
245.94	2891.73
246.16	2576.34
246.38	2635.74
246.59	2691.03
246.81	2605.02
247.03	2506.71
247.24	2324.44
247.46	2645.98
247.68	2703.32
247.90	2531.29
248.11	2537.43
248.33	2850.77
248.55	2793.43
248.77	2525.15
248.98	2611.16
249.20	3018.71
249.42	2711.51
249.64	2559.96
249.85	2525.15
250.07	2695.13
250.29	2891.73
250.50	2654.17
250.72	2443.23
250.94	2779.09
251.16	2959.31
251.37	2580.44
251.59	2574.30
251.81	2844.63
252.02	2969.55
252.24	2492.38
252.46	2584.54
252.68	2678.74
252.89	2721.75
253.11	2330.59
253.33	2664.41
253.54	2899.92
253.76	2551.77
253.98	2510.81
254.20	2514.91
254.41	2512.86
254.63	2605.02
254.85	2416.60
255.06	2568.15
255.28	2777.05
255.50	2645.98
255.71	2473.95
255.93	2432.99
256.15	2641.88
256.36	2707.41
256.58	2377.69
256.80	2516.95
257.02	2729.94
257.23	2643.93
257.45	2510.81
257.67	2543.58
257.88	2686.94
258.10	2822.10
258.32	2551.77
258.53	2574.30
258.75	2930.64
258.97	2670.55
259.18	2463.71
259.40	2506.71
259.62	2969.55
259.83	2940.88
260.05	2521.05
260.27	3147.73
260.48	2881.49
260.70	2588.63
260.92	2430.94
261.13	2478.04
261.35	2801.62
261.57	2850.77
261.78	2396.12
262.00	2455.51
262.22	2824.15
262.43	2635.74
262.65	2535.39
262.86	2533.34
263.08	3074.00
263.30	2781.14
263.51	2349.02
263.73	2504.67
263.95	2928.60
264.16	2592.73
264.38	2404.32
264.60	2453.47
264.81	2766.81
265.03	2877.40
265.25	2758.61
265.46	2490.33
265.68	2897.88
265.89	2820.05
266.11	2457.56
266.33	2480.09
266.54	2893.78
266.76	2752.47
266.98	2637.78
267.19	2629.59
267.41	2916.31
267.62	2717.65
267.84	2377.69
268.06	2645.98
268.27	2768.85
268.49	2850.77
268.70	2602.97
268.92	2615.26
269.14	2725.85
269.35	2525.15
269.57	2590.68
269.79	2637.78
270.00	2555.86
270.22	3002.32
270.43	2478.04
270.65	2408.41
270.87	2756.57
271.08	2899.92
271.30	2596.82
271.51	2523.10
271.73	2828.24
271.95	2961.36
272.16	2473.95
272.38	2625.50
272.59	2645.98
272.81	2799.57
273.02	2447.32
273.24	2592.73
273.46	2818.00
273.67	2506.71
273.89	2412.51
274.10	2480.09
274.32	2940.88
274.54	2760.66
274.75	2621.40
274.97	2598.87
275.18	2867.16
275.40	2826.20
275.61	2559.96
275.83	2711.51
276.05	2607.06
276.26	2756.57
276.48	2586.58
276.69	2582.49
276.91	2602.97
277.12	2936.79
277.34	2686.94
277.55	2740.18
277.77	2705.37
277.99	2703.32
278.20	2566.10
278.42	2543.58
278.63	2572.25
278.85	2578.39
279.06	2588.63
279.28	2691.03
279.49	2932.69
279.71	2815.96
279.93	2719.70
280.14	2648.02
280.36	2596.82
280.57	2754.52
280.79	2701.27
281.00	2482.14
281.22	2639.83
281.43	2920.40
281.65	2449.37
281.86	2547.67
282.08	2813.91
282.29	3059.67
282.51	2525.15
282.73	2494.43
282.94	2488.28
283.16	2901.97
283.37	2723.80
283.59	2648.02
283.80	2830.29
284.02	2758.61
284.23	2641.88
284.45	2637.78
284.66	2555.86
284.88	2537.43
285.09	2605.02
285.31	2641.88
285.52	2799.57
285.74	2475.99
285.95	2723.80
286.17	2621.40
286.38	2871.25
286.60	2613.21
286.81	2580.44
287.03	2613.21
287.24	2719.70
287.46	2838.48
287.67	2670.55
287.89	2758.61
288.10	2760.66
288.32	2760.66
288.53	2785.24
288.75	2709.46
288.96	2848.72
289.18	2625.50
289.39	2547.67
289.61	2635.74
289.82	3049.43
290.04	3022.80
290.25	2498.52
290.47	2627.54
290.68	2717.65
290.90	2893.78
291.11	2463.71
291.33	2768.85
291.54	2539.48
291.76	2645.98
291.97	2738.13
292.18	2719.70
292.40	2600.92
292.61	2570.20
292.83	2826.20
293.04	2705.37
293.26	2818.00
293.47	2611.16
293.69	2613.21
293.90	2582.49
294.12	2920.40
294.33	2682.84
294.55	2637.78
294.76	2834.39
294.97	2947.03
295.19	3030.99
295.40	2627.54
295.62	2652.12
295.83	2867.16
296.05	2555.86
296.26	2750.42
296.48	2656.22
296.69	2684.89
296.90	2725.85
297.12	2787.29
297.33	2715.61
297.55	2701.27
297.76	2834.39
297.98	2785.24
298.19	2701.27
298.41	2719.70
298.62	2525.15
298.83	2777.05
299.05	2693.08
299.26	2641.88
299.48	2643.93
299.69	2656.22
299.90	2617.30
300.12	2555.86
300.33	2828.24
300.55	2596.82
300.76	2691.03
300.98	2539.48
301.19	2830.29
301.40	2625.50
301.62	2559.96
301.83	2807.77
302.05	2727.89
302.26	2664.41
302.47	2641.88
302.69	2576.34
302.90	2772.95
303.12	2418.65
303.33	2652.12
303.54	3055.57
303.76	2664.41
303.97	2674.65
304.19	2856.92
304.40	2572.25
304.61	2854.87
304.83	2791.38
305.04	2721.75
305.26	2793.43
305.47	2654.17
305.68	2582.49
305.90	2545.63
306.11	2861.01
306.33	2654.17
306.54	2545.63
306.75	2531.29
306.97	2602.97
307.18	2596.82
307.39	2521.05
307.61	2691.03
307.82	2736.09
308.04	2791.38
308.25	2572.25
308.46	2705.37
308.68	2791.38
308.89	2729.94
309.10	2711.51
309.32	2691.03
309.53	2760.66
309.74	2815.96
309.96	2607.06
310.17	2785.24
310.39	2629.59
310.60	2863.06
310.81	2719.70
311.03	2539.48
311.24	2799.57
311.45	2613.21
311.67	2805.72
311.88	2648.02
312.09	2715.61
312.31	2564.06
312.52	2613.21
312.73	2584.54
312.95	2465.75
313.16	2553.82
313.37	2758.61
313.59	2752.47
313.80	2795.48
314.01	3020.75
314.23	2547.67
314.44	2531.29
314.65	2564.06
314.87	2559.96
315.08	2662.36
315.29	2623.45
315.51	2521.05
315.72	2498.52
315.93	2729.94
316.15	2680.79
316.36	2652.12
316.57	2672.60
316.79	2621.40
317.00	2506.71
317.21	2856.92
317.43	2637.78
317.64	2605.02
317.85	2576.34
318.07	2662.36
318.28	2639.83
318.49	2711.51
318.70	2842.58
318.92	2797.53
319.13	2781.14
319.34	2762.71
319.56	2656.22
319.77	2854.87
319.98	2824.15
320.20	2842.58
320.41	2738.13
320.62	2836.44
320.83	2559.96
321.05	2856.92
321.26	2678.74
321.47	2748.37
321.69	2815.96
321.90	2514.91
322.11	2615.26
322.32	2809.81
322.54	2971.60
322.75	2588.63
322.96	3145.68
323.18	2494.43
323.39	2428.89
323.60	2512.86
323.81	2703.32
324.03	2674.65
324.24	2715.61
324.45	2748.37
324.66	2623.45
324.88	2832.34
325.09	2883.54
325.30	2566.10
325.52	2627.54
325.73	2768.85
325.94	2598.87
326.15	2475.99
326.37	2562.01
326.58	2844.63
326.79	2920.40
327.00	2471.90
327.22	2705.37
327.43	2723.80
327.64	2672.60
327.85	2742.23
328.07	2627.54
328.28	3010.51
328.49	2600.92
328.70	2621.40
328.92	2639.83
329.13	2723.80
329.34	2695.13
329.55	2787.29
329.76	2752.47
329.98	2705.37
330.19	2887.64
330.40	2648.02
330.61	2670.55
330.83	2787.29
331.04	2594.78
331.25	2670.55
331.46	2611.16
331.68	2527.19
331.89	2901.97
332.10	2594.78
332.31	2564.06
332.52	2723.80
332.74	2822.10
332.95	2437.08
333.16	2527.19
333.37	2822.10
333.58	2656.22
333.80	2623.45
334.01	2469.85
334.22	2645.98
334.43	2494.43
334.64	2537.43
334.86	2566.10
335.07	2553.82
335.28	2957.27
335.49	2480.09
335.70	2676.70
335.92	2910.16
336.13	3061.71
336.34	2748.37
336.55	2639.83
336.76	2768.85
336.98	2473.95
337.19	2629.59
337.40	2801.62
337.61	3125.20
337.82	2750.42
338.04	2752.47
338.25	2482.14
338.46	2764.76
338.67	2713.56
338.88	2521.05
339.09	2553.82
339.31	2619.35
339.52	2494.43
339.73	2541.53
339.94	2627.54
340.15	2834.39
340.36	2641.88
340.58	2631.64
340.79	2559.96
341.00	2854.87
341.21	2609.11
341.42	2799.57
341.63	2574.30
341.85	2856.92
342.06	2727.89
342.27	2541.53
342.48	2781.14
342.69	2519.00
342.90	2736.09
343.12	2856.92
343.33	2570.20
343.54	2877.40
343.75	2926.55
343.96	2637.78
344.17	2676.70
344.38	2711.51
344.60	2650.07
344.81	2543.58
345.02	2553.82
345.23	2891.73
345.44	3084.24
345.65	2695.13
345.86	2648.02
346.07	2766.81
346.29	2633.69
346.50	2744.28
346.71	2676.70
346.92	2916.31
347.13	3143.63
347.34	2676.70
347.55	2533.34
347.76	2772.95
347.98	2543.58
348.19	2621.40
348.40	2809.81
348.61	2631.64
348.82	2947.03
349.03	2688.98
349.24	2588.63
349.45	3002.32
349.66	2465.75
349.88	2639.83
350.09	2627.54
350.30	2899.92
350.51	2828.24
350.72	2676.70
350.93	2596.82
351.14	2613.21
351.35	2803.67
351.56	2660.31
351.77	2600.92
351.99	2846.68
352.20	2947.03
352.41	2740.18
352.62	2342.88
352.83	2668.50
353.04	2713.56
353.25	2594.78
353.46	2672.60
353.67	2891.73
353.88	2445.27
354.09	2576.34
354.30	2629.59
354.52	2854.87
354.73	2668.50
354.94	2559.96
355.15	2617.30
355.36	2996.18
355.57	2625.50
355.78	2615.26
355.99	2662.36
356.20	2637.78
356.41	2944.98
356.62	2637.78
356.83	2639.83
357.04	2877.40
357.25	2514.91
357.46	2633.69
357.68	2519.00
357.89	2613.21
358.10	2650.07
358.31	2723.80
358.52	2590.68
358.73	2553.82
358.94	2510.81
359.15	2600.92
359.36	2674.65
359.57	2643.93
359.78	2729.94
359.99	2709.46
360.20	2525.15
360.41	2666.46
360.62	2840.53
360.83	2654.17
361.04	2590.68
361.25	2686.94
361.46	2926.55
361.67	2738.13
361.88	2613.21
362.09	2830.29
362.30	2772.95
362.51	2564.06
362.72	2652.12
362.93	2815.96
363.14	2772.95
363.35	2688.98
363.56	2510.81
363.78	2785.24
363.99	2885.59
364.20	2613.21
364.41	2670.55
364.62	2930.64
364.83	2750.42
365.04	2576.34
365.25	2652.12
365.46	3035.09
365.67	2580.44
365.88	2742.23
366.09	2588.63
366.30	2664.41
366.51	2768.85
366.72	2533.34
366.93	2613.21
367.14	2719.70
367.35	2836.44
367.56	2549.72
367.77	2727.89
367.98	2725.85
368.18	2691.03
368.39	2715.61
368.60	2459.61
368.81	2824.15
369.02	2865.11
369.23	2607.06
369.44	2420.70
369.65	2562.01
369.86	2768.85
370.07	2693.08
370.28	2527.19
370.49	2731.99
370.70	2834.39
370.91	2584.54
371.12	2387.93
371.33	2846.68
371.54	2576.34
371.75	2836.44
371.96	2398.17
372.17	2643.93
372.38	2648.02
372.59	2674.65
372.80	2578.39
373.01	2668.50
373.22	2785.24
373.43	2600.92
373.64	2506.71
373.85	2916.31
374.06	3026.90
374.26	2762.71
374.47	2738.13
374.68	2924.50
374.89	2697.17
375.10	2584.54
375.31	2777.05
375.52	2760.66
375.73	2754.52
375.94	2469.85
376.15	2760.66
376.36	2625.50
376.57	2674.65
376.78	2592.73
376.99	2697.17
377.20	2836.44
377.40	2674.65
377.61	2842.58
377.82	2504.67
378.03	2990.03
378.24	2805.72
378.45	2643.93
378.66	2707.41
378.87	2545.63
379.08	2482.14
379.29	2598.87
379.50	2818.00
379.71	2656.22
379.91	2871.25
380.12	2680.79
380.33	2645.98
380.54	2738.13
380.75	2715.61
380.96	2562.01
381.17	2643.93
381.38	2787.29
381.59	2764.76
381.80	2738.13
382.00	2908.12
382.21	2736.09
382.42	3051.47
382.63	2863.06
382.84	2834.39
383.05	2906.07
383.26	2930.64
383.47	2666.46
383.68	2588.63
383.88	2742.23
384.09	2746.33
384.30	2891.73
384.51	2686.94
384.72	2727.89
384.93	2574.30
385.14	2664.41
385.35	2865.11
385.55	2510.81
385.76	2828.24
385.97	2652.12
386.18	2506.71
386.39	2504.67
386.60	2680.79
386.81	2580.44
387.02	2494.43
387.22	2578.39
387.43	2838.48
387.64	2717.65
387.85	2834.39
388.06	2705.37
388.27	3952.58
388.48	7569.29
388.68	10960.73
388.89	13346.61
389.10	14366.50
389.31	13662.00
389.52	10854.23
389.73	9297.78
389.93	8511.36
390.14	7737.23
390.35	7047.06
390.56	6313.89
390.77	5224.37
390.98	4071.36
391.18	3350.48
391.39	3121.10
391.60	2744.28
391.81	2813.91
392.02	2615.26
392.23	3033.04
392.43	2797.53
392.64	2850.77
392.85	2637.78
393.06	2985.94
393.27	2734.04
393.47	2641.88
393.68	2629.59
393.89	2693.08
394.10	2881.49
394.31	2568.15
394.52	2602.97
394.72	2650.07
394.93	2977.75
395.14	2531.29
395.35	2705.37
395.56	2605.02
395.76	2666.46
395.97	2660.31
396.18	2748.37
396.39	2752.47
396.60	3221.45
396.80	2934.74
397.01	2723.80
397.22	2856.92
397.43	2924.50
397.64	2660.31
397.84	2697.17
398.05	3026.90
398.26	2742.23
398.47	2703.32
398.67	2813.91
398.88	2697.17
399.09	2856.92
399.30	2615.26
399.51	2691.03
399.71	2574.30
399.92	2701.27
400.13	2758.61
400.34	2600.92
400.54	2684.89
400.75	2994.13
400.96	2641.88
401.17	2854.87
401.37	2793.43
401.58	2764.76
401.79	2643.93
402.00	2758.61
402.21	3166.16
402.41	2916.31
402.62	2912.21
402.83	2987.99
403.04	3157.97
403.24	3422.16
403.45	2643.93
403.66	2912.21
403.87	2826.20
404.07	3024.85
404.28	2865.11
404.49	2885.59
404.70	2772.95
404.90	2858.96
405.11	2656.22
405.32	2777.05
405.52	2643.93
405.73	2613.21
405.94	2545.63
406.15	2666.46
406.35	2803.67
406.56	2770.90
406.77	2711.51
406.98	2750.42
407.18	2682.84
407.39	2938.84
407.60	2637.78
407.80	2723.80
408.01	2686.94
408.22	2738.13
408.43	2605.02
408.63	2750.42
408.84	2818.00
409.05	2826.20
409.25	2551.77
409.46	2580.44
409.67	2623.45
409.88	2680.79
410.08	2723.80
410.29	2598.87
410.50	2824.15
410.70	2783.19
410.91	2559.96
411.12	2672.60
411.32	2707.41
411.53	2586.58
411.74	2691.03
411.95	2736.09
412.15	2731.99
412.36	2848.72
412.57	2641.88
412.77	2779.09
412.98	2748.37
413.19	2621.40
413.39	2617.30
413.60	2656.22
413.81	2975.70
414.01	2627.54
414.22	2697.17
414.43	2736.09
414.63	2691.03
414.84	2863.06
415.05	2580.44
415.25	2533.34
415.46	2834.39
415.67	2734.04
415.87	2744.28
416.08	2605.02
416.29	2668.50
416.49	2752.47
416.70	2615.26
416.91	2611.16
417.11	2686.94
417.32	2850.77
417.53	2705.37
417.73	2738.13
417.94	2713.56
418.15	2686.94
418.35	2588.63
418.56	2662.36
418.77	3086.29
418.97	2797.53
419.18	2625.50
419.38	2357.21
419.59	2789.33
419.80	2906.07
420.00	2600.92
420.21	2691.03
420.42	2934.74
420.62	2750.42
420.83	2605.02
421.04	2572.25
421.24	2691.03
421.45	2740.18
421.65	2793.43
421.86	2656.22
422.07	2781.14
422.27	2783.19
422.48	2654.17
422.69	2539.48
422.89	2729.94
423.10	2662.36
423.30	2549.72
423.51	2715.61
423.72	2742.23
423.92	2881.49
424.13	2531.29
424.33	2723.80
424.54	2881.49
424.75	2770.90
424.95	2838.48
425.16	2633.69
425.36	2727.89
425.57	2846.68
425.78	2830.29
425.98	2789.33
426.19	2686.94
426.39	2580.44
426.60	2660.31
426.81	2856.92
427.01	2725.85
427.22	2650.07
427.42	2469.85
427.63	2559.96
427.83	2822.10
428.04	2990.03
428.25	2686.94
428.45	2750.42
428.66	2901.97
428.86	2641.88
429.07	2648.02
429.28	2699.22
429.48	2746.33
429.69	2602.97
429.89	2668.50
430.10	2496.47
430.30	2748.37
430.51	2856.92
430.71	2568.15
430.92	2609.11
431.13	2662.36
431.33	2723.80
431.54	2725.85
431.74	2842.58
431.95	3024.85
432.15	2580.44
432.36	2691.03
432.56	2691.03
432.77	3030.99
432.98	2912.21
433.18	2654.17
433.39	2521.05
433.59	2656.22
433.80	3043.28
434.00	2879.44
434.21	2658.26
434.41	2494.43
434.62	3057.62
434.82	2506.71
435.03	2619.35
435.23	2731.99
435.44	2527.19
435.64	2508.76
435.85	2691.03
436.06	2842.58
436.26	2848.72
436.47	2578.39
436.67	2568.15
436.88	2670.55
437.08	2893.78
437.29	2744.28
437.49	2682.84
437.70	2906.07
437.90	2617.30
438.11	2809.81
438.31	2631.64
438.52	2904.02
438.72	2856.92
438.93	2949.08
439.13	2701.27
439.34	2891.73
439.54	2666.46
439.75	2758.61
439.95	2742.23
440.16	2615.26
440.36	2602.97
440.57	2699.22
440.77	2627.54
440.98	2775.00
441.18	2758.61
441.39	2527.19
441.59	2551.77
441.80	3092.43
442.00	2748.37
442.21	2770.90
442.41	2600.92
442.62	2940.88
442.82	2568.15
443.02	2645.98
443.23	2656.22
443.43	2645.98
443.64	2990.03
443.84	2588.63
444.05	2760.66
444.25	2670.55
444.46	2637.78
444.66	2592.73
444.87	2887.64
445.07	2519.00
445.28	2668.50
445.48	2846.68
445.69	2775.00
445.89	3051.47
446.09	2742.23
446.30	3024.85
446.50	3149.78
446.71	4630.46
446.91	5547.95
447.12	6293.41
447.32	6864.79
447.53	6377.37
447.73	5384.11
447.93	4865.97
448.14	4673.46
448.34	4450.24
448.55	3907.52
448.75	3864.52
448.96	3637.19
449.16	3495.88
449.36	3387.34
449.57	2940.88
449.77	2701.27
449.98	2627.54
450.18	2781.14
450.39	2637.78
450.59	2736.09
450.79	2754.52
451.00	2621.40
451.20	2838.48
451.41	2594.78
451.61	2805.72
451.81	2766.81
452.02	2699.22
452.22	2627.54
452.43	2680.79
452.63	2699.22
