SpectraSuite Data File
++++++++++++++++++++++++++++++++++++
Date: Thu May 05 16:20:20 CEST 2016
User: root
Dark Spectrum Present: No
Reference Spectrum Present: No
Number of Sampled Component Spectra: 1
Spectrometers: USB4C02835
Integration Time (usec): 100000 (USB4C02835)
Spectra Averaged: 1 (USB4C02835)
Boxcar Smoothing: 0 (USB4C02835)
Correct for Electrical Dark: No (USB4C02835)
Strobe/Lamp Enabled: No (USB4C02835)
Correct for Detector Non-linearity: No (USB4C02835)
Correct for Stray Light: No (USB4C02835)
Number of Pixels in Processed Spectrum: 3648
>>>>>Begin Processed Spectral Data<<<<<
177.47	2011.11
177.69	2011.11
177.91	2011.11
178.13	2056.16
178.36	2037.73
178.58	2549.72
178.80	2703.32
179.02	2555.86
179.24	2582.49
179.46	2414.56
179.68	2543.58
179.90	2701.27
180.13	2762.71
180.35	2373.60
180.57	2547.67
180.79	2848.72
181.01	2693.08
181.23	2588.63
181.45	2707.41
181.67	2744.28
181.90	2826.20
182.12	2525.15
182.34	2373.60
182.56	2797.53
182.78	2797.53
183.00	2437.08
183.22	2527.19
183.44	2463.71
183.66	3160.02
183.89	2629.59
184.11	2445.27
184.33	2809.81
184.55	2889.68
184.77	2492.38
184.99	2516.95
185.21	2566.10
185.43	3082.19
185.65	2574.30
185.87	2447.32
186.10	3090.38
186.32	3033.04
186.54	2586.58
186.76	2654.17
186.98	2889.68
187.20	2752.47
187.42	2557.91
187.64	2514.91
187.86	2856.92
188.08	2889.68
188.30	2478.04
188.52	2535.39
188.75	2928.60
188.97	2858.96
189.19	2482.14
189.41	2588.63
189.63	2740.18
189.85	2693.08
190.07	2400.22
190.29	2451.42
190.51	2758.61
190.73	2648.02
190.95	2652.12
191.17	2523.10
191.39	2490.33
191.61	2684.89
191.84	2490.33
192.06	2596.82
192.28	2533.34
192.50	3252.17
192.72	2615.26
192.94	2602.97
193.16	2815.96
193.38	2846.68
193.60	2488.28
193.82	2697.17
194.04	2910.16
194.26	2818.00
194.48	2547.67
194.70	2457.56
194.92	2635.74
195.14	2908.12
195.36	2498.52
195.58	2547.67
195.80	2750.42
196.02	2641.88
196.24	2521.05
196.46	2566.10
196.69	2697.17
196.91	3061.71
197.13	2609.11
197.35	2523.10
197.57	2942.93
197.79	2768.85
198.01	2584.54
198.23	2529.24
198.45	2787.29
198.67	2562.01
198.89	2414.56
199.11	2705.37
199.33	2602.97
199.55	2467.80
199.77	2539.48
199.99	2645.98
200.21	2658.26
200.43	2787.29
200.65	2408.41
200.87	2355.16
201.09	2676.70
201.31	2648.02
201.53	2557.91
201.75	2598.87
201.97	2693.08
202.19	2686.94
202.41	2580.44
202.63	2619.35
202.85	2807.77
203.07	2727.89
203.29	2519.00
203.51	2475.99
203.73	2660.31
203.95	3119.06
204.17	2562.01
204.39	2643.93
204.61	2717.65
204.83	2713.56
205.05	2703.32
205.27	2584.54
205.49	2973.65
205.71	2691.03
205.93	2414.56
206.15	2465.75
206.37	2693.08
206.59	2662.36
206.81	2435.03
207.03	2428.89
207.25	2580.44
207.47	2740.18
207.69	2570.20
207.91	2664.41
208.13	3002.32
208.34	2543.58
208.56	2441.18
208.78	2496.47
209.00	2617.30
209.22	2635.74
209.44	2676.70
209.66	2494.43
209.88	2738.13
210.10	2682.84
210.32	2539.48
210.54	2592.73
210.76	2625.50
210.98	2891.73
211.20	2392.03
211.42	2631.64
211.64	2928.60
211.86	2793.43
212.08	2475.99
212.30	2551.77
212.52	2633.69
212.74	2807.77
212.96	2543.58
213.17	2588.63
213.39	2811.86
213.61	2936.79
213.83	2514.91
214.05	2416.60
214.27	2891.73
214.49	2578.39
214.71	2404.32
214.93	2615.26
215.15	2750.42
215.37	2922.45
215.59	2379.74
215.81	2588.63
216.03	2957.27
216.24	2736.09
216.46	2588.63
216.68	2512.86
216.90	2824.15
217.12	2826.20
217.34	2494.43
217.56	2693.08
217.78	2959.31
218.00	2850.77
218.22	2578.39
218.44	2621.40
218.66	2645.98
218.87	3043.28
219.09	2506.71
219.31	2533.34
219.53	2721.75
219.75	2691.03
219.97	2588.63
220.19	2549.72
220.41	2750.42
220.63	2965.46
220.85	2482.14
221.06	2545.63
221.28	2922.45
221.50	2779.09
221.72	2449.37
221.94	2428.89
222.16	2752.47
222.38	2838.48
222.60	2519.00
222.82	2576.34
223.03	2795.48
223.25	2570.20
223.47	2469.85
223.69	2734.04
223.91	2826.20
224.13	2719.70
224.35	2488.28
224.57	2686.94
224.78	2867.16
225.00	2586.58
225.22	2609.11
225.44	2424.80
225.66	2826.20
225.88	2654.17
226.10	2613.21
226.32	2609.11
226.53	2926.55
226.75	2629.59
226.97	2641.88
227.19	2553.82
227.41	2580.44
227.63	2674.65
227.85	2416.60
228.06	2533.34
228.28	2736.09
228.50	2832.34
228.72	2381.79
228.94	2527.19
229.16	2461.66
229.37	2588.63
229.59	2480.09
229.81	2652.12
230.03	2617.30
230.25	2613.21
230.47	2418.65
230.69	2416.60
230.90	2858.96
231.12	2645.98
231.34	2580.44
231.56	2639.83
231.78	2555.86
232.00	2676.70
232.21	2531.29
232.43	2523.10
232.65	2459.61
232.87	2693.08
233.09	2439.13
233.30	2498.52
233.52	2887.64
233.74	2715.61
233.96	2461.66
234.18	2688.98
234.40	2695.13
234.61	3004.37
234.83	2396.12
235.05	2498.52
235.27	3055.57
235.49	2858.96
235.70	2428.89
235.92	2629.59
236.14	2719.70
236.36	3110.86
236.58	2439.13
236.79	2617.30
237.01	2758.61
237.23	2613.21
237.45	2707.41
237.67	2588.63
237.88	2820.05
238.10	3020.75
238.32	2490.33
238.54	2457.56
238.76	2676.70
238.97	2594.78
239.19	2494.43
239.41	2545.63
239.63	2928.60
239.85	2678.74
240.06	2525.15
240.28	2484.19
240.50	2881.49
240.72	2701.27
240.93	2443.23
241.15	2514.91
241.37	2785.24
241.59	2912.21
241.81	2498.52
242.02	2609.11
242.24	2813.91
242.46	2850.77
242.68	2408.41
242.89	2516.95
243.11	2881.49
243.33	2660.31
243.55	2559.96
243.76	2617.30
243.98	2609.11
244.20	2770.90
244.42	2473.95
244.64	2557.91
244.85	2529.24
245.07	2639.83
245.29	2537.43
245.51	2549.72
245.72	2709.46
245.94	2883.54
246.16	2461.66
246.38	2469.85
246.59	2699.22
246.81	2551.77
247.03	2494.43
247.24	2346.97
247.46	2631.64
247.68	2750.42
247.90	2435.03
248.11	2453.47
248.33	2826.20
248.55	2668.50
248.77	2652.12
248.98	2545.63
249.20	2953.17
249.42	2754.52
249.64	2482.14
249.85	2506.71
250.07	2654.17
250.29	2772.95
250.50	2531.29
250.72	2445.27
250.94	2754.52
251.16	3100.62
251.37	2521.05
251.59	2607.06
251.81	2852.82
252.02	2895.83
252.24	2500.57
252.46	2590.68
252.68	2643.93
252.89	2592.73
253.11	2383.84
253.33	2740.18
253.54	2924.50
253.76	2537.43
253.98	2473.95
254.20	2443.23
254.41	2519.00
254.63	2617.30
254.85	2414.56
255.06	2576.34
255.28	2697.17
255.50	2746.33
255.71	2564.06
255.93	2367.45
256.15	2691.03
256.36	2844.63
256.58	2424.80
256.80	2461.66
257.02	2643.93
257.23	2596.82
257.45	2582.49
257.67	2648.02
257.88	2727.89
258.10	2764.76
258.32	2496.47
258.53	2564.06
258.75	3000.27
258.97	2580.44
259.18	2488.28
259.40	2435.03
259.62	2940.88
259.83	2947.03
260.05	2566.10
260.27	3203.02
260.48	2850.77
260.70	2590.68
260.92	2408.41
261.13	2475.99
261.35	2701.27
261.57	2805.72
261.78	2430.94
262.00	2451.42
262.22	2801.62
262.43	2539.48
262.65	2461.66
262.86	2609.11
263.08	3063.76
263.30	2725.85
263.51	2379.74
263.73	2416.60
263.95	2846.68
264.16	2670.55
264.38	2494.43
264.60	2478.04
264.81	2715.61
265.03	2879.44
265.25	2713.56
265.46	2519.00
265.68	2928.60
265.89	2824.15
266.11	2342.88
266.33	2625.50
266.54	2869.20
266.76	2717.65
266.98	2578.39
267.19	2629.59
267.41	2807.77
267.62	2723.80
267.84	2357.21
268.06	2654.17
268.27	2744.28
268.49	2985.94
268.70	2570.20
268.92	2574.30
269.14	2555.86
269.35	2519.00
269.57	2578.39
269.79	2555.86
270.00	2654.17
270.22	3018.71
270.43	2404.32
270.65	2359.26
270.87	2772.95
271.08	2760.66
271.30	2664.41
271.51	2537.43
271.73	2805.72
271.95	2955.22
272.16	2506.71
272.38	2600.92
272.59	2654.17
272.81	2875.35
273.02	2473.95
273.24	2615.26
273.46	2848.72
273.67	2525.15
273.89	2414.56
274.10	2537.43
274.32	2873.30
274.54	2727.89
274.75	2643.93
274.97	2562.01
275.18	2881.49
275.40	2779.09
275.61	2519.00
275.83	2688.98
276.05	2631.64
276.26	2740.18
276.48	2617.30
276.69	2588.63
276.91	2645.98
277.12	2934.74
277.34	2709.46
277.55	2670.55
277.77	2674.65
277.99	2652.12
278.20	2527.19
278.42	2471.90
278.63	2613.21
278.85	2521.05
279.06	2547.67
279.28	2643.93
279.49	2881.49
279.71	2777.05
279.93	2686.94
280.14	2617.30
280.36	2643.93
280.57	2854.87
280.79	2674.65
281.00	2455.51
281.22	2598.87
281.43	2875.35
281.65	2377.69
281.86	2471.90
282.08	2801.62
282.29	2953.17
282.51	2473.95
282.73	2543.58
282.94	2506.71
283.16	2881.49
283.37	2736.09
283.59	2598.87
283.80	2721.75
284.02	2752.47
284.23	2611.16
284.45	2619.35
284.66	2693.08
284.88	2625.50
285.09	2660.31
285.31	2697.17
285.52	2742.23
285.74	2596.82
285.95	2709.46
286.17	2709.46
286.38	2863.06
286.60	2668.50
286.81	2582.49
287.03	2627.54
287.24	2738.13
287.46	2805.72
287.67	2709.46
287.89	2826.20
288.10	2762.71
288.32	2744.28
288.53	2785.24
288.75	2654.17
288.96	2822.10
289.18	2553.82
289.39	2562.01
289.61	2656.22
289.82	3104.72
290.04	3008.47
290.25	2580.44
290.47	2594.78
290.68	2766.81
290.90	2789.33
291.11	2430.94
291.33	2801.62
291.54	2625.50
291.76	2699.22
291.97	2605.02
292.18	2693.08
292.40	2691.03
292.61	2529.24
292.83	2815.96
293.04	2658.26
293.26	2752.47
293.47	2764.76
293.69	2551.77
293.90	2631.64
294.12	2965.46
294.33	2731.99
294.55	2592.73
294.76	2748.37
294.97	2850.77
295.19	3002.32
295.40	2627.54
295.62	2658.26
295.83	2852.82
296.05	2574.30
296.26	2793.43
296.48	2559.96
296.69	2713.56
296.90	2691.03
297.12	2764.76
297.33	2805.72
297.55	2725.85
297.76	2801.62
297.98	2719.70
298.19	2711.51
298.41	2738.13
298.62	2504.67
298.83	2863.06
299.05	2682.84
299.26	2590.68
299.48	2510.81
299.69	2680.79
299.90	2615.26
300.12	2559.96
300.33	2822.10
300.55	2652.12
300.76	2631.64
300.98	2521.05
301.19	2842.58
301.40	2590.68
301.62	2508.76
301.83	2856.92
302.05	2729.94
302.26	2631.64
302.47	2668.50
302.69	2555.86
302.90	2766.81
303.12	2432.99
303.33	2695.13
303.54	3100.62
303.76	2691.03
303.97	2523.10
304.19	2895.83
304.40	2623.45
304.61	2858.96
304.83	2803.67
305.04	2740.18
305.26	2815.96
305.47	2650.07
305.68	2691.03
305.90	2523.10
306.11	2797.53
306.33	2711.51
306.54	2484.19
306.75	2660.31
306.97	2519.00
307.18	2656.22
307.39	2541.53
307.61	2705.37
307.82	2670.55
308.04	2828.24
308.25	2488.28
308.46	2734.04
308.68	2795.48
308.89	2701.27
309.10	2731.99
309.32	2629.59
309.53	2695.13
309.74	2756.57
309.96	2516.95
310.17	2744.28
310.39	2590.68
310.60	2725.85
310.81	2607.06
311.03	2514.91
311.24	2815.96
311.45	2793.43
311.67	2861.01
311.88	2641.88
312.09	2680.79
312.31	2629.59
312.52	2598.87
312.73	2582.49
312.95	2457.56
313.16	2580.44
313.37	2674.65
313.59	2793.43
313.80	2781.14
314.01	2904.02
314.23	2570.20
314.44	2523.10
314.65	2562.01
314.87	2588.63
315.08	2643.93
315.29	2598.87
315.51	2541.53
315.72	2504.67
315.93	2779.09
316.15	2658.26
316.36	2660.31
316.57	2691.03
316.79	2756.57
317.00	2510.81
317.21	2801.62
317.43	2629.59
317.64	2684.89
317.85	2508.76
318.07	2541.53
318.28	2625.50
318.49	2785.24
318.70	2785.24
318.92	2736.09
319.13	2805.72
319.34	2834.39
319.56	2721.75
319.77	2822.10
319.98	2809.81
320.20	2752.47
320.41	2772.95
320.62	2789.33
320.83	2596.82
321.05	2908.12
321.26	2697.17
321.47	2721.75
321.69	2947.03
321.90	2519.00
322.11	2461.66
322.32	2760.66
322.54	2865.11
322.75	2596.82
322.96	3180.50
323.18	2521.05
323.39	2519.00
323.60	2533.34
323.81	2670.55
324.03	2602.97
324.24	2691.03
324.45	2705.37
324.66	2510.81
324.88	2881.49
325.09	2942.93
325.30	2607.06
325.52	2598.87
325.73	2742.23
325.94	2643.93
326.15	2494.43
326.37	2484.19
326.58	2906.07
326.79	2834.39
327.00	2500.57
327.22	2594.78
327.43	2695.13
327.64	2564.06
327.85	2742.23
328.07	2680.79
328.28	3012.56
328.49	2748.37
328.70	2570.20
328.92	2633.69
329.13	2678.74
329.34	2764.76
329.55	2830.29
329.76	2731.99
329.98	2668.50
330.19	2809.81
330.40	2711.51
330.61	2658.26
330.83	2832.34
331.04	2557.91
331.25	2682.84
331.46	2619.35
331.68	2568.15
331.89	2879.44
332.10	2660.31
332.31	2555.86
332.52	2731.99
332.74	2881.49
332.95	2564.06
333.16	2576.34
333.37	2766.81
333.58	2656.22
333.80	2621.40
334.01	2475.99
334.22	2711.51
334.43	2666.46
334.64	2564.06
334.86	2473.95
335.07	2588.63
335.28	2930.64
335.49	2500.57
335.70	2676.70
335.92	2895.83
336.13	3074.00
336.34	2693.08
336.55	2680.79
336.76	2781.14
336.98	2418.65
337.19	2574.30
337.40	2807.77
337.61	3108.82
337.82	2619.35
338.04	2752.47
338.25	2512.86
338.46	2797.53
338.67	2736.09
338.88	2525.15
339.09	2488.28
339.31	2660.31
339.52	2580.44
339.73	2492.38
339.94	2695.13
340.15	2916.31
340.36	2697.17
340.58	2695.13
340.79	2494.43
341.00	2781.14
341.21	2512.86
341.42	2750.42
341.63	2631.64
341.85	2824.15
342.06	2742.23
342.27	2488.28
342.48	2709.46
342.69	2533.34
342.90	2723.80
343.12	2856.92
343.33	2510.81
343.54	2873.30
343.75	2848.72
343.96	2609.11
344.17	2580.44
344.38	2682.84
344.60	2596.82
344.81	2506.71
345.02	2629.59
345.23	2897.88
345.44	3041.23
345.65	2703.32
345.86	2691.03
346.07	2650.07
346.29	2627.54
346.50	2744.28
346.71	2777.05
346.92	2942.93
347.13	2983.89
347.34	2656.22
347.55	2463.71
347.76	2775.00
347.98	2439.13
348.19	2625.50
348.40	2815.96
348.61	2660.31
348.82	2904.02
349.03	2609.11
349.24	2512.86
349.45	3004.37
349.66	2379.74
349.88	2588.63
350.09	2508.76
350.30	2940.88
350.51	2897.88
350.72	2738.13
350.93	2643.93
351.14	2611.16
351.35	2777.05
351.56	2580.44
351.77	2668.50
351.99	2777.05
352.20	2904.02
352.41	2752.47
352.62	2387.93
352.83	2676.70
353.04	2715.61
353.25	2602.97
353.46	2723.80
353.67	2822.10
353.88	2453.47
354.09	2564.06
354.30	2635.74
354.52	2830.29
354.73	2682.84
354.94	2580.44
355.15	2637.78
355.36	3104.72
355.57	2627.54
355.78	2594.78
355.99	2580.44
356.20	2607.06
356.41	2881.49
356.62	2727.89
356.83	2611.16
357.04	2916.31
357.25	2537.43
357.46	2586.58
357.68	2486.23
357.89	2641.88
358.10	2748.37
358.31	2643.93
358.52	2551.77
358.73	2535.39
358.94	2602.97
359.15	2590.68
359.36	2613.21
359.57	2719.70
359.78	2707.41
359.99	2832.34
360.20	2488.28
360.41	2676.70
360.62	2799.57
360.83	2674.65
361.04	2688.98
361.25	2752.47
361.46	2944.98
361.67	2740.18
361.88	2648.02
362.09	2889.68
362.30	2766.81
362.51	2578.39
362.72	2660.31
362.93	2908.12
363.14	2795.48
363.35	2635.74
363.56	2525.15
363.78	2883.54
363.99	2818.00
364.20	2566.10
364.41	2658.26
364.62	3061.71
364.83	2703.32
365.04	2615.26
365.25	2742.23
365.46	3106.77
365.67	2664.41
365.88	2662.36
366.09	2568.15
366.30	2562.01
366.51	2693.08
366.72	2564.06
366.93	2600.92
367.14	2719.70
367.35	2918.36
367.56	2537.43
367.77	2856.92
367.98	2709.46
368.18	2799.57
368.39	2693.08
368.60	2539.48
368.81	2797.53
369.02	2795.48
369.23	2617.30
369.44	2459.61
369.65	2664.41
369.86	2850.77
370.07	2701.27
370.28	2506.71
370.49	2818.00
370.70	2809.81
370.91	2435.03
371.12	2506.71
371.33	2924.50
371.54	2602.97
371.75	2727.89
371.96	2308.06
372.17	2719.70
372.38	2668.50
372.59	2660.31
372.80	2574.30
373.01	2639.83
373.22	2695.13
373.43	2594.78
373.64	2533.34
373.85	2951.12
374.06	2930.64
374.26	2744.28
374.47	2691.03
374.68	3008.47
374.89	2854.87
375.10	2617.30
375.31	2623.45
375.52	2723.80
375.73	2668.50
375.94	2562.01
376.15	2734.04
376.36	2605.02
376.57	2652.12
376.78	2668.50
376.99	2770.90
377.20	2852.82
377.40	2709.46
377.61	2779.09
377.82	2602.97
378.03	2947.03
378.24	2746.33
378.45	2783.19
378.66	2617.30
378.87	2435.03
379.08	2482.14
379.29	2611.16
379.50	2795.48
379.71	2654.17
379.91	2875.35
380.12	2590.68
380.33	2617.30
380.54	2727.89
380.75	2615.26
380.96	2678.74
381.17	2713.56
381.38	2633.69
381.59	2777.05
381.80	2660.31
382.00	2811.86
382.21	2717.65
382.42	3125.20
382.63	2895.83
382.84	2707.41
383.05	2865.11
383.26	2985.94
383.47	2725.85
383.68	2611.16
383.88	2811.86
384.09	2719.70
384.30	2910.16
384.51	2703.32
384.72	2605.02
384.93	2559.96
385.14	2695.13
385.35	2877.40
385.55	2514.91
385.76	2920.40
385.97	2668.50
386.18	2455.51
386.39	2619.35
386.60	2637.78
386.81	2596.82
387.02	2600.92
387.22	2523.10
387.43	2811.86
387.64	2764.76
387.85	2836.44
388.06	2770.90
388.27	4063.17
388.48	7450.51
388.68	10983.26
388.89	13276.98
389.10	14307.11
389.31	13670.19
389.52	10880.86
389.73	9432.94
389.93	8648.57
390.14	7780.23
390.35	7028.63
390.56	6399.90
390.77	5291.95
390.98	4007.87
391.18	3485.64
391.39	3190.74
391.60	2805.72
391.81	2858.96
392.02	2615.26
392.23	3114.96
392.43	2828.24
392.64	2822.10
392.85	2625.50
393.06	2922.45
393.27	2760.66
393.47	2559.96
393.68	2598.87
393.89	2682.84
394.10	2906.07
394.31	2652.12
394.52	2559.96
394.72	2693.08
394.93	2953.17
395.14	2447.32
395.35	2691.03
395.56	2596.82
395.76	2652.12
395.97	2633.69
396.18	2725.85
396.39	2828.24
396.60	3262.41
396.80	2838.48
397.01	2772.95
397.22	2811.86
397.43	2895.83
397.64	2658.26
397.84	2738.13
398.05	2981.84
398.26	2752.47
398.47	2766.81
398.67	2811.86
398.88	2807.77
399.09	2865.11
399.30	2584.54
399.51	2785.24
399.71	2588.63
399.92	2752.47
400.13	2695.13
400.34	2660.31
400.54	2684.89
400.75	2920.40
400.96	2629.59
401.17	2867.16
401.37	2815.96
401.58	2807.77
401.79	2639.83
402.00	2846.68
402.21	3063.76
402.41	2924.50
402.62	2922.45
402.83	3000.27
403.04	3174.35
403.24	3321.81
403.45	2752.47
403.66	2957.27
403.87	2987.99
404.07	2965.46
404.28	2908.12
404.49	2893.78
404.70	2795.48
404.90	2848.72
405.11	2607.06
405.32	2723.80
405.52	2662.36
405.73	2699.22
405.94	2600.92
406.15	2580.44
406.35	2858.96
406.56	2838.48
406.77	2699.22
406.98	2670.55
407.18	2627.54
407.39	2973.65
407.60	2578.39
407.80	2740.18
408.01	2717.65
408.22	2813.91
408.43	2555.86
408.63	2727.89
408.84	2791.38
409.05	2725.85
409.25	2625.50
409.46	2580.44
409.67	2711.51
409.88	2715.61
410.08	2648.02
410.29	2633.69
410.50	2926.55
410.70	2828.24
410.91	2594.78
411.12	2713.56
411.32	2834.39
411.53	2625.50
411.74	2699.22
411.95	2785.24
412.15	2793.43
412.36	2867.16
412.57	2664.41
412.77	2779.09
412.98	2656.22
413.19	2656.22
413.39	2682.84
413.60	2678.74
413.81	2965.46
414.01	2574.30
414.22	2670.55
414.43	2785.24
414.63	2629.59
414.84	2818.00
415.05	2727.89
415.25	2576.34
415.46	2750.42
415.67	2586.58
415.87	2705.37
416.08	2639.83
416.29	2701.27
416.49	2770.90
416.70	2602.97
416.91	2623.45
417.11	2748.37
417.32	2824.15
417.53	2762.71
417.73	2742.23
417.94	2656.22
418.15	2748.37
418.35	2703.32
418.56	2643.93
418.77	3030.99
418.97	2740.18
419.18	2721.75
419.38	2406.36
419.59	2695.13
419.80	2904.02
420.00	2609.11
420.21	2674.65
420.42	2953.17
420.62	2801.62
420.83	2600.92
421.04	2678.74
421.24	2674.65
421.45	2834.39
421.65	2703.32
421.86	2641.88
422.07	2811.86
422.27	2777.05
422.48	2611.16
422.69	2525.15
422.89	2637.78
423.10	2617.30
423.30	2586.58
423.51	2664.41
423.72	2756.57
423.92	2777.05
424.13	2484.19
424.33	2678.74
424.54	2793.43
424.75	2775.00
424.95	2908.12
425.16	2664.41
425.36	2674.65
425.57	2840.53
425.78	2740.18
425.98	2713.56
426.19	2709.46
426.39	2539.48
426.60	2672.60
426.81	2760.66
427.01	2805.72
427.22	2559.96
427.42	2506.71
427.63	2514.91
427.83	2865.11
428.04	2944.98
428.25	2678.74
428.45	2754.52
428.66	2920.40
428.86	2715.61
429.07	2670.55
429.28	2756.57
429.48	2777.05
429.69	2621.40
429.89	2658.26
430.10	2449.37
430.30	2815.96
430.51	2777.05
430.71	2555.86
430.92	2682.84
431.13	2600.92
431.33	2805.72
431.54	2680.79
431.74	2865.11
431.95	3026.90
432.15	2635.74
432.36	2693.08
432.56	2717.65
432.77	3002.32
432.98	2926.55
433.18	2652.12
433.39	2607.06
433.59	2699.22
433.80	2959.31
434.00	2881.49
434.21	2621.40
434.41	2557.91
434.62	3000.27
434.82	2590.68
435.03	2590.68
435.23	2809.81
435.44	2443.23
435.64	2596.82
435.85	2650.07
436.06	2834.39
436.26	2879.44
436.47	2631.64
436.67	2498.52
436.88	2731.99
437.08	2897.88
437.29	2848.72
437.49	2746.33
437.70	2861.01
437.90	2627.54
438.11	2832.34
438.31	2731.99
438.52	2914.26
438.72	2897.88
438.93	2940.88
439.13	2707.41
439.34	2850.77
439.54	2627.54
439.75	2807.77
439.95	2674.65
440.16	2734.04
440.36	2762.71
440.57	2654.17
440.77	2656.22
440.98	2678.74
441.18	2748.37
441.39	2592.73
441.59	2527.19
441.80	3106.77
442.00	2693.08
442.21	2807.77
442.41	2531.29
442.62	2842.58
442.82	2629.59
443.02	2621.40
443.23	2721.75
443.43	2752.47
443.64	2947.03
443.84	2570.20
444.05	2750.42
444.25	2764.76
444.46	2596.82
444.66	2596.82
444.87	2818.00
445.07	2535.39
445.28	2684.89
445.48	2781.14
445.69	2691.03
445.89	3076.05
446.09	2633.69
446.30	2983.89
446.50	3045.33
446.71	4579.26
446.91	5605.29
447.12	6414.24
447.32	6879.13
447.53	6533.02
447.73	5373.87
447.93	4849.59
448.14	4556.73
448.34	4706.23
448.55	3907.52
448.75	3899.33
448.96	3698.63
449.16	3389.39
449.36	3289.04
449.57	2924.50
449.77	2711.51
449.98	2670.55
450.18	2775.00
450.39	2717.65
450.59	2756.57
450.79	2723.80
451.00	2637.78
451.20	2797.53
451.41	2658.26
451.61	2779.09
451.81	2652.12
452.02	2580.44
452.22	2666.46
452.43	2629.59
452.63	2678.74
