SpectraSuite Data File
++++++++++++++++++++++++++++++++++++
Date: Thu May 05 16:20:56 CEST 2016
User: root
Dark Spectrum Present: No
Reference Spectrum Present: No
Number of Sampled Component Spectra: 1
Spectrometers: USB4C02835
Integration Time (usec): 100000 (USB4C02835)
Spectra Averaged: 1 (USB4C02835)
Boxcar Smoothing: 0 (USB4C02835)
Correct for Electrical Dark: No (USB4C02835)
Strobe/Lamp Enabled: No (USB4C02835)
Correct for Detector Non-linearity: No (USB4C02835)
Correct for Stray Light: No (USB4C02835)
Number of Pixels in Processed Spectrum: 3648
>>>>>Begin Processed Spectral Data<<<<<
177.47	2017.25
177.69	2017.25
177.91	2017.25
178.13	2002.91
178.36	2082.78
178.58	2527.19
178.80	2744.28
179.02	2523.10
179.24	2598.87
179.46	2457.56
179.68	2551.77
179.90	2738.13
180.13	2803.67
180.35	2416.60
180.57	2471.90
180.79	2875.35
181.01	2766.81
181.23	2588.63
181.45	2625.50
181.67	2807.77
181.90	2873.30
182.12	2529.24
182.34	2494.43
182.56	2840.53
182.78	2781.14
183.00	2486.23
183.22	2506.71
183.44	2490.33
183.66	3180.50
183.89	2688.98
184.11	2543.58
184.33	2818.00
184.55	2906.07
184.77	2482.14
184.99	2506.71
185.21	2631.64
185.43	3117.01
185.65	2488.28
185.87	2478.04
186.10	3022.80
186.32	3123.15
186.54	2633.69
186.76	2568.15
186.98	2799.57
187.20	2734.04
187.42	2514.91
187.64	2514.91
187.86	2826.20
188.08	2801.62
188.30	2441.18
188.52	2596.82
188.75	2895.83
188.97	2934.74
189.19	2465.75
189.41	2488.28
189.63	2873.30
189.85	2701.27
190.07	2459.61
190.29	2285.53
190.51	2768.85
190.73	2510.81
190.95	2658.26
191.17	2578.39
191.39	2514.91
191.61	2666.46
191.84	2547.67
192.06	2564.06
192.28	2473.95
192.50	3123.15
192.72	2625.50
192.94	2523.10
193.16	2863.06
193.38	2844.63
193.60	2412.51
193.82	2568.15
194.04	2881.49
194.26	2828.24
194.48	2537.43
194.70	2545.63
194.92	2652.12
195.14	2824.15
195.36	2490.33
195.58	2670.55
195.80	2695.13
196.02	2650.07
196.24	2506.71
196.46	2566.10
196.69	2777.05
196.91	3063.76
197.13	2504.67
197.35	2543.58
197.57	2924.50
197.79	2820.05
198.01	2576.34
198.23	2523.10
198.45	2762.71
198.67	2519.00
198.89	2414.56
199.11	2650.07
199.33	2648.02
199.55	2471.90
199.77	2441.18
199.99	2719.70
200.21	2629.59
200.43	2748.37
200.65	2402.27
200.87	2361.31
201.09	2682.84
201.31	2672.60
201.53	2572.25
201.75	2580.44
201.97	2719.70
202.19	2750.42
202.41	2598.87
202.63	2656.22
202.85	2785.24
203.07	2750.42
203.29	2570.20
203.51	2447.32
203.73	2596.82
203.95	3186.64
204.17	2570.20
204.39	2557.91
204.61	2744.28
204.83	2607.06
205.05	2559.96
205.27	2547.67
205.49	3012.56
205.71	2738.13
205.93	2439.13
206.15	2410.46
206.37	2746.33
206.59	2645.98
206.81	2359.26
207.03	2445.27
207.25	2564.06
207.47	2854.87
207.69	2533.34
207.91	2731.99
208.13	2985.94
208.34	2662.36
208.56	2447.32
208.78	2506.71
209.00	2707.41
209.22	2746.33
209.44	2605.02
209.66	2478.04
209.88	2734.04
210.10	2672.60
210.32	2459.61
210.54	2645.98
210.76	2701.27
210.98	2871.25
211.20	2400.22
211.42	2664.41
211.64	2863.06
211.86	2750.42
212.08	2617.30
212.30	2621.40
212.52	2666.46
212.74	2781.14
212.96	2619.35
213.17	2617.30
213.39	2881.49
213.61	2949.08
213.83	2494.43
214.05	2398.17
214.27	2793.43
214.49	2545.63
214.71	2465.75
214.93	2645.98
215.15	2742.23
215.37	2789.33
215.59	2437.08
215.81	2553.82
216.03	2994.13
216.24	2725.85
216.46	2529.24
216.68	2623.45
216.90	2846.68
217.12	2867.16
217.34	2482.14
217.56	2529.24
217.78	2938.84
218.00	2869.20
218.22	2559.96
218.44	2582.49
218.66	2674.65
218.87	3039.19
219.09	2504.67
219.31	2529.24
219.53	2701.27
219.75	2627.54
219.97	2551.77
220.19	2576.34
220.41	2709.46
220.63	3014.61
220.85	2596.82
221.06	2504.67
221.28	2893.78
221.50	2818.00
221.72	2533.34
221.94	2414.56
222.16	2760.66
222.38	2916.31
222.60	2555.86
222.82	2549.72
223.03	2850.77
223.25	2658.26
223.47	2492.38
223.69	2742.23
223.91	2858.96
224.13	2703.32
224.35	2480.09
224.57	2637.78
224.78	2721.75
225.00	2475.99
225.22	2602.97
225.44	2492.38
225.66	2838.48
225.88	2668.50
226.10	2592.73
226.32	2555.86
226.53	2834.39
226.75	2566.10
226.97	2514.91
227.19	2549.72
227.41	2582.49
227.63	2660.31
227.85	2318.30
228.06	2508.76
228.28	2740.18
228.50	2838.48
228.72	2402.27
228.94	2506.71
229.16	2523.10
229.37	2551.77
229.59	2422.75
229.81	2686.94
230.03	2602.97
230.25	2547.67
230.47	2359.26
230.69	2459.61
230.90	2881.49
231.12	2645.98
231.34	2521.05
231.56	2531.29
231.78	2570.20
232.00	2666.46
232.21	2588.63
232.43	2557.91
232.65	2394.08
232.87	2824.15
233.09	2324.44
233.30	2471.90
233.52	2871.25
233.74	2715.61
233.96	2449.37
234.18	2633.69
234.40	2729.94
234.61	3090.38
234.83	2441.18
235.05	2488.28
235.27	3137.49
235.49	2838.48
235.70	2443.23
235.92	2559.96
236.14	2781.14
236.36	3035.09
236.58	2441.18
236.79	2627.54
237.01	2678.74
237.23	2727.89
237.45	2721.75
237.67	2590.68
237.88	2760.66
238.10	2963.41
238.32	2506.71
238.54	2490.33
238.76	2682.84
238.97	2602.97
239.19	2445.27
239.41	2559.96
239.63	2838.48
239.85	2637.78
240.06	2641.88
240.28	2492.38
240.50	2807.77
240.72	2682.84
240.93	2480.09
241.15	2664.41
241.37	2688.98
241.59	2912.21
241.81	2504.67
242.02	2559.96
242.24	2795.48
242.46	2805.72
242.68	2416.60
242.89	2457.56
243.11	2910.16
243.33	2746.33
243.55	2514.91
243.76	2490.33
243.98	2621.40
244.20	2699.22
244.42	2551.77
244.64	2478.04
244.85	2510.81
245.07	2576.34
245.29	2523.10
245.51	2574.30
245.72	2748.37
245.94	2924.50
246.16	2514.91
246.38	2506.71
246.59	2621.40
246.81	2635.74
247.03	2387.93
247.24	2414.56
247.46	2684.89
247.68	2756.57
247.90	2383.84
248.11	2455.51
248.33	2863.06
248.55	2754.52
248.77	2605.02
248.98	2592.73
249.20	2992.08
249.42	2725.85
249.64	2447.32
249.85	2584.54
250.07	2586.58
250.29	2799.57
250.50	2570.20
250.72	2473.95
250.94	2744.28
251.16	3088.34
251.37	2600.92
251.59	2539.48
251.81	2824.15
252.02	2914.26
252.24	2512.86
252.46	2621.40
252.68	2617.30
252.89	2645.98
253.11	2375.64
253.33	2693.08
253.54	2920.40
253.76	2570.20
253.98	2510.81
254.20	2471.90
254.41	2535.39
254.63	2611.16
254.85	2377.69
255.06	2557.91
255.28	2789.33
255.50	2629.59
255.71	2478.04
255.93	2367.45
256.15	2674.65
256.36	2840.53
256.58	2449.37
256.80	2475.99
257.02	2717.65
257.23	2588.63
257.45	2557.91
257.67	2570.20
257.88	2650.07
258.10	2834.39
258.32	2498.52
258.53	2547.67
258.75	2899.92
258.97	2711.51
259.18	2492.38
259.40	2504.67
259.62	2963.41
259.83	2891.73
260.05	2568.15
260.27	3114.96
260.48	2834.39
260.70	2590.68
260.92	2443.23
261.13	2549.72
261.35	2772.95
261.57	2740.18
261.78	2412.51
262.00	2422.75
262.22	2682.84
262.43	2596.82
262.65	2514.91
262.86	2525.15
263.08	3104.72
263.30	2752.47
263.51	2394.08
263.73	2482.14
263.95	2875.35
264.16	2570.20
264.38	2424.80
264.60	2392.03
264.81	2744.28
265.03	2881.49
265.25	2750.42
265.46	2478.04
265.68	2934.74
265.89	2813.91
266.11	2457.56
266.33	2533.34
266.54	2889.68
266.76	2820.05
266.98	2617.30
267.19	2674.65
267.41	2873.30
267.62	2674.65
267.84	2355.16
268.06	2672.60
268.27	2772.95
268.49	2914.26
268.70	2559.96
268.92	2557.91
269.14	2613.21
269.35	2555.86
269.57	2596.82
269.79	2629.59
270.00	2602.97
270.22	2918.36
270.43	2412.51
270.65	2389.98
270.87	2785.24
271.08	2799.57
271.30	2648.02
271.51	2527.19
271.73	2836.44
271.95	2887.64
272.16	2475.99
272.38	2664.41
272.59	2641.88
272.81	2842.58
273.02	2596.82
273.24	2510.81
273.46	2977.75
273.67	2568.15
273.89	2443.23
274.10	2465.75
274.32	2856.92
274.54	2746.33
274.75	2600.92
274.97	2584.54
275.18	2836.44
275.40	2791.38
275.61	2572.25
275.83	2621.40
276.05	2562.01
276.26	2691.03
276.48	2594.78
276.69	2576.34
276.91	2588.63
277.12	2928.60
277.34	2709.46
277.55	2791.38
277.77	2734.04
277.99	2731.99
278.20	2629.59
278.42	2521.05
278.63	2527.19
278.85	2598.87
279.06	2533.34
279.28	2719.70
279.49	2916.31
279.71	2772.95
279.93	2713.56
280.14	2631.64
280.36	2527.19
280.57	2834.39
280.79	2686.94
281.00	2500.57
281.22	2586.58
281.43	2818.00
281.65	2412.51
281.86	2525.15
282.08	2775.00
282.29	3037.14
282.51	2535.39
282.73	2449.37
282.94	2502.62
283.16	2879.44
283.37	2777.05
283.59	2674.65
283.80	2764.76
284.02	2766.81
284.23	2623.45
284.45	2539.48
284.66	2568.15
284.88	2580.44
285.09	2648.02
285.31	2715.61
285.52	2807.77
285.74	2486.23
285.95	2731.99
286.17	2652.12
286.38	2883.54
286.60	2605.02
286.81	2625.50
287.03	2568.15
287.24	2701.27
287.46	2856.92
287.67	2643.93
287.89	2836.44
288.10	2652.12
288.32	2727.89
288.53	2772.95
288.75	2731.99
288.96	2725.85
289.18	2633.69
289.39	2658.26
289.61	2641.88
289.82	3018.71
290.04	2959.31
290.25	2469.85
290.47	2633.69
290.68	2707.41
290.90	2889.68
291.11	2455.51
291.33	2734.04
291.54	2619.35
291.76	2654.17
291.97	2729.94
292.18	2662.36
292.40	2633.69
292.61	2621.40
292.83	2928.60
293.04	2713.56
293.26	2818.00
293.47	2676.70
293.69	2576.34
293.90	2519.00
294.12	2897.88
294.33	2660.31
294.55	2572.25
294.76	2791.38
294.97	2947.03
295.19	3153.87
295.40	2625.50
295.62	2662.36
295.83	2809.81
296.05	2676.70
296.26	2842.58
296.48	2506.71
296.69	2668.50
296.90	2678.74
297.12	2777.05
297.33	2758.61
297.55	2699.22
297.76	2707.41
297.98	2678.74
298.19	2723.80
298.41	2709.46
298.62	2588.63
298.83	2748.37
299.05	2609.11
299.26	2695.13
299.48	2525.15
299.69	2682.84
299.90	2600.92
300.12	2582.49
300.33	2764.76
300.55	2686.94
300.76	2613.21
300.98	2592.73
301.19	2815.96
301.40	2584.54
301.62	2637.78
301.83	2797.53
302.05	2715.61
302.26	2527.19
302.47	2697.17
302.69	2535.39
302.90	2729.94
303.12	2439.13
303.33	2752.47
303.54	3004.37
303.76	2666.46
303.97	2660.31
304.19	2754.52
304.40	2609.11
304.61	2797.53
304.83	2721.75
305.04	2670.55
305.26	2858.96
305.47	2637.78
305.68	2625.50
305.90	2455.51
306.11	2965.46
306.33	2629.59
306.54	2555.86
306.75	2576.34
306.97	2555.86
307.18	2613.21
307.39	2543.58
307.61	2643.93
307.82	2607.06
308.04	2834.39
308.25	2547.67
308.46	2701.27
308.68	2682.84
308.89	2723.80
309.10	2783.19
309.32	2674.65
309.53	2715.61
309.74	2787.29
309.96	2572.25
310.17	2734.04
310.39	2656.22
310.60	2801.62
310.81	2652.12
311.03	2502.62
311.24	2809.81
311.45	2791.38
311.67	2795.48
311.88	2670.55
312.09	2602.97
312.31	2633.69
312.52	2590.68
312.73	2553.82
312.95	2475.99
313.16	2652.12
313.37	2772.95
313.59	2695.13
313.80	2920.40
314.01	2914.26
314.23	2578.39
314.44	2576.34
314.65	2557.91
314.87	2613.21
315.08	2617.30
315.29	2586.58
315.51	2615.26
315.72	2523.10
315.93	2744.28
316.15	2656.22
316.36	2643.93
316.57	2678.74
316.79	2625.50
317.00	2531.29
317.21	2797.53
317.43	2617.30
317.64	2648.02
317.85	2588.63
318.07	2615.26
318.28	2615.26
318.49	2678.74
318.70	2875.35
318.92	2807.77
319.13	2895.83
319.34	2848.72
319.56	2707.41
319.77	2848.72
319.98	2879.44
320.20	2818.00
320.41	2684.89
320.62	2910.16
320.83	2541.53
321.05	2834.39
321.26	2594.78
321.47	2713.56
321.69	2930.64
321.90	2467.80
322.11	2559.96
322.32	2791.38
322.54	2928.60
322.75	2596.82
322.96	3131.34
323.18	2512.86
323.39	2498.52
323.60	2486.23
323.81	2709.46
324.03	2574.30
324.24	2641.88
324.45	2719.70
324.66	2643.93
324.88	2815.96
325.09	2979.79
325.30	2670.55
325.52	2541.53
325.73	2725.85
325.94	2580.44
326.15	2478.04
326.37	2453.47
326.58	2899.92
326.79	2996.18
327.00	2547.67
327.22	2570.20
327.43	2625.50
327.64	2564.06
327.85	2742.23
328.07	2658.26
328.28	3006.42
328.49	2621.40
328.70	2635.74
328.92	2648.02
329.13	2637.78
329.34	2768.85
329.55	2848.72
329.76	2785.24
329.98	2725.85
330.19	2992.08
330.40	2752.47
330.61	2729.94
330.83	2813.91
331.04	2600.92
331.25	2715.61
331.46	2623.45
331.68	2482.14
331.89	2885.59
332.10	2662.36
332.31	2484.19
332.52	2701.27
332.74	2918.36
332.95	2451.42
333.16	2602.97
333.37	2844.63
333.58	2645.98
333.80	2666.46
334.01	2424.80
334.22	2654.17
334.43	2705.37
334.64	2519.00
334.86	2500.57
335.07	2568.15
335.28	2983.89
335.49	2500.57
335.70	2699.22
335.92	2922.45
336.13	3022.80
336.34	2643.93
336.55	2637.78
336.76	2734.04
336.98	2424.80
337.19	2674.65
337.40	2672.60
337.61	3071.95
337.82	2691.03
338.04	2674.65
338.25	2457.56
338.46	2717.65
338.67	2670.55
338.88	2490.33
339.09	2557.91
339.31	2609.11
339.52	2580.44
339.73	2547.67
339.94	2623.45
340.15	2805.72
340.36	2559.96
340.58	2688.98
340.79	2471.90
341.00	2875.35
341.21	2594.78
341.42	2768.85
341.63	2645.98
341.85	2891.73
342.06	2779.09
342.27	2508.76
342.48	2799.57
342.69	2576.34
342.90	2813.91
343.12	2822.10
343.33	2549.72
343.54	2887.64
343.75	2926.55
343.96	2670.55
344.17	2537.43
344.38	2709.46
344.60	2627.54
344.81	2494.43
345.02	2674.65
345.23	2928.60
345.44	3033.04
345.65	2719.70
345.86	2641.88
346.07	2775.00
346.29	2594.78
346.50	2715.61
346.71	2684.89
346.92	2871.25
347.13	3014.61
347.34	2691.03
347.55	2482.14
347.76	2731.99
347.98	2533.34
348.19	2615.26
348.40	2719.70
348.61	2607.06
348.82	2936.79
349.03	2697.17
349.24	2545.63
349.45	2990.03
349.66	2422.75
349.88	2596.82
350.09	2557.91
350.30	2934.74
350.51	2924.50
350.72	2693.08
350.93	2637.78
351.14	2719.70
351.35	2781.14
351.56	2547.67
351.77	2639.83
351.99	2850.77
352.20	2908.12
352.41	2725.85
352.62	2379.74
352.83	2676.70
353.04	2758.61
353.25	2519.00
353.46	2727.89
353.67	2901.97
353.88	2428.89
354.09	2609.11
354.30	2645.98
354.52	2791.38
354.73	2688.98
354.94	2553.82
355.15	2678.74
355.36	3063.76
355.57	2633.69
355.78	2582.49
355.99	2662.36
356.20	2631.64
356.41	2895.83
356.62	2643.93
356.83	2684.89
357.04	2930.64
357.25	2480.09
357.46	2592.73
357.68	2475.99
357.89	2631.64
358.10	2723.80
358.31	2605.02
358.52	2590.68
358.73	2629.59
358.94	2592.73
359.15	2549.72
359.36	2713.56
359.57	2754.52
359.78	2693.08
359.99	2711.51
360.20	2473.95
360.41	2688.98
360.62	2834.39
360.83	2633.69
361.04	2600.92
361.25	2807.77
361.46	2996.18
361.67	2736.09
361.88	2654.17
362.09	2815.96
362.30	2734.04
362.51	2535.39
362.72	2641.88
362.93	2785.24
363.14	2797.53
363.35	2611.16
363.56	2514.91
363.78	2865.11
363.99	2881.49
364.20	2596.82
364.41	2707.41
364.62	2967.51
364.83	2736.09
365.04	2572.25
365.25	2619.35
365.46	3026.90
365.67	2631.64
365.88	2654.17
366.09	2639.83
366.30	2619.35
366.51	2709.46
366.72	2543.58
366.93	2607.06
367.14	2684.89
367.35	2969.55
367.56	2619.35
367.77	2723.80
367.98	2762.71
368.18	2652.12
368.39	2709.46
368.60	2574.30
368.81	2867.16
369.02	2725.85
369.23	2658.26
369.44	2465.75
369.65	2584.54
369.86	2781.14
370.07	2719.70
370.28	2596.82
370.49	2756.57
370.70	2807.77
370.91	2531.29
371.12	2490.33
371.33	2887.64
371.54	2648.02
371.75	2725.85
371.96	2342.88
372.17	2752.47
372.38	2631.64
372.59	2643.93
372.80	2551.77
373.01	2701.27
373.22	2654.17
373.43	2584.54
373.64	2521.05
373.85	2934.74
374.06	2981.84
374.26	2746.33
374.47	2709.46
374.68	2918.36
374.89	2768.85
375.10	2562.01
375.31	2678.74
375.52	2731.99
375.73	2793.43
375.94	2482.14
376.15	2705.37
376.36	2609.11
376.57	2637.78
376.78	2645.98
376.99	2586.58
377.20	2959.31
377.40	2670.55
377.61	2877.40
377.82	2596.82
378.03	2987.99
378.24	2863.06
378.45	2719.70
378.66	2641.88
378.87	2469.85
379.08	2486.23
379.29	2539.48
379.50	2799.57
379.71	2686.94
379.91	2858.96
380.12	2680.79
380.33	2672.60
380.54	2684.89
380.75	2736.09
380.96	2641.88
381.17	2707.41
381.38	2748.37
381.59	2729.94
381.80	2621.40
382.00	2830.29
382.21	2764.76
382.42	3000.27
382.63	2865.11
382.84	2729.94
383.05	2822.10
383.26	2936.79
383.47	2635.74
383.68	2707.41
383.88	2844.63
384.09	2719.70
384.30	2818.00
384.51	2736.09
384.72	2652.12
384.93	2514.91
385.14	2619.35
385.35	2893.78
385.55	2478.04
385.76	2869.20
385.97	2637.78
386.18	2502.62
386.39	2537.43
386.60	2703.32
386.81	2627.54
387.02	2568.15
387.22	2537.43
387.43	2863.06
387.64	2645.98
387.85	2912.21
388.06	2818.00
388.27	4005.83
388.48	7610.25
388.68	11061.08
388.89	13428.53
389.10	14550.82
389.31	13758.25
389.52	10909.53
389.73	9559.92
389.93	8669.05
390.14	7901.06
390.35	7083.92
390.56	6438.81
390.77	5269.42
390.98	4085.70
391.18	3405.77
391.39	3180.50
391.60	2650.07
391.81	2799.57
392.02	2643.93
392.23	3063.76
392.43	2686.94
392.64	2777.05
392.85	2559.96
393.06	2985.94
393.27	2699.22
393.47	2584.54
393.68	2697.17
393.89	2559.96
394.10	2924.50
394.31	2613.21
394.52	2643.93
394.72	2668.50
394.93	2865.11
395.14	2562.01
395.35	2691.03
395.56	2619.35
395.76	2713.56
395.97	2605.02
396.18	2746.33
396.39	2834.39
396.60	3282.89
396.80	2957.27
397.01	2854.87
397.22	2834.39
397.43	2865.11
397.64	2605.02
397.84	2787.29
398.05	3104.72
398.26	2674.65
398.47	2768.85
398.67	2856.92
398.88	2742.23
399.09	2836.44
399.30	2588.63
399.51	2736.09
399.71	2668.50
399.92	2670.55
400.13	2684.89
400.34	2623.45
400.54	2777.05
400.75	2861.01
400.96	2731.99
401.17	2895.83
401.37	2756.57
401.58	2637.78
401.79	2641.88
402.00	2736.09
402.21	3112.91
402.41	2973.65
402.62	2914.26
402.83	3043.28
403.04	3012.56
403.24	3370.96
403.45	2752.47
403.66	2914.26
403.87	2957.27
404.07	3030.99
404.28	2889.68
404.49	2875.35
404.70	2840.53
404.90	2861.01
405.11	2660.31
405.32	2742.23
405.52	2555.86
405.73	2609.11
405.94	2557.91
406.15	2654.17
406.35	2830.29
406.56	2865.11
406.77	2615.26
406.98	2672.60
407.18	2562.01
407.39	3022.80
407.60	2598.87
407.80	2637.78
408.01	2594.78
408.22	2842.58
408.43	2580.44
408.63	2787.29
408.84	2840.53
409.05	2809.81
409.25	2562.01
409.46	2602.97
409.67	2635.74
409.88	2600.92
410.08	2727.89
410.29	2592.73
410.50	2799.57
410.70	2707.41
410.91	2539.48
411.12	2684.89
411.32	2707.41
411.53	2580.44
411.74	2688.98
411.95	2740.18
412.15	2803.67
412.36	2772.95
412.57	2807.77
412.77	2838.48
412.98	2742.23
413.19	2768.85
413.39	2750.42
413.60	2674.65
413.81	2922.45
414.01	2541.53
414.22	2762.71
414.43	2668.50
414.63	2621.40
414.84	2840.53
415.05	2660.31
415.25	2551.77
415.46	2811.86
415.67	2596.82
415.87	2721.75
416.08	2643.93
416.29	2736.09
416.49	2783.19
416.70	2727.89
416.91	2617.30
417.11	2756.57
417.32	2904.02
417.53	2789.33
417.73	2789.33
417.94	2746.33
418.15	2772.95
418.35	2666.46
418.56	2652.12
418.77	3010.51
418.97	2748.37
419.18	2686.94
419.38	2398.17
419.59	2635.74
419.80	2930.64
420.00	2564.06
420.21	2670.55
420.42	2852.82
420.62	2830.29
420.83	2625.50
421.04	2650.07
421.24	2711.51
421.45	2820.05
421.65	2607.06
421.86	2670.55
422.07	2858.96
422.27	2838.48
422.48	2590.68
422.69	2531.29
422.89	2789.33
423.10	2682.84
423.30	2523.10
423.51	2666.46
423.72	2729.94
423.92	2791.38
424.13	2613.21
424.33	2727.89
424.54	2875.35
424.75	2680.79
424.95	2863.06
425.16	2652.12
425.36	2713.56
425.57	2871.25
425.78	2648.02
425.98	2779.09
426.19	2678.74
426.39	2568.15
426.60	2742.23
426.81	2801.62
427.01	2799.57
427.22	2559.96
427.42	2488.28
427.63	2598.87
427.83	2838.48
428.04	2996.18
428.25	2766.81
428.45	2785.24
428.66	2858.96
428.86	2752.47
429.07	2631.64
429.28	2674.65
429.48	2764.76
429.69	2566.10
429.89	2652.12
430.10	2537.43
430.30	2828.24
430.51	2897.88
430.71	2523.10
430.92	2643.93
431.13	2643.93
431.33	2791.38
431.54	2723.80
431.74	2858.96
431.95	3043.28
432.15	2553.82
432.36	2695.13
432.56	2711.51
432.77	3018.71
432.98	2912.21
433.18	2682.84
433.39	2613.21
433.59	2697.17
433.80	2967.51
434.00	2836.44
434.21	2584.54
434.41	2672.60
434.62	3155.92
434.82	2555.86
435.03	2545.63
435.23	2811.86
435.44	2471.90
435.64	2543.58
435.85	2731.99
436.06	2932.69
436.26	2842.58
436.47	2617.30
436.67	2637.78
436.88	2586.58
437.08	2883.54
437.29	2785.24
437.49	2709.46
437.70	2928.60
437.90	2731.99
438.11	2887.64
438.31	2666.46
438.52	3043.28
438.72	2963.41
438.93	2996.18
439.13	2674.65
439.34	2914.26
439.54	2680.79
439.75	2699.22
439.95	2731.99
440.16	2602.97
440.36	2727.89
440.57	2684.89
440.77	2697.17
440.98	2723.80
441.18	2785.24
441.39	2627.54
441.59	2527.19
441.80	2987.99
442.00	2783.19
442.21	2711.51
442.41	2533.34
442.62	2891.73
442.82	2617.30
443.02	2652.12
443.23	2736.09
443.43	2637.78
443.64	2879.44
443.84	2594.78
444.05	2818.00
444.25	2768.85
444.46	2709.46
444.66	2574.30
444.87	2822.10
445.07	2490.33
445.28	2734.04
445.48	2785.24
445.69	2723.80
445.89	3102.67
446.09	2709.46
446.30	2951.12
446.50	3041.23
446.71	4581.31
446.91	5664.68
447.12	6518.68
447.32	6922.13
447.53	6573.98
447.73	5447.60
447.93	4790.20
448.14	4528.06
448.34	4456.38
448.55	3930.05
448.75	3946.44
448.96	3575.75
449.16	3375.05
449.36	3289.04
449.57	3039.19
449.77	2693.08
449.98	2652.12
450.18	2830.29
450.39	2662.36
450.59	2852.82
450.79	2711.51
451.00	2682.84
451.20	2709.46
451.41	2705.37
451.61	2801.62
451.81	2688.98
452.02	2645.98
452.22	2572.25
452.43	2656.22
452.63	2553.82
