SpectraSuite Data File
++++++++++++++++++++++++++++++++++++
Date: Thu May 05 16:20:35 CEST 2016
User: root
Dark Spectrum Present: No
Reference Spectrum Present: No
Number of Sampled Component Spectra: 1
Spectrometers: USB4C02835
Integration Time (usec): 100000 (USB4C02835)
Spectra Averaged: 1 (USB4C02835)
Boxcar Smoothing: 0 (USB4C02835)
Correct for Electrical Dark: No (USB4C02835)
Strobe/Lamp Enabled: No (USB4C02835)
Correct for Detector Non-linearity: No (USB4C02835)
Correct for Stray Light: No (USB4C02835)
Number of Pixels in Processed Spectrum: 3648
>>>>>Begin Processed Spectral Data<<<<<
177.47	2052.06
177.69	2052.06
177.91	2052.06
178.13	2029.54
178.36	1972.19
178.58	2537.43
178.80	2766.81
179.02	2531.29
179.24	2615.26
179.46	2398.17
179.68	2584.54
179.90	2662.36
180.13	2703.32
180.35	2400.22
180.57	2469.85
180.79	2889.68
181.01	2707.41
181.23	2572.25
181.45	2627.54
181.67	2858.96
181.90	2891.73
182.12	2504.67
182.34	2353.12
182.56	2805.72
182.78	2768.85
183.00	2428.89
183.22	2521.05
183.44	2488.28
183.66	3162.06
183.89	2633.69
184.11	2553.82
184.33	2807.77
184.55	2772.95
184.77	2508.76
184.99	2605.02
185.21	2629.59
185.43	3061.71
185.65	2529.24
185.87	2500.57
186.10	3016.66
186.32	3053.52
186.54	2557.91
186.76	2566.10
186.98	2818.00
187.20	2621.40
187.42	2541.53
187.64	2471.90
187.86	2824.15
188.08	2799.57
188.30	2437.08
188.52	2545.63
188.75	2985.94
188.97	2863.06
189.19	2492.38
189.41	2484.19
189.63	2799.57
189.85	2637.78
190.07	2385.88
190.29	2392.03
190.51	2740.18
190.73	2551.77
190.95	2680.79
191.17	2576.34
191.39	2562.01
191.61	2701.27
191.84	2586.58
192.06	2609.11
192.28	2488.28
192.50	3172.30
192.72	2592.73
192.94	2490.33
193.16	2820.05
193.38	2787.29
193.60	2486.23
193.82	2592.73
194.04	2848.72
194.26	2750.42
194.48	2508.76
194.70	2488.28
194.92	2670.55
195.14	2717.65
195.36	2465.75
195.58	2605.02
195.80	2729.94
196.02	2715.61
196.24	2430.94
196.46	2596.82
196.69	2629.59
196.91	3162.06
197.13	2512.86
197.35	2504.67
197.57	2979.79
197.79	2838.48
198.01	2609.11
198.23	2594.78
198.45	2813.91
198.67	2602.97
198.89	2336.73
199.11	2609.11
199.33	2625.50
199.55	2457.56
199.77	2539.48
199.99	2615.26
200.21	2668.50
200.43	2777.05
200.65	2414.56
200.87	2375.64
201.09	2768.85
201.31	2693.08
201.53	2602.97
201.75	2543.58
201.97	2840.53
202.19	2725.85
202.41	2570.20
202.63	2678.74
202.85	2811.86
203.07	2787.29
203.29	2586.58
203.51	2420.70
203.73	2594.78
203.95	3129.30
204.17	2482.14
204.39	2582.49
204.61	2652.12
204.83	2656.22
205.05	2676.70
205.27	2658.26
205.49	2987.99
205.71	2684.89
205.93	2447.32
206.15	2445.27
206.37	2740.18
206.59	2602.97
206.81	2402.27
207.03	2459.61
207.25	2580.44
207.47	2803.67
207.69	2525.15
207.91	2670.55
208.13	2969.55
208.34	2652.12
208.56	2494.43
208.78	2572.25
209.00	2725.85
209.22	2619.35
209.44	2516.95
209.66	2516.95
209.88	2801.62
210.10	2666.46
210.32	2490.33
210.54	2519.00
210.76	2697.17
210.98	2793.43
211.20	2365.40
211.42	2600.92
211.64	2883.54
211.86	2807.77
212.08	2580.44
212.30	2574.30
212.52	2713.56
212.74	2848.72
212.96	2621.40
213.17	2635.74
213.39	2797.53
213.61	3049.43
213.83	2510.81
214.05	2338.78
214.27	2883.54
214.49	2541.53
214.71	2445.27
214.93	2586.58
215.15	2711.51
215.37	2793.43
215.59	2428.89
215.81	2582.49
216.03	2916.31
216.24	2736.09
216.46	2553.82
216.68	2613.21
216.90	2832.34
217.12	2871.25
217.34	2574.30
217.56	2654.17
217.78	2867.16
218.00	2811.86
218.22	2523.10
218.44	2631.64
218.66	2777.05
218.87	3004.37
219.09	2504.67
219.31	2529.24
219.53	2701.27
219.75	2641.88
219.97	2572.25
220.19	2578.39
220.41	2744.28
220.63	3004.37
220.85	2533.34
221.06	2539.48
221.28	3020.75
221.50	2729.94
221.72	2527.19
221.94	2439.13
222.16	2738.13
222.38	2832.34
222.60	2496.47
222.82	2504.67
223.03	2844.63
223.25	2523.10
223.47	2473.95
223.69	2725.85
223.91	2828.24
224.13	2742.23
224.35	2435.03
224.57	2758.61
224.78	2828.24
225.00	2625.50
225.22	2539.48
225.44	2418.65
225.66	2858.96
225.88	2572.25
226.10	2576.34
226.32	2605.02
226.53	2883.54
226.75	2672.60
226.97	2521.05
227.19	2508.76
227.41	2613.21
227.63	2643.93
227.85	2351.07
228.06	2543.58
228.28	2731.99
228.50	2781.14
228.72	2445.27
228.94	2455.51
229.16	2467.80
229.37	2580.44
229.59	2478.04
229.81	2734.04
230.03	2740.18
230.25	2453.47
230.47	2342.88
230.69	2510.81
230.90	2858.96
231.12	2645.98
231.34	2564.06
231.56	2643.93
231.78	2504.67
232.00	2736.09
232.21	2455.51
232.43	2555.86
232.65	2457.56
232.87	2852.82
233.09	2439.13
233.30	2514.91
233.52	2856.92
233.74	2766.81
233.96	2525.15
234.18	2584.54
234.40	2650.07
234.61	3000.27
234.83	2482.14
235.05	2418.65
235.27	3069.91
235.49	2834.39
235.70	2451.42
235.92	2576.34
236.14	2738.13
236.36	3100.62
236.58	2373.60
236.79	2564.06
237.01	2666.46
237.23	2719.70
237.45	2697.17
237.67	2494.43
237.88	2815.96
238.10	3002.32
238.32	2428.89
238.54	2494.43
238.76	2676.70
238.97	2527.19
239.19	2463.71
239.41	2629.59
239.63	2893.78
239.85	2652.12
240.06	2439.13
240.28	2441.18
240.50	2934.74
240.72	2768.85
240.93	2457.56
241.15	2613.21
241.37	2772.95
241.59	2932.69
241.81	2586.58
242.02	2547.67
242.24	2809.81
242.46	2801.62
242.68	2375.64
242.89	2527.19
243.11	2875.35
243.33	2744.28
243.55	2529.24
243.76	2648.02
243.98	2670.55
244.20	2754.52
244.42	2502.62
244.64	2549.72
244.85	2435.03
245.07	2586.58
245.29	2480.09
245.51	2602.97
245.72	2832.34
245.94	2797.53
246.16	2500.57
246.38	2596.82
246.59	2662.36
246.81	2654.17
247.03	2457.56
247.24	2383.84
247.46	2572.25
247.68	2791.38
247.90	2469.85
248.11	2537.43
248.33	2807.77
248.55	2699.22
248.77	2576.34
248.98	2547.67
249.20	2983.89
249.42	2695.13
249.64	2555.86
249.85	2453.47
250.07	2586.58
250.29	2789.33
250.50	2607.06
250.72	2437.08
250.94	2736.09
251.16	3030.99
251.37	2473.95
251.59	2553.82
251.81	2867.16
252.02	2908.12
252.24	2500.57
252.46	2596.82
252.68	2629.59
252.89	2633.69
253.11	2375.64
253.33	2650.07
253.54	2877.40
253.76	2594.78
253.98	2482.14
254.20	2535.39
254.41	2627.54
254.63	2717.65
254.85	2363.36
255.06	2623.45
255.28	2756.57
255.50	2688.98
255.71	2465.75
255.93	2402.27
256.15	2676.70
256.36	2805.72
256.58	2355.16
256.80	2457.56
257.02	2619.35
257.23	2707.41
257.45	2541.53
257.67	2580.44
257.88	2639.83
258.10	2832.34
258.32	2580.44
258.53	2521.05
258.75	2992.08
258.97	2676.70
259.18	2447.32
259.40	2533.34
259.62	3043.28
259.83	2895.83
260.05	2469.85
260.27	3174.35
260.48	2807.77
260.70	2566.10
260.92	2490.33
261.13	2504.67
261.35	2754.52
261.57	2830.29
261.78	2361.31
262.00	2424.80
262.22	2797.53
262.43	2645.98
262.65	2523.10
262.86	2615.26
263.08	3069.91
263.30	2793.43
263.51	2392.03
263.73	2506.71
263.95	2963.41
264.16	2613.21
264.38	2484.19
264.60	2441.18
264.81	2756.57
265.03	2906.07
265.25	2850.77
265.46	2519.00
265.68	3000.27
265.89	2856.92
266.11	2430.94
266.33	2605.02
266.54	2820.05
266.76	2781.14
266.98	2613.21
267.19	2711.51
267.41	2916.31
267.62	2686.94
267.84	2398.17
268.06	2660.31
268.27	2801.62
268.49	2883.54
268.70	2627.54
268.92	2586.58
269.14	2557.91
269.35	2506.71
269.57	2674.65
269.79	2607.06
270.00	2654.17
270.22	3016.66
270.43	2424.80
270.65	2357.21
270.87	2768.85
271.08	2863.06
271.30	2631.64
271.51	2514.91
271.73	2803.67
271.95	2994.13
272.16	2478.04
272.38	2605.02
272.59	2699.22
272.81	2736.09
273.02	2500.57
273.24	2559.96
273.46	2846.68
273.67	2543.58
273.89	2385.88
274.10	2525.15
274.32	2877.40
274.54	2750.42
274.75	2576.34
274.97	2559.96
275.18	2873.30
275.40	2789.33
275.61	2537.43
275.83	2670.55
276.05	2545.63
276.26	2744.28
276.48	2629.59
276.69	2613.21
276.91	2600.92
277.12	2944.98
277.34	2674.65
277.55	2734.04
277.77	2736.09
277.99	2684.89
278.20	2494.43
278.42	2494.43
278.63	2631.64
278.85	2596.82
279.06	2533.34
279.28	2621.40
279.49	2824.15
279.71	2785.24
279.93	2641.88
280.14	2637.78
280.36	2633.69
280.57	2834.39
280.79	2645.98
281.00	2498.52
281.22	2619.35
281.43	2850.77
281.65	2400.22
281.86	2486.23
282.08	2758.61
282.29	3002.32
282.51	2486.23
282.73	2572.25
282.94	2455.51
283.16	2818.00
283.37	2719.70
283.59	2623.45
283.80	2658.26
284.02	2725.85
284.23	2617.30
284.45	2615.26
284.66	2545.63
284.88	2549.72
285.09	2621.40
285.31	2703.32
285.52	2783.19
285.74	2475.99
285.95	2668.50
286.17	2668.50
286.38	2944.98
286.60	2592.73
286.81	2516.95
287.03	2535.39
287.24	2695.13
287.46	2721.75
287.67	2652.12
287.89	2822.10
288.10	2725.85
288.32	2799.57
288.53	2789.33
288.75	2596.82
288.96	2858.96
289.18	2549.72
289.39	2553.82
289.61	2650.07
289.82	3047.38
290.04	3016.66
290.25	2475.99
290.47	2621.40
290.68	2713.56
290.90	2891.73
291.11	2531.29
291.33	2715.61
291.54	2650.07
291.76	2619.35
291.97	2605.02
292.18	2676.70
292.40	2619.35
292.61	2635.74
292.83	2818.00
293.04	2670.55
293.26	2750.42
293.47	2615.26
293.69	2488.28
293.90	2592.73
294.12	2932.69
294.33	2648.02
294.55	2674.65
294.76	2707.41
294.97	2897.88
295.19	3016.66
295.40	2572.25
295.62	2654.17
295.83	2830.29
296.05	2625.50
296.26	2731.99
296.48	2582.49
296.69	2684.89
296.90	2664.41
297.12	2723.80
297.33	2813.91
297.55	2805.72
297.76	2813.91
297.98	2650.07
298.19	2762.71
298.41	2758.61
298.62	2611.16
298.83	2813.91
299.05	2600.92
299.26	2674.65
299.48	2611.16
299.69	2623.45
299.90	2678.74
300.12	2731.99
300.33	2906.07
300.55	2670.55
300.76	2643.93
300.98	2621.40
301.19	2893.78
301.40	2629.59
301.62	2594.78
301.83	2828.24
302.05	2725.85
302.26	2629.59
302.47	2652.12
302.69	2566.10
302.90	2805.72
303.12	2357.21
303.33	2633.69
303.54	3047.38
303.76	2691.03
303.97	2555.86
304.19	2748.37
304.40	2562.01
304.61	2754.52
304.83	2881.49
305.04	2738.13
305.26	2795.48
305.47	2650.07
305.68	2623.45
305.90	2484.19
306.11	2901.97
306.33	2691.03
306.54	2553.82
306.75	2555.86
306.97	2553.82
307.18	2555.86
307.39	2611.16
307.61	2643.93
307.82	2744.28
308.04	2822.10
308.25	2506.71
308.46	2676.70
308.68	2750.42
308.89	2717.65
309.10	2725.85
309.32	2641.88
309.53	2666.46
309.74	2754.52
309.96	2543.58
310.17	2688.98
310.39	2693.08
310.60	2828.24
310.81	2645.98
311.03	2564.06
311.24	2791.38
311.45	2695.13
311.67	2834.39
311.88	2654.17
312.09	2686.94
312.31	2670.55
312.52	2539.48
312.73	2519.00
312.95	2533.34
313.16	2641.88
313.37	2760.66
313.59	2672.60
313.80	2883.54
314.01	2930.64
314.23	2613.21
314.44	2527.19
314.65	2484.19
314.87	2662.36
315.08	2525.15
315.29	2637.78
315.51	2547.67
315.72	2457.56
315.93	2815.96
316.15	2652.12
316.36	2711.51
316.57	2701.27
316.79	2596.82
317.00	2602.97
317.21	2801.62
317.43	2650.07
317.64	2605.02
317.85	2541.53
318.07	2607.06
318.28	2779.09
318.49	2729.94
318.70	2947.03
318.92	2834.39
319.13	2807.77
319.34	2803.67
319.56	2662.36
319.77	2877.40
319.98	2840.53
320.20	2742.23
320.41	2758.61
320.62	2852.82
320.83	2510.81
321.05	2947.03
321.26	2621.40
321.47	2785.24
321.69	2906.07
321.90	2469.85
322.11	2572.25
322.32	2752.47
322.54	2840.53
322.75	2596.82
322.96	3149.78
323.18	2555.86
323.39	2453.47
323.60	2559.96
323.81	2744.28
324.03	2633.69
324.24	2725.85
324.45	2703.32
324.66	2592.73
324.88	2832.34
325.09	2879.44
325.30	2559.96
325.52	2625.50
325.73	2791.38
325.94	2570.20
326.15	2488.28
326.37	2533.34
326.58	2856.92
326.79	2938.84
327.00	2605.02
327.22	2652.12
327.43	2578.39
327.64	2570.20
327.85	2731.99
328.07	2645.98
328.28	2895.83
328.49	2686.94
328.70	2586.58
328.92	2668.50
329.13	2719.70
329.34	2815.96
329.55	2883.54
329.76	2715.61
329.98	2740.18
330.19	2875.35
330.40	2695.13
330.61	2631.64
330.83	2887.64
331.04	2592.73
331.25	2705.37
331.46	2635.74
331.68	2488.28
331.89	2932.69
332.10	2652.12
332.31	2471.90
332.52	2711.51
332.74	2861.01
332.95	2473.95
333.16	2635.74
333.37	2881.49
333.58	2654.17
333.80	2686.94
334.01	2416.60
334.22	2731.99
334.43	2648.02
334.64	2547.67
334.86	2555.86
335.07	2531.29
335.28	2977.75
335.49	2439.13
335.70	2664.41
335.92	2918.36
336.13	2994.13
336.34	2707.41
336.55	2643.93
336.76	2834.39
336.98	2453.47
337.19	2686.94
337.40	2719.70
337.61	3053.52
337.82	2723.80
338.04	2691.03
338.25	2451.42
338.46	2742.23
338.67	2686.94
338.88	2539.48
339.09	2469.85
339.31	2682.84
339.52	2482.14
339.73	2514.91
339.94	2654.17
340.15	2854.87
340.36	2734.04
340.58	2678.74
340.79	2592.73
341.00	2811.86
341.21	2547.67
341.42	2883.54
341.63	2551.77
341.85	2809.81
342.06	2691.03
342.27	2527.19
342.48	2779.09
342.69	2473.95
342.90	2822.10
343.12	2752.47
343.33	2557.91
343.54	2873.30
343.75	2965.46
343.96	2609.11
344.17	2506.71
344.38	2740.18
344.60	2586.58
344.81	2594.78
345.02	2609.11
345.23	2785.24
345.44	3080.14
345.65	2691.03
345.86	2609.11
346.07	2768.85
346.29	2609.11
346.50	2740.18
346.71	2619.35
346.92	2938.84
347.13	2969.55
347.34	2609.11
347.55	2510.81
347.76	2762.71
347.98	2506.71
348.19	2662.36
348.40	2674.65
348.61	2674.65
348.82	2942.93
349.03	2750.42
349.24	2514.91
349.45	3004.37
349.66	2457.56
349.88	2547.67
350.09	2533.34
350.30	2961.36
350.51	2908.12
350.72	2648.02
350.93	2580.44
351.14	2627.54
351.35	2832.34
351.56	2637.78
351.77	2641.88
351.99	2834.39
352.20	2916.31
352.41	2803.67
352.62	2461.66
352.83	2662.36
353.04	2736.09
353.25	2564.06
353.46	2625.50
353.67	2838.48
353.88	2461.66
354.09	2619.35
354.30	2574.30
354.52	2838.48
354.73	2676.70
354.94	2580.44
355.15	2633.69
355.36	2987.99
355.57	2670.55
355.78	2611.16
355.99	2549.72
356.20	2695.13
356.41	2832.34
356.62	2738.13
356.83	2605.02
357.04	2973.65
357.25	2543.58
357.46	2508.76
357.68	2494.43
357.89	2547.67
358.10	2699.22
358.31	2637.78
358.52	2652.12
358.73	2576.34
358.94	2588.63
359.15	2623.45
359.36	2641.88
359.57	2711.51
359.78	2748.37
359.99	2723.80
360.20	2527.19
360.41	2652.12
360.62	2826.20
360.83	2613.21
361.04	2564.06
361.25	2838.48
361.46	2910.16
361.67	2686.94
361.88	2611.16
362.09	2850.77
362.30	2809.81
362.51	2570.20
362.72	2734.04
362.93	2826.20
363.14	2846.68
363.35	2641.88
363.56	2521.05
363.78	2879.44
363.99	2832.34
364.20	2527.19
364.41	2709.46
364.62	2924.50
364.83	2856.92
365.04	2688.98
365.25	2615.26
365.46	3016.66
365.67	2654.17
365.88	2656.22
366.09	2615.26
366.30	2590.68
366.51	2652.12
366.72	2555.86
366.93	2625.50
367.14	2772.95
367.35	2906.07
367.56	2553.82
367.77	2740.18
367.98	2691.03
368.18	2727.89
368.39	2754.52
368.60	2564.06
368.81	2818.00
369.02	2705.37
369.23	2578.39
369.44	2504.67
369.65	2660.31
369.86	2760.66
370.07	2688.98
370.28	2480.09
370.49	2764.76
370.70	2715.61
370.91	2523.10
371.12	2506.71
371.33	2865.11
371.54	2629.59
371.75	2703.32
371.96	2363.36
372.17	2660.31
372.38	2678.74
372.59	2635.74
372.80	2607.06
373.01	2738.13
373.22	2858.96
373.43	2703.32
373.64	2519.00
373.85	2920.40
374.06	3039.19
374.26	2760.66
374.47	2752.47
374.68	2961.36
374.89	2682.84
375.10	2576.34
375.31	2699.22
375.52	2764.76
375.73	2680.79
375.94	2523.10
376.15	2775.00
376.36	2578.39
376.57	2670.55
376.78	2637.78
376.99	2641.88
377.20	2867.16
377.40	2768.85
377.61	2889.68
377.82	2580.44
378.03	2942.93
378.24	2820.05
378.45	2707.41
378.66	2711.51
378.87	2492.38
379.08	2559.96
379.29	2559.96
379.50	2777.05
379.71	2729.94
379.91	2895.83
380.12	2605.02
380.33	2725.85
380.54	2742.23
380.75	2648.02
380.96	2637.78
381.17	2752.47
381.38	2699.22
381.59	2801.62
381.80	2635.74
382.00	2842.58
382.21	2699.22
382.42	2928.60
382.63	2904.02
382.84	2713.56
383.05	2885.59
383.26	2965.46
383.47	2760.66
383.68	2664.41
383.88	2781.14
384.09	2772.95
384.30	2793.43
384.51	2633.69
384.72	2668.50
384.93	2566.10
385.14	2686.94
385.35	2830.29
385.55	2512.86
385.76	2951.12
385.97	2633.69
386.18	2498.52
386.39	2580.44
386.60	2705.37
386.81	2617.30
387.02	2514.91
387.22	2498.52
387.43	2811.86
387.64	2656.22
387.85	2875.35
388.06	2822.10
388.27	3909.57
388.48	7532.43
388.68	11073.37
388.89	13700.91
389.10	14436.13
389.31	14155.56
389.52	11040.60
389.73	9473.90
389.93	8642.43
390.14	7939.97
390.35	6971.29
390.56	6414.24
390.77	5345.20
390.98	4149.18
391.18	3383.24
391.39	3153.87
391.60	2770.90
391.81	2873.30
392.02	2578.39
392.23	3026.90
392.43	2805.72
392.64	2703.32
392.85	2668.50
393.06	2969.55
393.27	2709.46
393.47	2602.97
393.68	2691.03
393.89	2662.36
394.10	2942.93
394.31	2596.82
394.52	2609.11
394.72	2650.07
394.93	2922.45
395.14	2568.15
395.35	2731.99
395.56	2545.63
395.76	2654.17
395.97	2764.76
396.18	2723.80
396.39	2797.53
396.60	3284.94
396.80	2955.22
397.01	2908.12
397.22	2826.20
397.43	2873.30
397.64	2629.59
397.84	2750.42
398.05	3022.80
398.26	2678.74
398.47	2768.85
398.67	2830.29
398.88	2799.57
399.09	2838.48
399.30	2535.39
399.51	2775.00
399.71	2662.36
399.92	2717.65
400.13	2680.79
400.34	2643.93
400.54	2721.75
400.75	2949.08
400.96	2664.41
401.17	2895.83
401.37	2836.44
401.58	2744.28
401.79	2625.50
402.00	2805.72
402.21	3119.06
402.41	2871.25
402.62	2805.72
402.83	2897.88
403.04	3139.54
403.24	3393.48
403.45	2693.08
403.66	2836.44
403.87	2887.64
404.07	2996.18
404.28	2861.01
404.49	2836.44
404.70	2738.13
404.90	2811.86
405.11	2654.17
405.32	2797.53
405.52	2709.46
405.73	2596.82
405.94	2633.69
406.15	2650.07
406.35	2824.15
406.56	2775.00
406.77	2746.33
406.98	2674.65
407.18	2568.15
407.39	2959.31
407.60	2668.50
407.80	2662.36
408.01	2568.15
408.22	2691.03
408.43	2566.10
408.63	2760.66
408.84	2762.71
409.05	2805.72
409.25	2506.71
409.46	2619.35
409.67	2654.17
409.88	2566.10
410.08	2607.06
410.29	2535.39
410.50	2875.35
410.70	2791.38
410.91	2545.63
411.12	2742.23
411.32	2744.28
411.53	2553.82
411.74	2740.18
411.95	2793.43
412.15	2711.51
412.36	2793.43
412.57	2844.63
412.77	2811.86
412.98	2701.27
413.19	2652.12
413.39	2742.23
413.60	2641.88
413.81	2996.18
414.01	2514.91
414.22	2652.12
414.43	2746.33
414.63	2705.37
414.84	2822.10
415.05	2656.22
415.25	2459.61
415.46	2838.48
415.67	2623.45
415.87	2658.26
416.08	2625.50
416.29	2695.13
416.49	2754.52
416.70	2643.93
416.91	2564.06
417.11	2721.75
417.32	2891.73
417.53	2777.05
417.73	2713.56
417.94	2650.07
418.15	2844.63
418.35	2684.89
418.56	2701.27
418.77	3121.10
418.97	2764.76
419.18	2662.36
419.38	2330.59
419.59	2740.18
419.80	2936.79
420.00	2607.06
420.21	2666.46
420.42	2889.68
420.62	2768.85
420.83	2621.40
421.04	2580.44
421.24	2674.65
421.45	2799.57
421.65	2621.40
421.86	2678.74
422.07	2842.58
422.27	2768.85
422.48	2588.63
422.69	2490.33
422.89	2770.90
423.10	2605.02
423.30	2623.45
423.51	2666.46
423.72	2760.66
423.92	2895.83
424.13	2469.85
424.33	2676.70
424.54	2797.53
424.75	2744.28
424.95	2797.53
425.16	2686.94
425.36	2600.92
425.57	2850.77
425.78	2695.13
425.98	2760.66
426.19	2748.37
426.39	2586.58
426.60	2697.17
426.81	2777.05
427.01	2818.00
427.22	2619.35
427.42	2539.48
427.63	2607.06
427.83	2879.44
428.04	3045.33
428.25	2762.71
428.45	2785.24
428.66	2848.72
428.86	2662.36
429.07	2643.93
429.28	2684.89
429.48	2715.61
429.69	2625.50
429.89	2744.28
430.10	2537.43
430.30	2750.42
430.51	2942.93
430.71	2621.40
430.92	2713.56
431.13	2641.88
431.33	2813.91
431.54	2676.70
431.74	2844.63
431.95	3110.86
432.15	2574.30
432.36	2596.82
432.56	2738.13
432.77	3037.14
432.98	3004.37
433.18	2736.09
433.39	2648.02
433.59	2648.02
433.80	2994.13
434.00	2863.06
434.21	2637.78
434.41	2621.40
434.62	3106.77
434.82	2613.21
435.03	2537.43
435.23	2734.04
435.44	2389.98
435.64	2639.83
435.85	2717.65
436.06	2801.62
436.26	2858.96
436.47	2600.92
436.67	2547.67
436.88	2629.59
437.08	2918.36
437.29	2789.33
437.49	2768.85
437.70	2861.01
437.90	2772.95
438.11	2840.53
438.31	2691.03
438.52	2922.45
438.72	2906.07
438.93	3004.37
439.13	2723.80
439.34	2881.49
439.54	2707.41
439.75	2752.47
439.95	2781.14
440.16	2580.44
440.36	2742.23
440.57	2658.26
440.77	2668.50
440.98	2764.76
441.18	2748.37
441.39	2605.02
441.59	2498.52
441.80	2998.23
442.00	2719.70
442.21	2834.39
442.41	2529.24
442.62	2940.88
442.82	2590.68
443.02	2605.02
443.23	2666.46
443.43	2648.02
443.64	2901.97
443.84	2523.10
444.05	2736.09
444.25	2785.24
444.46	2652.12
444.66	2666.46
444.87	2899.92
445.07	2490.33
445.28	2701.27
445.48	2824.15
445.69	2707.41
445.89	3080.14
446.09	2695.13
446.30	2916.31
446.50	3188.69
446.71	4462.52
446.91	5607.34
447.12	6422.43
447.32	6829.98
447.53	6487.96
447.73	5396.40
447.93	4757.43
448.14	4489.15
448.34	4530.11
448.55	3932.10
448.75	3819.46
448.96	3669.96
449.16	3411.92
449.36	3303.37
449.57	2949.08
449.77	2805.72
449.98	2686.94
450.18	2836.44
450.39	2623.45
450.59	2686.94
450.79	2760.66
451.00	2629.59
451.20	2729.94
451.41	2670.55
451.61	2766.81
451.81	2717.65
452.02	2598.87
452.22	2635.74
452.43	2623.45
452.63	2580.44
