SpectraSuite Data File
++++++++++++++++++++++++++++++++++++
Date: Thu May 05 16:20:57 CEST 2016
User: root
Dark Spectrum Present: No
Reference Spectrum Present: No
Number of Sampled Component Spectra: 1
Spectrometers: USB4C02835
Integration Time (usec): 100000 (USB4C02835)
Spectra Averaged: 1 (USB4C02835)
Boxcar Smoothing: 0 (USB4C02835)
Correct for Electrical Dark: No (USB4C02835)
Strobe/Lamp Enabled: No (USB4C02835)
Correct for Detector Non-linearity: No (USB4C02835)
Correct for Stray Light: No (USB4C02835)
Number of Pixels in Processed Spectrum: 3648
>>>>>Begin Processed Spectral Data<<<<<
177.47	2041.82
177.69	2041.82
177.91	2041.82
178.13	1955.81
178.36	2021.35
178.58	2629.59
178.80	2731.99
179.02	2451.42
179.24	2451.42
179.46	2414.56
179.68	2533.34
179.90	2705.37
180.13	2674.65
180.35	2353.12
180.57	2426.84
180.79	2832.34
181.01	2664.41
181.23	2506.71
181.45	2613.21
181.67	2754.52
181.90	2895.83
182.12	2623.45
182.34	2357.21
182.56	2803.67
182.78	2820.05
183.00	2455.51
183.22	2508.76
183.44	2406.36
183.66	3149.78
183.89	2701.27
184.11	2430.94
184.33	2791.38
184.55	2844.63
184.77	2498.52
184.99	2535.39
185.21	2645.98
185.43	3176.40
185.65	2500.57
185.87	2387.93
186.10	3080.14
186.32	3082.19
186.54	2611.16
186.76	2596.82
186.98	2889.68
187.20	2746.33
187.42	2590.68
187.64	2545.63
187.86	2746.33
188.08	2822.10
188.30	2447.32
188.52	2523.10
188.75	2875.35
188.97	2901.97
189.19	2475.99
189.41	2531.29
189.63	2772.95
189.85	2643.93
190.07	2432.99
190.29	2465.75
190.51	2846.68
190.73	2582.49
190.95	2629.59
191.17	2449.37
191.39	2514.91
191.61	2680.79
191.84	2496.47
192.06	2576.34
192.28	2588.63
192.50	3088.34
192.72	2617.30
192.94	2555.86
193.16	2961.36
193.38	2731.99
193.60	2424.80
193.82	2619.35
194.04	2951.12
194.26	2826.20
194.48	2471.90
194.70	2492.38
194.92	2621.40
195.14	2877.40
195.36	2510.81
195.58	2605.02
195.80	2688.98
196.02	2652.12
196.24	2490.33
196.46	2607.06
196.69	2688.98
196.91	3090.38
197.13	2553.82
197.35	2537.43
197.57	2969.55
197.79	2785.24
198.01	2586.58
198.23	2490.33
198.45	2785.24
198.67	2557.91
198.89	2400.22
199.11	2600.92
199.33	2576.34
199.55	2451.42
199.77	2543.58
199.99	2666.46
200.21	2609.11
200.43	2727.89
200.65	2383.84
200.87	2336.73
201.09	2754.52
201.31	2629.59
201.53	2549.72
201.75	2619.35
201.97	2803.67
202.19	2734.04
202.41	2562.01
202.63	2664.41
202.85	2797.53
203.07	2731.99
203.29	2559.96
203.51	2389.98
203.73	2684.89
203.95	3188.69
204.17	2555.86
204.39	2650.07
204.61	2736.09
204.83	2684.89
205.05	2607.06
205.27	2557.91
205.49	3082.19
205.71	2674.65
205.93	2389.98
206.15	2432.99
206.37	2772.95
206.59	2637.78
206.81	2416.60
207.03	2379.74
207.25	2609.11
207.47	2820.05
207.69	2545.63
207.91	2789.33
208.13	2889.68
208.34	2584.54
208.56	2428.89
208.78	2543.58
209.00	2643.93
209.22	2613.21
209.44	2531.29
209.66	2416.60
209.88	2799.57
210.10	2662.36
210.32	2420.70
210.54	2607.06
210.76	2775.00
210.98	2840.53
211.20	2478.04
211.42	2572.25
211.64	2936.79
211.86	2734.04
212.08	2529.24
212.30	2557.91
212.52	2750.42
212.74	2818.00
212.96	2545.63
213.17	2609.11
213.39	2789.33
213.61	2934.74
213.83	2484.19
214.05	2414.56
214.27	2850.77
214.49	2600.92
214.71	2475.99
214.93	2648.02
215.15	2746.33
215.37	2834.39
215.59	2398.17
215.81	2633.69
216.03	2840.53
216.24	2637.78
216.46	2541.53
216.68	2615.26
216.90	2863.06
217.12	2930.64
217.34	2543.58
217.56	2641.88
217.78	2985.94
218.00	2746.33
218.22	2572.25
218.44	2582.49
218.66	2723.80
218.87	2979.79
219.09	2533.34
219.31	2537.43
219.53	2727.89
219.75	2613.21
219.97	2588.63
220.19	2500.57
220.41	2764.76
220.63	2944.98
220.85	2525.15
221.06	2480.09
221.28	2891.73
221.50	2854.87
221.72	2490.33
221.94	2445.27
222.16	2731.99
222.38	2818.00
222.60	2471.90
222.82	2537.43
223.03	2953.17
223.25	2557.91
223.47	2506.71
223.69	2648.02
223.91	2850.77
224.13	2711.51
224.35	2441.18
224.57	2727.89
224.78	2889.68
225.00	2553.82
225.22	2590.68
225.44	2498.52
225.66	2725.85
225.88	2654.17
226.10	2588.63
226.32	2498.52
226.53	2891.73
226.75	2668.50
226.97	2543.58
227.19	2455.51
227.41	2576.34
227.63	2594.78
227.85	2316.25
228.06	2463.71
228.28	2779.09
228.50	2848.72
228.72	2367.45
228.94	2461.66
229.16	2430.94
229.37	2480.09
229.59	2502.62
229.81	2686.94
230.03	2637.78
230.25	2514.91
230.47	2389.98
230.69	2504.67
230.90	2838.48
231.12	2547.67
231.34	2506.71
231.56	2557.91
231.78	2609.11
232.00	2670.55
232.21	2471.90
232.43	2496.47
232.65	2387.93
232.87	2861.01
233.09	2445.27
233.30	2443.23
233.52	2836.44
233.74	2660.31
233.96	2523.10
234.18	2660.31
234.40	2768.85
234.61	3008.47
234.83	2486.23
235.05	2441.18
235.27	3018.71
235.49	2832.34
235.70	2471.90
235.92	2660.31
236.14	2830.29
236.36	3069.91
236.58	2314.20
236.79	2580.44
237.01	2695.13
237.23	2740.18
237.45	2697.17
237.67	2580.44
237.88	2717.65
238.10	2990.03
238.32	2406.36
238.54	2519.00
238.76	2676.70
238.97	2539.48
239.19	2416.60
239.41	2557.91
239.63	2906.07
239.85	2635.74
240.06	2506.71
240.28	2514.91
240.50	2856.92
240.72	2703.32
240.93	2404.32
241.15	2658.26
241.37	2758.61
241.59	2916.31
241.81	2492.38
242.02	2539.48
242.24	2729.94
242.46	2846.68
242.68	2445.27
242.89	2480.09
243.11	2842.58
243.33	2705.37
243.55	2531.29
243.76	2584.54
243.98	2662.36
244.20	2809.81
244.42	2506.71
244.64	2557.91
244.85	2568.15
245.07	2459.61
245.29	2531.29
245.51	2559.96
245.72	2822.10
245.94	2924.50
246.16	2480.09
246.38	2568.15
246.59	2725.85
246.81	2592.73
247.03	2449.37
247.24	2430.94
247.46	2643.93
247.68	2709.46
247.90	2484.19
248.11	2461.66
248.33	2904.02
248.55	2703.32
248.77	2559.96
248.98	2508.76
249.20	2994.13
249.42	2709.46
249.64	2543.58
249.85	2488.28
250.07	2670.55
250.29	2836.44
250.50	2564.06
250.72	2457.56
250.94	2785.24
251.16	3037.14
251.37	2494.43
251.59	2598.87
251.81	2822.10
252.02	2877.40
252.24	2435.03
252.46	2664.41
252.68	2676.70
252.89	2639.83
253.11	2375.64
253.33	2693.08
253.54	2959.31
253.76	2512.86
253.98	2512.86
254.20	2430.94
254.41	2566.10
254.63	2701.27
254.85	2428.89
255.06	2506.71
255.28	2750.42
255.50	2607.06
255.71	2531.29
255.93	2432.99
256.15	2648.02
256.36	2809.81
256.58	2375.64
256.80	2432.99
257.02	2693.08
257.23	2680.79
257.45	2588.63
257.67	2641.88
257.88	2672.60
258.10	2686.94
258.32	2488.28
258.53	2605.02
258.75	2979.79
258.97	2639.83
259.18	2498.52
259.40	2523.10
259.62	2998.23
259.83	2897.88
260.05	2629.59
260.27	3170.26
260.48	2830.29
260.70	2521.05
260.92	2439.13
261.13	2512.86
261.35	2797.53
261.57	2762.71
261.78	2439.13
262.00	2463.71
262.22	2744.28
262.43	2643.93
262.65	2471.90
262.86	2557.91
263.08	3092.43
263.30	2760.66
263.51	2389.98
263.73	2473.95
263.95	2867.16
264.16	2619.35
264.38	2439.13
264.60	2482.14
264.81	2727.89
265.03	2844.63
265.25	2752.47
265.46	2447.32
265.68	2910.16
265.89	2750.42
266.11	2445.27
266.33	2494.43
266.54	2865.11
266.76	2791.38
266.98	2633.69
267.19	2609.11
267.41	2830.29
267.62	2750.42
267.84	2381.79
268.06	2580.44
268.27	2734.04
268.49	2912.21
268.70	2652.12
268.92	2531.29
269.14	2641.88
269.35	2574.30
269.57	2686.94
269.79	2639.83
270.00	2580.44
270.22	2920.40
270.43	2424.80
270.65	2443.23
270.87	2797.53
271.08	2848.72
271.30	2678.74
271.51	2547.67
271.73	2838.48
271.95	2914.26
272.16	2492.38
272.38	2605.02
272.59	2582.49
272.81	2670.55
273.02	2508.76
273.24	2492.38
273.46	2881.49
273.67	2514.91
273.89	2480.09
274.10	2484.19
274.32	2879.44
274.54	2799.57
274.75	2637.78
274.97	2537.43
275.18	2793.43
275.40	2801.62
275.61	2523.10
275.83	2629.59
276.05	2562.01
276.26	2750.42
276.48	2645.98
276.69	2572.25
276.91	2637.78
277.12	2895.83
277.34	2709.46
277.55	2705.37
277.77	2795.48
277.99	2676.70
278.20	2551.77
278.42	2449.37
278.63	2596.82
278.85	2607.06
279.06	2469.85
279.28	2686.94
279.49	2844.63
279.71	2875.35
279.93	2670.55
280.14	2625.50
280.36	2693.08
280.57	2975.70
280.79	2654.17
281.00	2494.43
281.22	2625.50
281.43	2922.45
281.65	2420.70
281.86	2529.24
282.08	2809.81
282.29	2967.51
282.51	2432.99
282.73	2529.24
282.94	2432.99
283.16	2904.02
283.37	2789.33
283.59	2643.93
283.80	2824.15
284.02	2674.65
284.23	2650.07
284.45	2668.50
284.66	2596.82
284.88	2650.07
285.09	2506.71
285.31	2658.26
285.52	2834.39
285.74	2463.71
285.95	2801.62
286.17	2652.12
286.38	2822.10
286.60	2707.41
286.81	2629.59
287.03	2557.91
287.24	2768.85
287.46	2750.42
287.67	2744.28
287.89	2815.96
288.10	2691.03
288.32	2711.51
288.53	2764.76
288.75	2611.16
288.96	2834.39
289.18	2613.21
289.39	2531.29
289.61	2617.30
289.82	3012.56
290.04	3051.47
290.25	2480.09
290.47	2738.13
290.68	2715.61
290.90	2760.66
291.11	2426.84
291.33	2725.85
291.54	2635.74
291.76	2637.78
291.97	2645.98
292.18	2678.74
292.40	2688.98
292.61	2559.96
292.83	2844.63
293.04	2639.83
293.26	2779.09
293.47	2664.41
293.69	2564.06
293.90	2586.58
294.12	2918.36
294.33	2740.18
294.55	2637.78
294.76	2750.42
294.97	2897.88
295.19	2996.18
295.40	2654.17
295.62	2645.98
295.83	2904.02
296.05	2619.35
296.26	2719.70
296.48	2586.58
296.69	2686.94
296.90	2650.07
297.12	2719.70
297.33	2727.89
297.55	2762.71
297.76	2717.65
297.98	2666.46
298.19	2740.18
298.41	2721.75
298.62	2570.20
298.83	2691.03
299.05	2674.65
299.26	2666.46
299.48	2611.16
299.69	2723.80
299.90	2637.78
300.12	2588.63
300.33	2858.96
300.55	2660.31
300.76	2654.17
300.98	2510.81
301.19	2809.81
301.40	2578.39
301.62	2551.77
301.83	2830.29
302.05	2701.27
302.26	2633.69
302.47	2586.58
302.69	2582.49
302.90	2846.68
303.12	2359.26
303.33	2707.41
303.54	3014.61
303.76	2650.07
303.97	2629.59
304.19	2801.62
304.40	2623.45
304.61	2775.00
304.83	2736.09
305.04	2738.13
305.26	2797.53
305.47	2740.18
305.68	2619.35
305.90	2510.81
306.11	3000.27
306.33	2701.27
306.54	2482.14
306.75	2596.82
306.97	2457.56
307.18	2539.48
307.39	2566.10
307.61	2635.74
307.82	2686.94
308.04	2799.57
308.25	2412.51
308.46	2703.32
308.68	2703.32
308.89	2772.95
309.10	2719.70
309.32	2639.83
309.53	2764.76
309.74	2721.75
309.96	2545.63
310.17	2758.61
310.39	2643.93
310.60	2815.96
310.81	2576.34
311.03	2494.43
311.24	2832.34
311.45	2701.27
311.67	2791.38
311.88	2688.98
312.09	2717.65
312.31	2580.44
312.52	2478.04
312.73	2617.30
312.95	2551.77
313.16	2574.30
313.37	2781.14
313.59	2744.28
313.80	2818.00
314.01	2977.75
314.23	2596.82
314.44	2514.91
314.65	2555.86
314.87	2592.73
315.08	2666.46
315.29	2572.25
315.51	2584.54
315.72	2537.43
315.93	2746.33
316.15	2670.55
316.36	2637.78
316.57	2676.70
316.79	2693.08
317.00	2615.26
317.21	2729.94
317.43	2596.82
317.64	2658.26
317.85	2506.71
318.07	2570.20
318.28	2639.83
318.49	2629.59
318.70	2846.68
318.92	2830.29
319.13	2791.38
319.34	2840.53
319.56	2625.50
319.77	2760.66
319.98	2818.00
320.20	2838.48
320.41	2645.98
320.62	2783.19
320.83	2639.83
321.05	2869.20
321.26	2729.94
321.47	2738.13
321.69	2936.79
321.90	2568.15
322.11	2547.67
322.32	2807.77
322.54	2908.12
322.75	2543.58
322.96	3174.35
323.18	2555.86
323.39	2523.10
323.60	2568.15
323.81	2727.89
324.03	2570.20
324.24	2670.55
324.45	2697.17
324.66	2607.06
324.88	2928.60
325.09	2971.60
325.30	2594.78
325.52	2551.77
325.73	2713.56
325.94	2643.93
326.15	2465.75
326.37	2553.82
326.58	2850.77
326.79	2971.60
327.00	2590.68
327.22	2580.44
327.43	2660.31
327.64	2527.19
327.85	2641.88
328.07	2582.49
328.28	2992.08
328.49	2586.58
328.70	2619.35
328.92	2539.48
329.13	2652.12
329.34	2789.33
329.55	2873.30
329.76	2762.71
329.98	2738.13
330.19	2944.98
330.40	2758.61
330.61	2719.70
330.83	2822.10
331.04	2570.20
331.25	2691.03
331.46	2562.01
331.68	2529.24
331.89	2832.34
332.10	2631.64
332.31	2500.57
332.52	2750.42
332.74	2856.92
332.95	2504.67
333.16	2549.72
333.37	2775.00
333.58	2674.65
333.80	2611.16
334.01	2445.27
334.22	2699.22
334.43	2594.78
334.64	2512.86
334.86	2453.47
335.07	2559.96
335.28	2998.23
335.49	2498.52
335.70	2754.52
335.92	2953.17
336.13	3020.75
336.34	2715.61
336.55	2641.88
336.76	2777.05
336.98	2461.66
337.19	2697.17
337.40	2785.24
337.61	3055.57
337.82	2615.26
338.04	2684.89
338.25	2510.81
338.46	2654.17
338.67	2746.33
338.88	2539.48
339.09	2490.33
339.31	2686.94
339.52	2521.05
339.73	2490.33
339.94	2605.02
340.15	2820.05
340.36	2668.50
340.58	2621.40
340.79	2578.39
341.00	2826.20
341.21	2588.63
341.42	2850.77
341.63	2627.54
341.85	2867.16
342.06	2672.60
342.27	2510.81
342.48	2711.51
342.69	2488.28
342.90	2731.99
343.12	2781.14
343.33	2617.30
343.54	2781.14
343.75	2840.53
343.96	2746.33
344.17	2541.53
344.38	2861.01
344.60	2531.29
344.81	2510.81
345.02	2613.21
345.23	2869.20
345.44	3061.71
345.65	2686.94
345.86	2693.08
346.07	2842.58
346.29	2605.02
346.50	2697.17
346.71	2717.65
346.92	2871.25
347.13	2983.89
347.34	2623.45
347.55	2549.72
347.76	2824.15
347.98	2488.28
348.19	2682.84
348.40	2762.71
348.61	2562.01
348.82	2953.17
349.03	2686.94
349.24	2514.91
349.45	3039.19
349.66	2496.47
349.88	2621.40
350.09	2549.72
350.30	2914.26
350.51	2930.64
350.72	2664.41
350.93	2621.40
351.14	2631.64
351.35	2824.15
351.56	2609.11
351.77	2637.78
351.99	2768.85
352.20	2918.36
352.41	2748.37
352.62	2441.18
352.83	2738.13
353.04	2674.65
353.25	2613.21
353.46	2707.41
353.67	2916.31
353.88	2432.99
354.09	2625.50
354.30	2680.79
354.52	2801.62
354.73	2693.08
354.94	2510.81
355.15	2594.78
355.36	2975.70
355.57	2684.89
355.78	2613.21
355.99	2453.47
356.20	2713.56
356.41	2867.16
356.62	2600.92
356.83	2666.46
357.04	2916.31
357.25	2406.36
357.46	2615.26
357.68	2482.14
357.89	2572.25
358.10	2672.60
358.31	2562.01
358.52	2664.41
358.73	2519.00
358.94	2562.01
359.15	2615.26
359.36	2721.75
359.57	2795.48
359.78	2670.55
359.99	2703.32
360.20	2521.05
360.41	2670.55
360.62	2850.77
360.83	2670.55
361.04	2684.89
361.25	2717.65
361.46	2893.78
361.67	2719.70
361.88	2639.83
362.09	2914.26
362.30	2807.77
362.51	2521.05
362.72	2629.59
362.93	2918.36
363.14	2815.96
363.35	2588.63
363.56	2572.25
363.78	2863.06
363.99	2748.37
364.20	2623.45
364.41	2654.17
364.62	3022.80
364.83	2781.14
365.04	2533.34
365.25	2566.10
365.46	3045.33
365.67	2572.25
365.88	2674.65
366.09	2600.92
366.30	2574.30
366.51	2697.17
366.72	2502.62
366.93	2576.34
367.14	2746.33
367.35	2883.54
367.56	2543.58
367.77	2701.27
367.98	2650.07
368.18	2797.53
368.39	2701.27
368.60	2555.86
368.81	2818.00
369.02	2873.30
369.23	2688.98
369.44	2435.03
369.65	2660.31
369.86	2781.14
370.07	2777.05
370.28	2535.39
370.49	2768.85
370.70	2820.05
370.91	2498.52
371.12	2482.14
371.33	2824.15
371.54	2588.63
371.75	2725.85
371.96	2402.27
372.17	2787.29
372.38	2650.07
372.59	2750.42
372.80	2580.44
373.01	2731.99
373.22	2668.50
373.43	2670.55
373.64	2523.10
373.85	2842.58
374.06	2926.55
374.26	2768.85
374.47	2744.28
374.68	2918.36
374.89	2711.51
375.10	2600.92
375.31	2746.33
375.52	2756.57
375.73	2629.59
375.94	2486.23
376.15	2684.89
376.36	2572.25
376.57	2627.54
376.78	2627.54
376.99	2629.59
377.20	2908.12
377.40	2688.98
377.61	2789.33
377.82	2529.24
378.03	2951.12
378.24	2727.89
378.45	2691.03
378.66	2676.70
378.87	2516.95
379.08	2553.82
379.29	2555.86
379.50	2746.33
379.71	2658.26
379.91	2830.29
380.12	2545.63
380.33	2729.94
380.54	2648.02
380.75	2717.65
380.96	2611.16
381.17	2676.70
381.38	2666.46
381.59	2719.70
381.80	2668.50
382.00	2863.06
382.21	2705.37
382.42	2951.12
382.63	2918.36
382.84	2754.52
383.05	2920.40
383.26	2908.12
383.47	2641.88
383.68	2615.26
383.88	2838.48
384.09	2783.19
384.30	2789.33
384.51	2758.61
384.72	2631.64
384.93	2514.91
385.14	2684.89
385.35	2836.44
385.55	2559.96
385.76	2930.64
385.97	2686.94
386.18	2525.15
386.39	2629.59
386.60	2680.79
386.81	2643.93
387.02	2576.34
387.22	2535.39
387.43	2852.82
387.64	2793.43
387.85	2830.29
388.06	2863.06
388.27	3917.76
388.48	7567.24
388.68	10944.34
388.89	13430.58
389.10	14389.03
389.31	13702.96
389.52	10925.91
389.73	9424.75
389.93	8654.72
390.14	7837.58
390.35	7004.05
390.56	6465.44
390.77	5283.76
390.98	4050.88
391.18	3424.20
391.39	3104.72
391.60	2768.85
391.81	2826.20
392.02	2629.59
392.23	3010.51
392.43	2697.17
392.64	2731.99
392.85	2711.51
393.06	3012.56
393.27	2775.00
393.47	2562.01
393.68	2619.35
393.89	2740.18
394.10	2879.44
394.31	2613.21
394.52	2553.82
394.72	2662.36
394.93	2922.45
395.14	2480.09
395.35	2697.17
395.56	2600.92
395.76	2738.13
395.97	2641.88
396.18	2760.66
396.39	2772.95
396.60	3225.55
396.80	2961.36
397.01	2787.29
397.22	2850.77
397.43	2904.02
397.64	2578.39
397.84	2756.57
398.05	2926.55
398.26	2699.22
398.47	2684.89
398.67	2858.96
398.88	2650.07
399.09	2793.43
399.30	2525.15
399.51	2719.70
399.71	2557.91
399.92	2791.38
400.13	2799.57
400.34	2609.11
400.54	2684.89
400.75	2899.92
400.96	2635.74
401.17	2953.17
401.37	2789.33
401.58	2695.13
401.79	2672.60
402.00	2818.00
402.21	3147.73
402.41	2949.08
402.62	2910.16
402.83	3012.56
403.04	3129.30
403.24	3303.37
403.45	2715.61
403.66	2938.84
403.87	2803.67
404.07	3037.14
404.28	2867.16
404.49	2983.89
404.70	2740.18
404.90	2861.01
405.11	2594.78
405.32	2799.57
405.52	2762.71
405.73	2619.35
405.94	2576.34
406.15	2629.59
406.35	2858.96
406.56	2893.78
406.77	2592.73
406.98	2707.41
407.18	2650.07
407.39	2875.35
407.60	2682.84
407.80	2688.98
408.01	2686.94
408.22	2828.24
408.43	2553.82
408.63	2762.71
408.84	2852.82
409.05	2889.68
409.25	2545.63
409.46	2598.87
409.67	2705.37
409.88	2617.30
410.08	2662.36
410.29	2602.97
410.50	2899.92
410.70	2850.77
410.91	2469.85
411.12	2750.42
411.32	2734.04
411.53	2545.63
411.74	2725.85
411.95	2758.61
412.15	2832.34
412.36	2801.62
412.57	2717.65
412.77	2779.09
412.98	2672.60
413.19	2711.51
413.39	2758.61
413.60	2740.18
413.81	2912.21
414.01	2617.30
414.22	2656.22
414.43	2781.14
414.63	2721.75
414.84	2818.00
415.05	2623.45
415.25	2521.05
415.46	2832.34
415.67	2654.17
415.87	2680.79
416.08	2619.35
416.29	2664.41
416.49	2744.28
416.70	2584.54
416.91	2588.63
417.11	2734.04
417.32	2856.92
417.53	2744.28
417.73	2764.76
417.94	2711.51
418.15	2734.04
418.35	2756.57
418.56	2654.17
418.77	3078.10
418.97	2670.55
419.18	2688.98
419.38	2344.92
419.59	2662.36
419.80	2899.92
420.00	2678.74
420.21	2666.46
420.42	2944.98
420.62	2791.38
420.83	2609.11
421.04	2623.45
421.24	2695.13
421.45	2775.00
421.65	2625.50
421.86	2596.82
422.07	2836.44
422.27	2715.61
422.48	2607.06
422.69	2504.67
422.89	2641.88
423.10	2686.94
423.30	2541.53
423.51	2578.39
423.72	2760.66
423.92	2846.68
424.13	2535.39
424.33	2699.22
424.54	2875.35
424.75	2766.81
424.95	2818.00
425.16	2613.21
425.36	2666.46
425.57	2836.44
425.78	2705.37
425.98	2770.90
426.19	2697.17
426.39	2621.40
426.60	2752.47
426.81	2801.62
427.01	2768.85
427.22	2521.05
427.42	2443.23
427.63	2641.88
427.83	2781.14
428.04	2938.84
428.25	2717.65
428.45	2818.00
428.66	2869.20
428.86	2699.22
429.07	2623.45
429.28	2699.22
429.48	2742.23
429.69	2582.49
429.89	2674.65
430.10	2521.05
430.30	2742.23
430.51	2932.69
430.71	2555.86
430.92	2635.74
431.13	2670.55
431.33	2834.39
431.54	2686.94
431.74	2809.81
431.95	3043.28
432.15	2541.53
432.36	2662.36
432.56	2703.32
432.77	3010.51
432.98	2967.51
433.18	2678.74
433.39	2553.82
433.59	2686.94
433.80	3053.52
434.00	2916.31
434.21	2613.21
434.41	2676.70
434.62	3041.23
434.82	2475.99
435.03	2564.06
435.23	2754.52
435.44	2508.76
435.64	2625.50
435.85	2650.07
436.06	2908.12
436.26	2867.16
436.47	2676.70
436.67	2637.78
436.88	2664.41
437.08	2863.06
437.29	2858.96
437.49	2641.88
437.70	2953.17
437.90	2715.61
438.11	2828.24
438.31	2750.42
438.52	2949.08
438.72	2811.86
438.93	2906.07
439.13	2699.22
439.34	2881.49
439.54	2707.41
439.75	2754.52
439.95	2715.61
440.16	2623.45
440.36	2736.09
440.57	2762.71
440.77	2727.89
440.98	2637.78
441.18	2799.57
441.39	2680.79
441.59	2531.29
441.80	3112.91
442.00	2703.32
442.21	2779.09
442.41	2514.91
442.62	2885.59
442.82	2592.73
443.02	2697.17
443.23	2648.02
443.43	2709.46
443.64	2904.02
443.84	2490.33
444.05	2777.05
444.25	2746.33
444.46	2699.22
444.66	2611.16
444.87	2865.11
445.07	2463.71
445.28	2695.13
445.48	2811.86
445.69	2731.99
445.89	3057.62
446.09	2701.27
446.30	2969.55
446.50	3039.19
446.71	4648.89
446.91	5717.93
447.12	6451.10
447.32	6784.92
447.53	6461.34
447.73	5418.93
447.93	4804.53
448.14	4530.11
448.34	4478.91
448.55	3887.04
448.75	3876.80
448.96	3585.99
449.16	3366.86
449.36	3248.08
449.57	2889.68
449.77	2754.52
449.98	2693.08
450.18	2772.95
450.39	2633.69
450.59	2885.59
450.79	2658.26
451.00	2635.74
451.20	2783.19
451.41	2566.10
451.61	2721.75
451.81	2760.66
452.02	2643.93
452.22	2680.79
452.43	2729.94
452.63	2645.98
