SpectraSuite Data File
++++++++++++++++++++++++++++++++++++
Date: Thu May 05 16:20:22 CEST 2016
User: root
Dark Spectrum Present: No
Reference Spectrum Present: No
Number of Sampled Component Spectra: 1
Spectrometers: USB4C02835
Integration Time (usec): 100000 (USB4C02835)
Spectra Averaged: 1 (USB4C02835)
Boxcar Smoothing: 0 (USB4C02835)
Correct for Electrical Dark: No (USB4C02835)
Strobe/Lamp Enabled: No (USB4C02835)
Correct for Detector Non-linearity: No (USB4C02835)
Correct for Stray Light: No (USB4C02835)
Number of Pixels in Processed Spectrum: 3648
>>>>>Begin Processed Spectral Data<<<<<
177.47	1988.58
177.69	1988.58
177.91	1988.58
178.13	1972.19
178.36	2027.49
178.58	2555.86
178.80	2703.32
179.02	2543.58
179.24	2471.90
179.46	2467.80
179.68	2543.58
179.90	2691.03
180.13	2650.07
180.35	2449.37
180.57	2488.28
180.79	2842.58
181.01	2707.41
181.23	2564.06
181.45	2596.82
181.67	2873.30
181.90	2830.29
182.12	2461.66
182.34	2373.60
182.56	2826.20
182.78	2820.05
183.00	2510.81
183.22	2564.06
183.44	2494.43
183.66	3137.49
183.89	2621.40
184.11	2529.24
184.33	2836.44
184.55	2918.36
184.77	2527.19
184.99	2555.86
185.21	2641.88
185.43	3135.44
185.65	2545.63
185.87	2453.47
186.10	3067.86
186.32	3098.58
186.54	2658.26
186.76	2594.78
186.98	2904.02
187.20	2666.46
187.42	2488.28
187.64	2461.66
187.86	2779.09
188.08	2836.44
188.30	2375.64
188.52	2637.78
188.75	2949.08
188.97	2910.16
189.19	2598.87
189.41	2547.67
189.63	2824.15
189.85	2635.74
190.07	2359.26
190.29	2426.84
190.51	2760.66
190.73	2502.62
190.95	2641.88
191.17	2572.25
191.39	2486.23
191.61	2658.26
191.84	2504.67
192.06	2637.78
192.28	2482.14
192.50	3188.69
192.72	2643.93
192.94	2551.77
193.16	2791.38
193.38	2836.44
193.60	2510.81
193.82	2584.54
194.04	2897.88
194.26	2799.57
194.48	2557.91
194.70	2490.33
194.92	2629.59
195.14	2852.82
195.36	2453.47
195.58	2602.97
195.80	2666.46
196.02	2547.67
196.24	2514.91
196.46	2596.82
196.69	2535.39
196.91	3047.38
197.13	2424.80
197.35	2514.91
197.57	2928.60
197.79	2740.18
198.01	2600.92
198.23	2553.82
198.45	2826.20
198.67	2559.96
198.89	2451.42
199.11	2541.53
199.33	2557.91
199.55	2402.27
199.77	2512.86
199.99	2637.78
200.21	2605.02
200.43	2826.20
200.65	2424.80
200.87	2299.87
201.09	2756.57
201.31	2695.13
201.53	2545.63
201.75	2568.15
201.97	2820.05
202.19	2719.70
202.41	2631.64
202.63	2613.21
202.85	2885.59
203.07	2731.99
203.29	2504.67
203.51	2529.24
203.73	2617.30
203.95	3139.54
204.17	2463.71
204.39	2598.87
204.61	2682.84
204.83	2641.88
205.05	2609.11
205.27	2562.01
205.49	3012.56
205.71	2654.17
205.93	2443.23
206.15	2435.03
206.37	2797.53
206.59	2713.56
206.81	2451.42
207.03	2418.65
207.25	2531.29
207.47	2838.48
207.69	2523.10
207.91	2709.46
208.13	3024.85
208.34	2619.35
208.56	2498.52
208.78	2453.47
209.00	2695.13
209.22	2670.55
209.44	2510.81
209.66	2525.15
209.88	2686.94
210.10	2777.05
210.32	2449.37
210.54	2553.82
210.76	2645.98
210.98	2846.68
211.20	2310.11
211.42	2617.30
211.64	2875.35
211.86	2725.85
212.08	2588.63
212.30	2510.81
212.52	2654.17
212.74	2793.43
212.96	2523.10
213.17	2598.87
213.39	2912.21
213.61	3026.90
213.83	2506.71
214.05	2392.03
214.27	2811.86
214.49	2555.86
214.71	2478.04
214.93	2637.78
215.15	2703.32
215.37	2906.07
215.59	2351.07
215.81	2555.86
216.03	2811.86
216.24	2781.14
216.46	2490.33
216.68	2551.77
216.90	2805.72
217.12	2895.83
217.34	2389.98
217.56	2664.41
217.78	2930.64
218.00	2877.40
218.22	2615.26
218.44	2605.02
218.66	2731.99
218.87	3028.95
219.09	2535.39
219.31	2590.68
219.53	2725.85
219.75	2633.69
219.97	2512.86
220.19	2531.29
220.41	2688.98
220.63	2963.41
220.85	2535.39
221.06	2607.06
221.28	2930.64
221.50	2846.68
221.72	2488.28
221.94	2398.17
222.16	2742.23
222.38	2818.00
222.60	2512.86
222.82	2553.82
223.03	2850.77
223.25	2594.78
223.47	2473.95
223.69	2787.29
223.91	2850.77
224.13	2830.29
224.35	2392.03
224.57	2676.70
224.78	2809.81
225.00	2611.16
225.22	2584.54
225.44	2512.86
225.66	2854.87
225.88	2691.03
226.10	2658.26
226.32	2553.82
226.53	2881.49
226.75	2680.79
226.97	2670.55
227.19	2576.34
227.41	2551.77
227.63	2652.12
227.85	2369.50
228.06	2584.54
228.28	2740.18
228.50	2820.05
228.72	2357.21
228.94	2537.43
229.16	2502.62
229.37	2592.73
229.59	2471.90
229.81	2713.56
230.03	2682.84
230.25	2494.43
230.47	2353.12
230.69	2502.62
230.90	2879.44
231.12	2607.06
231.34	2555.86
231.56	2643.93
231.78	2566.10
232.00	2727.89
232.21	2521.05
232.43	2519.00
232.65	2484.19
232.87	2762.71
233.09	2389.98
233.30	2430.94
233.52	2854.87
233.74	2682.84
233.96	2461.66
234.18	2611.16
234.40	2760.66
234.61	3112.91
234.83	2424.80
235.05	2486.23
235.27	3049.43
235.49	2996.18
235.70	2447.32
235.92	2553.82
236.14	2824.15
236.36	3076.05
236.58	2514.91
236.79	2611.16
237.01	2721.75
237.23	2625.50
237.45	2750.42
237.67	2506.71
237.88	2758.61
238.10	2971.60
238.32	2488.28
238.54	2510.81
238.76	2717.65
238.97	2598.87
239.19	2455.51
239.41	2609.11
239.63	2901.97
239.85	2686.94
240.06	2582.49
240.28	2539.48
240.50	2793.43
240.72	2744.28
240.93	2414.56
241.15	2686.94
241.37	2678.74
241.59	2934.74
241.81	2523.10
242.02	2543.58
242.24	2727.89
242.46	2875.35
242.68	2416.60
242.89	2521.05
243.11	2840.53
243.33	2709.46
243.55	2492.38
243.76	2545.63
243.98	2623.45
244.20	2768.85
244.42	2521.05
244.64	2463.71
244.85	2592.73
245.07	2539.48
245.29	2564.06
245.51	2500.57
245.72	2752.47
245.94	2940.88
246.16	2521.05
246.38	2512.86
246.59	2643.93
246.81	2529.24
247.03	2478.04
247.24	2441.18
247.46	2703.32
247.68	2731.99
247.90	2478.04
248.11	2557.91
248.33	2799.57
248.55	2643.93
248.77	2607.06
248.98	2668.50
249.20	3014.61
249.42	2719.70
249.64	2580.44
249.85	2510.81
250.07	2695.13
250.29	2813.91
250.50	2576.34
250.72	2469.85
250.94	2760.66
251.16	3000.27
251.37	2379.74
251.59	2605.02
251.81	2752.47
252.02	2949.08
252.24	2473.95
252.46	2672.60
252.68	2596.82
252.89	2586.58
253.11	2406.36
253.33	2686.94
253.54	3030.99
253.76	2529.24
253.98	2535.39
254.20	2535.39
254.41	2553.82
254.63	2643.93
254.85	2373.60
255.06	2631.64
255.28	2734.04
255.50	2691.03
255.71	2461.66
255.93	2379.74
256.15	2729.94
256.36	2785.24
256.58	2394.08
256.80	2473.95
257.02	2674.65
257.23	2672.60
257.45	2521.05
257.67	2566.10
257.88	2545.63
258.10	2736.09
258.32	2541.53
258.53	2557.91
258.75	2885.59
258.97	2609.11
259.18	2424.80
259.40	2537.43
259.62	2961.36
259.83	2904.02
260.05	2559.96
260.27	3170.26
260.48	2918.36
260.70	2539.48
260.92	2504.67
261.13	2525.15
261.35	2766.81
261.57	2807.77
261.78	2412.51
262.00	2439.13
262.22	2840.53
262.43	2531.29
262.65	2545.63
262.86	2492.38
263.08	3045.33
263.30	2762.71
263.51	2291.68
263.73	2457.56
263.95	2947.03
264.16	2572.25
264.38	2439.13
264.60	2510.81
264.81	2691.03
265.03	2844.63
265.25	2797.53
265.46	2506.71
265.68	2879.44
265.89	2768.85
266.11	2394.08
266.33	2428.89
266.54	2836.44
266.76	2777.05
266.98	2596.82
267.19	2676.70
267.41	2895.83
267.62	2615.26
267.84	2326.49
268.06	2648.02
268.27	2797.53
268.49	2861.01
268.70	2613.21
268.92	2598.87
269.14	2621.40
269.35	2543.58
269.57	2592.73
269.79	2613.21
270.00	2590.68
270.22	3033.04
270.43	2383.84
270.65	2381.79
270.87	2752.47
271.08	2824.15
271.30	2627.54
271.51	2568.15
271.73	2777.05
271.95	3016.66
272.16	2525.15
272.38	2594.78
272.59	2611.16
272.81	2764.76
273.02	2512.86
273.24	2482.14
273.46	2949.08
273.67	2506.71
273.89	2414.56
274.10	2473.95
274.32	2908.12
274.54	2760.66
274.75	2688.98
274.97	2533.34
275.18	2807.77
275.40	2832.34
275.61	2506.71
275.83	2611.16
276.05	2500.57
276.26	2641.88
276.48	2598.87
276.69	2584.54
276.91	2729.94
277.12	2793.43
277.34	2662.36
277.55	2715.61
277.77	2793.43
277.99	2744.28
278.20	2553.82
278.42	2594.78
278.63	2654.17
278.85	2576.34
279.06	2559.96
279.28	2768.85
279.49	2914.26
279.71	2846.68
279.93	2666.46
280.14	2584.54
280.36	2654.17
280.57	2832.34
280.79	2662.36
281.00	2551.77
281.22	2666.46
281.43	2820.05
281.65	2437.08
281.86	2545.63
282.08	2768.85
282.29	2965.46
282.51	2527.19
282.73	2406.36
282.94	2512.86
283.16	2883.54
283.37	2789.33
283.59	2701.27
283.80	2844.63
284.02	2734.04
284.23	2650.07
284.45	2564.06
284.66	2535.39
284.88	2680.79
285.09	2652.12
285.31	2707.41
285.52	2775.00
285.74	2490.33
285.95	2701.27
286.17	2613.21
286.38	2891.73
286.60	2637.78
286.81	2576.34
287.03	2566.10
287.24	2703.32
287.46	2770.90
287.67	2775.00
287.89	2869.20
288.10	2643.93
288.32	2723.80
288.53	2779.09
288.75	2650.07
288.96	2867.16
289.18	2596.82
289.39	2580.44
289.61	2715.61
289.82	3002.32
290.04	2973.65
290.25	2514.91
290.47	2607.06
290.68	2760.66
290.90	2840.53
291.11	2471.90
291.33	2719.70
291.54	2576.34
291.76	2658.26
291.97	2701.27
292.18	2699.22
292.40	2641.88
292.61	2592.73
292.83	2803.67
293.04	2623.45
293.26	2701.27
293.47	2629.59
293.69	2639.83
293.90	2529.24
294.12	2848.72
294.33	2678.74
294.55	2611.16
294.76	2652.12
294.97	2977.75
295.19	3102.67
295.40	2580.44
295.62	2697.17
295.83	2801.62
296.05	2594.78
296.26	2779.09
296.48	2572.25
296.69	2713.56
296.90	2699.22
297.12	2742.23
297.33	2719.70
297.55	2731.99
297.76	2846.68
297.98	2752.47
298.19	2711.51
298.41	2635.74
298.62	2555.86
298.83	2721.75
299.05	2668.50
299.26	2750.42
299.48	2547.67
299.69	2699.22
299.90	2654.17
300.12	2617.30
300.33	2783.19
300.55	2568.15
300.76	2668.50
300.98	2484.19
301.19	2797.53
301.40	2576.34
301.62	2600.92
301.83	2793.43
302.05	2695.13
302.26	2574.30
302.47	2635.74
302.69	2449.37
302.90	2717.65
303.12	2439.13
303.33	2752.47
303.54	3076.05
303.76	2691.03
303.97	2676.70
304.19	2865.11
304.40	2588.63
304.61	2828.24
304.83	2742.23
305.04	2672.60
305.26	2873.30
305.47	2652.12
305.68	2645.98
305.90	2537.43
306.11	2844.63
306.33	2680.79
306.54	2496.47
306.75	2488.28
306.97	2492.38
307.18	2580.44
307.39	2494.43
307.61	2650.07
307.82	2633.69
308.04	2861.01
308.25	2570.20
308.46	2611.16
308.68	2752.47
308.89	2711.51
309.10	2676.70
309.32	2607.06
309.53	2826.20
309.74	2834.39
309.96	2547.67
310.17	2793.43
310.39	2650.07
310.60	2836.44
310.81	2652.12
311.03	2490.33
311.24	2826.20
311.45	2740.18
311.67	2846.68
311.88	2633.69
312.09	2654.17
312.31	2676.70
312.52	2607.06
312.73	2543.58
312.95	2547.67
313.16	2598.87
313.37	2756.57
313.59	2772.95
313.80	2791.38
314.01	2973.65
314.23	2611.16
314.44	2494.43
314.65	2578.39
314.87	2680.79
315.08	2568.15
315.29	2680.79
315.51	2557.91
315.72	2514.91
315.93	2785.24
316.15	2652.12
316.36	2656.22
316.57	2717.65
316.79	2766.81
317.00	2639.83
317.21	2783.19
317.43	2678.74
317.64	2580.44
317.85	2535.39
318.07	2586.58
318.28	2633.69
318.49	2752.47
318.70	2818.00
318.92	2842.58
319.13	2736.09
319.34	2775.00
319.56	2605.02
319.77	2818.00
319.98	2787.29
320.20	2797.53
320.41	2717.65
320.62	2785.24
320.83	2541.53
321.05	2795.48
321.26	2641.88
321.47	2750.42
321.69	2883.54
321.90	2498.52
322.11	2574.30
322.32	2707.41
322.54	2973.65
322.75	2652.12
322.96	3297.23
323.18	2557.91
323.39	2430.94
323.60	2535.39
323.81	2686.94
324.03	2621.40
324.24	2682.84
324.45	2729.94
324.66	2582.49
324.88	2858.96
325.09	2912.21
325.30	2686.94
325.52	2553.82
325.73	2863.06
325.94	2586.58
326.15	2498.52
326.37	2562.01
326.58	2973.65
326.79	2985.94
327.00	2506.71
327.22	2605.02
327.43	2719.70
327.64	2564.06
327.85	2682.84
328.07	2680.79
328.28	2942.93
328.49	2648.02
328.70	2607.06
328.92	2562.01
329.13	2764.76
329.34	2844.63
329.55	2904.02
329.76	2719.70
329.98	2725.85
330.19	2854.87
330.40	2668.50
330.61	2641.88
330.83	2783.19
331.04	2588.63
331.25	2588.63
331.46	2602.97
331.68	2596.82
331.89	2850.77
332.10	2615.26
332.31	2539.48
332.52	2772.95
332.74	2861.01
332.95	2496.47
333.16	2605.02
333.37	2936.79
333.58	2637.78
333.80	2641.88
334.01	2439.13
334.22	2701.27
334.43	2670.55
334.64	2578.39
334.86	2508.76
335.07	2531.29
335.28	2906.07
335.49	2521.05
335.70	2682.84
335.92	2887.64
336.13	3049.43
336.34	2611.16
336.55	2629.59
336.76	2785.24
336.98	2385.88
337.19	2605.02
337.40	2734.04
337.61	3086.29
337.82	2623.45
338.04	2703.32
338.25	2432.99
338.46	2688.98
338.67	2596.82
338.88	2650.07
339.09	2545.63
339.31	2635.74
339.52	2559.96
339.73	2519.00
339.94	2701.27
340.15	2781.14
340.36	2650.07
340.58	2609.11
340.79	2521.05
341.00	2731.99
341.21	2576.34
341.42	2791.38
341.63	2609.11
341.85	2850.77
342.06	2678.74
342.27	2637.78
342.48	2748.37
342.69	2502.62
342.90	2807.77
343.12	2871.25
343.33	2516.95
343.54	2846.68
343.75	2953.17
343.96	2578.39
344.17	2553.82
344.38	2734.04
344.60	2580.44
344.81	2527.19
345.02	2598.87
345.23	2824.15
345.44	3145.68
345.65	2711.51
345.86	2707.41
346.07	2768.85
346.29	2631.64
346.50	2791.38
346.71	2574.30
346.92	2953.17
347.13	3055.57
347.34	2643.93
347.55	2568.15
347.76	2779.09
347.98	2402.27
348.19	2736.09
348.40	2850.77
348.61	2686.94
348.82	2977.75
349.03	2680.79
349.24	2523.10
349.45	3024.85
349.66	2449.37
349.88	2596.82
350.09	2541.53
350.30	2916.31
350.51	2957.27
350.72	2609.11
350.93	2645.98
351.14	2641.88
351.35	2803.67
351.56	2619.35
351.77	2613.21
351.99	2793.43
352.20	2985.94
352.41	2643.93
352.62	2412.51
352.83	2693.08
353.04	2727.89
353.25	2516.95
353.46	2650.07
353.67	2924.50
353.88	2488.28
354.09	2555.86
354.30	2695.13
354.52	2891.73
354.73	2693.08
354.94	2568.15
355.15	2596.82
355.36	2918.36
355.57	2611.16
355.78	2547.67
355.99	2584.54
356.20	2666.46
356.41	2906.07
356.62	2738.13
356.83	2658.26
357.04	2969.55
357.25	2500.57
357.46	2564.06
357.68	2465.75
357.89	2629.59
358.10	2705.37
358.31	2613.21
358.52	2639.83
358.73	2549.72
358.94	2590.68
359.15	2641.88
359.36	2703.32
359.57	2750.42
359.78	2744.28
359.99	2725.85
360.20	2488.28
360.41	2734.04
360.62	2787.29
360.83	2691.03
361.04	2637.78
361.25	2764.76
361.46	3033.04
361.67	2740.18
361.88	2613.21
362.09	2756.57
362.30	2736.09
362.51	2605.02
362.72	2633.69
362.93	2850.77
363.14	2842.58
363.35	2719.70
363.56	2539.48
363.78	2904.02
363.99	2854.87
364.20	2578.39
364.41	2717.65
364.62	2928.60
364.83	2836.44
365.04	2564.06
365.25	2682.84
365.46	3047.38
365.67	2645.98
365.88	2709.46
366.09	2559.96
366.30	2662.36
366.51	2729.94
366.72	2543.58
366.93	2557.91
367.14	2725.85
367.35	2906.07
367.56	2617.30
367.77	2703.32
367.98	2645.98
368.18	2777.05
368.39	2668.50
368.60	2551.77
368.81	2781.14
369.02	2727.89
369.23	2631.64
369.44	2383.84
369.65	2609.11
369.86	2818.00
370.07	2777.05
370.28	2539.48
370.49	2826.20
370.70	2818.00
370.91	2531.29
371.12	2430.94
371.33	2918.36
371.54	2609.11
371.75	2725.85
371.96	2383.84
372.17	2807.77
372.38	2643.93
372.59	2623.45
372.80	2564.06
373.01	2619.35
373.22	2768.85
373.43	2621.40
373.64	2557.91
373.85	2875.35
374.06	3020.75
374.26	2731.99
374.47	2740.18
374.68	2861.01
374.89	2723.80
375.10	2637.78
375.31	2611.16
375.52	2686.94
375.73	2752.47
375.94	2605.02
376.15	2748.37
376.36	2621.40
376.57	2619.35
376.78	2641.88
376.99	2625.50
377.20	2901.97
377.40	2650.07
377.61	2920.40
377.82	2580.44
378.03	2947.03
378.24	2848.72
378.45	2703.32
378.66	2744.28
378.87	2473.95
379.08	2535.39
379.29	2488.28
379.50	2695.13
379.71	2697.17
379.91	2783.19
380.12	2600.92
380.33	2629.59
380.54	2731.99
380.75	2680.79
380.96	2635.74
381.17	2713.56
381.38	2645.98
381.59	2744.28
381.80	2580.44
382.00	2871.25
382.21	2736.09
382.42	3088.34
382.63	2863.06
382.84	2801.62
383.05	2826.20
383.26	2953.17
383.47	2701.27
383.68	2660.31
383.88	2846.68
384.09	2811.86
384.30	2838.48
384.51	2719.70
384.72	2619.35
384.93	2584.54
385.14	2645.98
385.35	2754.52
385.55	2580.44
385.76	2936.79
385.97	2586.58
386.18	2422.75
386.39	2578.39
386.60	2676.70
386.81	2637.78
387.02	2428.89
387.22	2473.95
387.43	2783.19
387.64	2670.55
387.85	2818.00
388.06	2758.61
388.27	3960.77
388.48	7552.91
388.68	11208.53
388.89	13606.70
389.10	14632.74
389.31	13817.65
389.52	10954.58
389.73	9668.46
389.93	8742.78
390.14	8040.33
390.35	7102.36
390.56	6404.00
390.77	5367.73
390.98	4077.51
391.18	3469.26
391.39	3160.02
391.60	2842.58
391.81	2785.24
392.02	2578.39
392.23	3053.52
392.43	2781.14
392.64	2758.61
392.85	2725.85
393.06	2979.79
393.27	2682.84
393.47	2555.86
393.68	2621.40
393.89	2697.17
394.10	2836.44
394.31	2574.30
394.52	2607.06
394.72	2676.70
394.93	2996.18
395.14	2523.10
395.35	2721.75
395.56	2707.41
395.76	2760.66
395.97	2721.75
396.18	2785.24
396.39	2768.85
396.60	3289.04
396.80	2863.06
397.01	2904.02
397.22	2932.69
397.43	2930.64
397.64	2631.64
397.84	2738.13
398.05	2920.40
398.26	2801.62
398.47	2699.22
398.67	2740.18
398.88	2580.44
399.09	2846.68
399.30	2580.44
399.51	2734.04
399.71	2586.58
399.92	2652.12
400.13	2734.04
400.34	2676.70
400.54	2721.75
400.75	2916.31
400.96	2572.25
401.17	2949.08
401.37	2834.39
401.58	2670.55
401.79	2592.73
402.00	2723.80
402.21	3137.49
402.41	2914.26
402.62	2936.79
402.83	2969.55
403.04	3106.77
403.24	3385.29
403.45	2731.99
403.66	2877.40
403.87	2897.88
404.07	3035.09
404.28	2863.06
404.49	2918.36
404.70	2791.38
404.90	2766.81
405.11	2609.11
405.32	2738.13
405.52	2586.58
405.73	2643.93
405.94	2594.78
406.15	2648.02
406.35	2865.11
406.56	2869.20
406.77	2783.19
406.98	2707.41
407.18	2609.11
407.39	2963.41
407.60	2635.74
407.80	2725.85
408.01	2639.83
408.22	2858.96
408.43	2639.83
408.63	2781.14
408.84	2848.72
409.05	2801.62
409.25	2619.35
409.46	2527.19
409.67	2684.89
409.88	2723.80
410.08	2680.79
410.29	2613.21
410.50	2820.05
410.70	2791.38
410.91	2562.01
411.12	2734.04
411.32	2658.26
411.53	2613.21
411.74	2668.50
411.95	2734.04
412.15	2750.42
412.36	2848.72
412.57	2768.85
412.77	2838.48
412.98	2752.47
413.19	2662.36
413.39	2672.60
413.60	2686.94
413.81	2906.07
414.01	2551.77
414.22	2605.02
414.43	2762.71
414.63	2643.93
414.84	2838.48
415.05	2684.89
415.25	2514.91
415.46	2826.20
415.67	2602.97
415.87	2641.88
416.08	2648.02
416.29	2721.75
416.49	2768.85
416.70	2682.84
416.91	2602.97
417.11	2641.88
417.32	2871.25
417.53	2807.77
417.73	2699.22
417.94	2734.04
418.15	2711.51
418.35	2607.06
418.56	2693.08
418.77	3084.24
418.97	2768.85
419.18	2613.21
419.38	2277.34
419.59	2781.14
419.80	2895.83
420.00	2580.44
420.21	2691.03
420.42	2838.48
420.62	2711.51
420.83	2613.21
421.04	2662.36
421.24	2715.61
421.45	2777.05
421.65	2670.55
421.86	2645.98
422.07	2848.72
422.27	2809.81
422.48	2615.26
422.69	2543.58
422.89	2723.80
423.10	2713.56
423.30	2596.82
423.51	2742.23
423.72	2766.81
423.92	2891.73
424.13	2486.23
424.33	2701.27
424.54	2852.82
424.75	2883.54
424.95	2850.77
425.16	2650.07
425.36	2678.74
425.57	2828.24
425.78	2711.51
425.98	2729.94
426.19	2719.70
426.39	2580.44
426.60	2617.30
426.81	2822.10
427.01	2721.75
427.22	2682.84
427.42	2494.43
427.63	2586.58
427.83	2811.86
428.04	3002.32
428.25	2748.37
428.45	2762.71
428.66	2822.10
428.86	2772.95
429.07	2682.84
429.28	2668.50
429.48	2691.03
429.69	2619.35
429.89	2662.36
430.10	2519.00
430.30	2789.33
430.51	2768.85
430.71	2529.24
430.92	2627.54
431.13	2607.06
431.33	2770.90
431.54	2666.46
431.74	2908.12
431.95	3112.91
432.15	2586.58
432.36	2594.78
432.56	2711.51
432.77	2967.51
432.98	2928.60
433.18	2701.27
433.39	2592.73
433.59	2668.50
433.80	3022.80
434.00	2940.88
434.21	2586.58
434.41	2680.79
434.62	2996.18
434.82	2559.96
435.03	2537.43
435.23	2777.05
435.44	2488.28
435.64	2668.50
435.85	2666.46
436.06	2820.05
436.26	2824.15
436.47	2637.78
436.67	2582.49
436.88	2723.80
437.08	2879.44
437.29	2789.33
437.49	2746.33
437.70	2975.70
437.90	2652.12
438.11	2887.64
438.31	2709.46
438.52	2949.08
438.72	2916.31
438.93	2887.64
439.13	2662.36
439.34	2877.40
439.54	2670.55
439.75	2734.04
439.95	2639.83
440.16	2615.26
440.36	2719.70
440.57	2731.99
440.77	2727.89
440.98	2750.42
441.18	2748.37
441.39	2531.29
441.59	2494.43
441.80	3037.14
442.00	2789.33
442.21	2789.33
442.41	2500.57
442.62	2881.49
442.82	2574.30
443.02	2670.55
443.23	2697.17
443.43	2654.17
443.64	2875.35
443.84	2578.39
444.05	2789.33
444.25	2723.80
444.46	2635.74
444.66	2613.21
444.87	2873.30
445.07	2551.77
445.28	2799.57
445.48	2824.15
445.69	2768.85
445.89	3127.25
446.09	2709.46
446.30	3035.09
446.50	3035.09
446.71	4540.35
446.91	5664.68
447.12	6528.92
447.32	6817.69
447.53	6414.24
447.73	5425.07
447.93	4800.44
448.14	4534.20
448.34	4593.59
448.55	3790.79
448.75	3825.61
448.96	3719.11
449.16	3377.10
449.36	3217.36
449.57	2891.73
449.77	2760.66
449.98	2645.98
450.18	2922.45
450.39	2666.46
450.59	2818.00
450.79	2672.60
451.00	2615.26
451.20	2838.48
451.41	2678.74
451.61	2705.37
451.81	2703.32
452.02	2600.92
452.22	2680.79
452.43	2654.17
452.63	2586.58
