SpectraSuite Data File
++++++++++++++++++++++++++++++++++++
Date: Thu May 05 16:20:44 CEST 2016
User: root
Dark Spectrum Present: No
Reference Spectrum Present: No
Number of Sampled Component Spectra: 1
Spectrometers: USB4C02835
Integration Time (usec): 100000 (USB4C02835)
Spectra Averaged: 1 (USB4C02835)
Boxcar Smoothing: 0 (USB4C02835)
Correct for Electrical Dark: No (USB4C02835)
Strobe/Lamp Enabled: No (USB4C02835)
Correct for Detector Non-linearity: No (USB4C02835)
Correct for Stray Light: No (USB4C02835)
Number of Pixels in Processed Spectrum: 3648
>>>>>Begin Processed Spectral Data<<<<<
177.47	2000.87
177.69	2000.87
177.91	2000.87
178.13	2066.40
178.36	1998.82
178.58	2600.92
178.80	2658.26
179.02	2557.91
179.24	2551.77
179.46	2445.27
179.68	2512.86
179.90	2709.46
180.13	2734.04
180.35	2375.64
180.57	2439.13
180.79	2852.82
181.01	2750.42
181.23	2562.01
181.45	2656.22
181.67	2783.19
181.90	2901.97
182.12	2605.02
182.34	2361.31
182.56	2797.53
182.78	2848.72
183.00	2490.33
183.22	2588.63
183.44	2465.75
183.66	3198.93
183.89	2633.69
184.11	2566.10
184.33	2793.43
184.55	2877.40
184.77	2508.76
184.99	2529.24
185.21	2641.88
185.43	3082.19
185.65	2525.15
185.87	2449.37
186.10	3125.20
186.32	2971.60
186.54	2615.26
186.76	2602.97
186.98	2856.92
187.20	2711.51
187.42	2586.58
187.64	2535.39
187.86	2863.06
188.08	2811.86
188.30	2457.56
188.52	2463.71
188.75	2869.20
188.97	3016.66
189.19	2439.13
189.41	2465.75
189.63	2789.33
189.85	2672.60
190.07	2426.84
190.29	2371.55
190.51	2695.13
190.73	2531.29
190.95	2619.35
191.17	2535.39
191.39	2455.51
191.61	2697.17
191.84	2564.06
192.06	2635.74
192.28	2533.34
192.50	3125.20
192.72	2625.50
192.94	2547.67
193.16	2801.62
193.38	2805.72
193.60	2439.13
193.82	2582.49
194.04	2871.25
194.26	2772.95
194.48	2451.42
194.70	2576.34
194.92	2645.98
195.14	2805.72
195.36	2465.75
195.58	2521.05
195.80	2686.94
196.02	2629.59
196.24	2519.00
196.46	2584.54
196.69	2590.68
196.91	3071.95
197.13	2566.10
197.35	2598.87
197.57	2963.41
197.79	2785.24
198.01	2605.02
198.23	2609.11
198.45	2764.76
198.67	2498.52
198.89	2392.03
199.11	2580.44
199.33	2662.36
199.55	2449.37
199.77	2463.71
199.99	2635.74
200.21	2711.51
200.43	2752.47
200.65	2492.38
200.87	2496.47
201.09	2719.70
201.31	2695.13
201.53	2555.86
201.75	2531.29
201.97	2840.53
202.19	2731.99
202.41	2566.10
202.63	2695.13
202.85	2750.42
203.07	2787.29
203.29	2570.20
203.51	2369.50
203.73	2572.25
203.95	3051.47
204.17	2514.91
204.39	2686.94
204.61	2643.93
204.83	2658.26
205.05	2650.07
205.27	2625.50
205.49	3078.10
205.71	2736.09
205.93	2408.41
206.15	2531.29
206.37	2705.37
206.59	2674.65
206.81	2412.51
207.03	2457.56
207.25	2586.58
207.47	2789.33
207.69	2600.92
207.91	2686.94
208.13	2869.20
208.34	2605.02
208.56	2492.38
208.78	2590.68
209.00	2670.55
209.22	2592.73
209.44	2549.72
209.66	2465.75
209.88	2715.61
210.10	2684.89
210.32	2488.28
210.54	2627.54
210.76	2654.17
210.98	2885.59
211.20	2320.35
211.42	2648.02
211.64	2873.30
211.86	2818.00
212.08	2598.87
212.30	2564.06
212.52	2684.89
212.74	2746.33
212.96	2543.58
213.17	2602.97
213.39	2795.48
213.61	2985.94
213.83	2521.05
214.05	2486.23
214.27	2818.00
214.49	2543.58
214.71	2488.28
214.93	2693.08
215.15	2760.66
215.37	2848.72
215.59	2367.45
215.81	2490.33
216.03	2856.92
216.24	2777.05
216.46	2564.06
216.68	2527.19
216.90	2897.88
217.12	2959.31
217.34	2435.03
217.56	2611.16
217.78	2922.45
218.00	2781.14
218.22	2584.54
218.44	2627.54
218.66	2736.09
218.87	3010.51
219.09	2594.78
219.31	2506.71
219.53	2756.57
219.75	2643.93
219.97	2523.10
220.19	2566.10
220.41	2680.79
220.63	2877.40
220.85	2512.86
221.06	2480.09
221.28	2852.82
221.50	2838.48
221.72	2490.33
221.94	2461.66
222.16	2807.77
222.38	2803.67
222.60	2525.15
222.82	2543.58
223.03	2840.53
223.25	2486.23
223.47	2564.06
223.69	2734.04
223.91	2719.70
224.13	2736.09
224.35	2455.51
224.57	2562.01
224.78	2858.96
225.00	2564.06
225.22	2580.44
225.44	2478.04
225.66	2807.77
225.88	2629.59
226.10	2596.82
226.32	2543.58
226.53	2912.21
226.75	2652.12
226.97	2574.30
227.19	2555.86
227.41	2691.03
227.63	2623.45
227.85	2330.59
228.06	2582.49
228.28	2744.28
228.50	2787.29
228.72	2453.47
228.94	2514.91
229.16	2580.44
229.37	2629.59
229.59	2478.04
229.81	2721.75
230.03	2709.46
230.25	2539.48
230.47	2428.89
230.69	2482.14
230.90	2887.64
231.12	2652.12
231.34	2533.34
231.56	2631.64
231.78	2572.25
232.00	2711.51
232.21	2512.86
232.43	2504.67
232.65	2439.13
232.87	2729.94
233.09	2437.08
233.30	2465.75
233.52	2850.77
233.74	2674.65
233.96	2514.91
234.18	2637.78
234.40	2635.74
234.61	3028.95
234.83	2375.64
235.05	2412.51
235.27	3086.29
235.49	2947.03
235.70	2414.56
235.92	2600.92
236.14	2768.85
236.36	3129.30
236.58	2396.12
236.79	2588.63
237.01	2744.28
237.23	2703.32
237.45	2705.37
237.67	2516.95
237.88	2818.00
238.10	2934.74
238.32	2453.47
238.54	2453.47
238.76	2674.65
238.97	2598.87
239.19	2428.89
239.41	2607.06
239.63	2908.12
239.85	2645.98
240.06	2547.67
240.28	2496.47
240.50	2846.68
240.72	2668.50
240.93	2447.32
241.15	2619.35
241.37	2662.36
241.59	2934.74
241.81	2494.43
242.02	2555.86
242.24	2725.85
242.46	2842.58
242.68	2385.88
242.89	2496.47
243.11	2867.16
243.33	2701.27
243.55	2553.82
243.76	2611.16
243.98	2654.17
244.20	2715.61
244.42	2498.52
244.64	2547.67
244.85	2570.20
245.07	2629.59
245.29	2490.33
245.51	2516.95
245.72	2779.09
245.94	2889.68
246.16	2398.17
246.38	2555.86
246.59	2707.41
246.81	2613.21
247.03	2502.62
247.24	2351.07
247.46	2594.78
247.68	2674.65
247.90	2437.08
248.11	2564.06
248.33	2799.57
248.55	2719.70
248.77	2582.49
248.98	2633.69
249.20	2908.12
249.42	2703.32
249.64	2545.63
249.85	2531.29
250.07	2611.16
250.29	2871.25
250.50	2545.63
250.72	2418.65
250.94	2750.42
251.16	2996.18
251.37	2492.38
251.59	2623.45
251.81	2797.53
252.02	2955.22
252.24	2459.61
252.46	2652.12
252.68	2605.02
252.89	2549.72
253.11	2422.75
253.33	2586.58
253.54	2916.31
253.76	2566.10
253.98	2488.28
254.20	2502.62
254.41	2473.95
254.63	2727.89
254.85	2418.65
255.06	2541.53
255.28	2785.24
255.50	2725.85
255.71	2473.95
255.93	2334.68
256.15	2717.65
256.36	2807.77
256.58	2424.80
256.80	2494.43
257.02	2744.28
257.23	2645.98
257.45	2488.28
257.67	2607.06
257.88	2652.12
258.10	2762.71
258.32	2543.58
258.53	2600.92
258.75	2944.98
258.97	2611.16
259.18	2502.62
259.40	2465.75
259.62	2887.64
259.83	2969.55
260.05	2535.39
260.27	3198.93
260.48	2893.78
260.70	2478.04
260.92	2457.56
261.13	2580.44
261.35	2772.95
261.57	2686.94
261.78	2398.17
262.00	2537.43
262.22	2793.43
262.43	2613.21
262.65	2523.10
262.86	2598.87
263.08	3063.76
263.30	2752.47
263.51	2381.79
263.73	2500.57
263.95	2914.26
264.16	2537.43
264.38	2459.61
264.60	2498.52
264.81	2748.37
265.03	2844.63
265.25	2801.62
265.46	2486.23
265.68	2897.88
265.89	2838.48
266.11	2396.12
266.33	2463.71
266.54	2910.16
266.76	2789.33
266.98	2633.69
267.19	2664.41
267.41	2854.87
267.62	2607.06
267.84	2377.69
268.06	2549.72
268.27	2717.65
268.49	2881.49
268.70	2588.63
268.92	2562.01
269.14	2568.15
269.35	2508.76
269.57	2568.15
269.79	2564.06
270.00	2537.43
270.22	3043.28
270.43	2441.18
270.65	2367.45
270.87	2740.18
271.08	2777.05
271.30	2652.12
271.51	2545.63
271.73	2813.91
271.95	2916.31
272.16	2475.99
272.38	2605.02
272.59	2672.60
272.81	2818.00
273.02	2443.23
273.24	2570.20
273.46	2916.31
273.67	2559.96
273.89	2441.18
274.10	2519.00
274.32	2885.59
274.54	2756.57
274.75	2703.32
274.97	2564.06
275.18	2867.16
275.40	2811.86
275.61	2596.82
275.83	2709.46
276.05	2627.54
276.26	2719.70
276.48	2650.07
276.69	2609.11
276.91	2596.82
277.12	2865.11
277.34	2656.22
277.55	2742.23
277.77	2772.95
277.99	2717.65
278.20	2539.48
278.42	2508.76
278.63	2547.67
278.85	2592.73
279.06	2553.82
279.28	2709.46
279.49	2842.58
279.71	2850.77
279.93	2674.65
280.14	2695.13
280.36	2648.02
280.57	2901.97
280.79	2707.41
281.00	2516.95
281.22	2652.12
281.43	2930.64
281.65	2430.94
281.86	2525.15
282.08	2818.00
282.29	2996.18
282.51	2531.29
282.73	2498.52
282.94	2461.66
283.16	2834.39
283.37	2756.57
283.59	2637.78
283.80	2785.24
284.02	2713.56
284.23	2611.16
284.45	2633.69
284.66	2600.92
284.88	2590.68
285.09	2674.65
285.31	2756.57
285.52	2766.81
285.74	2488.28
285.95	2779.09
286.17	2686.94
286.38	2869.20
286.60	2645.98
286.81	2512.86
287.03	2609.11
287.24	2656.22
287.46	2805.72
287.67	2662.36
287.89	2805.72
288.10	2719.70
288.32	2760.66
288.53	2793.43
288.75	2631.64
288.96	2820.05
289.18	2697.17
289.39	2564.06
289.61	2670.55
289.82	2914.26
290.04	3008.47
290.25	2512.86
290.47	2621.40
290.68	2633.69
290.90	2811.86
291.11	2406.36
291.33	2707.41
291.54	2605.02
291.76	2674.65
291.97	2758.61
292.18	2662.36
292.40	2625.50
292.61	2605.02
292.83	2916.31
293.04	2592.73
293.26	2750.42
293.47	2691.03
293.69	2428.89
293.90	2598.87
294.12	2904.02
294.33	2641.88
294.55	2631.64
294.76	2744.28
294.97	2949.08
295.19	2973.65
295.40	2619.35
295.62	2678.74
295.83	2887.64
296.05	2602.97
296.26	2807.77
296.48	2588.63
296.69	2727.89
296.90	2725.85
297.12	2762.71
297.33	2850.77
297.55	2715.61
297.76	2822.10
297.98	2684.89
298.19	2637.78
298.41	2766.81
298.62	2670.55
298.83	2858.96
299.05	2693.08
299.26	2662.36
299.48	2670.55
299.69	2666.46
299.90	2602.97
300.12	2641.88
300.33	2846.68
300.55	2623.45
300.76	2613.21
300.98	2547.67
301.19	2832.34
301.40	2598.87
301.62	2543.58
301.83	2795.48
302.05	2727.89
302.26	2613.21
302.47	2635.74
302.69	2631.64
302.90	2727.89
303.12	2357.21
303.33	2648.02
303.54	2998.23
303.76	2609.11
303.97	2629.59
304.19	2840.53
304.40	2615.26
304.61	2772.95
304.83	2777.05
305.04	2766.81
305.26	2818.00
305.47	2598.87
305.68	2635.74
305.90	2576.34
306.11	2934.74
306.33	2639.83
306.54	2562.01
306.75	2492.38
306.97	2525.15
307.18	2621.40
307.39	2574.30
307.61	2734.04
307.82	2613.21
308.04	2754.52
308.25	2455.51
308.46	2723.80
308.68	2693.08
308.89	2707.41
309.10	2738.13
309.32	2613.21
309.53	2731.99
309.74	2719.70
309.96	2580.44
310.17	2863.06
310.39	2664.41
310.60	2824.15
310.81	2650.07
311.03	2519.00
311.24	2781.14
311.45	2697.17
311.67	2795.48
311.88	2676.70
312.09	2664.41
312.31	2654.17
312.52	2629.59
312.73	2541.53
312.95	2555.86
313.16	2600.92
313.37	2670.55
313.59	2719.70
313.80	2818.00
314.01	2975.70
314.23	2596.82
314.44	2541.53
314.65	2533.34
314.87	2643.93
315.08	2574.30
315.29	2547.67
315.51	2586.58
315.72	2564.06
315.93	2752.47
316.15	2660.31
316.36	2605.02
316.57	2777.05
316.79	2617.30
317.00	2596.82
317.21	2752.47
317.43	2611.16
317.64	2629.59
317.85	2531.29
318.07	2703.32
318.28	2725.85
318.49	2674.65
318.70	2840.53
318.92	2746.33
319.13	2742.23
319.34	2754.52
319.56	2619.35
319.77	2811.86
319.98	2756.57
320.20	2813.91
320.41	2719.70
320.62	2797.53
320.83	2527.19
321.05	2799.57
321.26	2643.93
321.47	2746.33
321.69	2867.16
321.90	2555.86
322.11	2572.25
322.32	2758.61
322.54	2865.11
322.75	2584.54
322.96	3258.32
323.18	2596.82
323.39	2445.27
323.60	2449.37
323.81	2746.33
324.03	2578.39
324.24	2625.50
324.45	2631.64
324.66	2562.01
324.88	3020.75
325.09	2877.40
325.30	2600.92
325.52	2652.12
325.73	2791.38
325.94	2654.17
326.15	2430.94
326.37	2559.96
326.58	2797.53
326.79	2854.87
327.00	2420.70
327.22	2600.92
327.43	2674.65
327.64	2594.78
327.85	2723.80
328.07	2650.07
328.28	2987.99
328.49	2627.54
328.70	2598.87
328.92	2650.07
329.13	2639.83
329.34	2818.00
329.55	2875.35
329.76	2723.80
329.98	2717.65
330.19	2934.74
330.40	2666.46
330.61	2721.75
330.83	2832.34
331.04	2613.21
331.25	2650.07
331.46	2586.58
331.68	2547.67
331.89	2881.49
332.10	2676.70
332.31	2418.65
332.52	2705.37
332.74	2940.88
332.95	2490.33
333.16	2586.58
333.37	2813.91
333.58	2672.60
333.80	2682.84
334.01	2383.84
334.22	2676.70
334.43	2570.20
334.64	2557.91
334.86	2461.66
335.07	2566.10
335.28	2904.02
335.49	2443.23
335.70	2719.70
335.92	2875.35
336.13	3012.56
336.34	2719.70
336.55	2625.50
336.76	2803.67
336.98	2471.90
337.19	2596.82
337.40	2801.62
337.61	3114.96
337.82	2617.30
338.04	2684.89
338.25	2445.27
338.46	2719.70
338.67	2725.85
338.88	2555.86
339.09	2553.82
339.31	2654.17
339.52	2486.23
339.73	2617.30
339.94	2670.55
340.15	2858.96
340.36	2664.41
340.58	2633.69
340.79	2615.26
341.00	2764.76
341.21	2568.15
341.42	2850.77
341.63	2596.82
341.85	2838.48
342.06	2721.75
342.27	2602.97
342.48	2731.99
342.69	2570.20
342.90	2787.29
343.12	2742.23
343.33	2525.15
343.54	2777.05
343.75	2871.25
343.96	2605.02
344.17	2564.06
344.38	2680.79
344.60	2711.51
344.81	2494.43
345.02	2549.72
345.23	2889.68
345.44	3121.10
345.65	2695.13
345.86	2660.31
346.07	2764.76
346.29	2719.70
346.50	2777.05
346.71	2707.41
346.92	2916.31
347.13	3088.34
347.34	2678.74
347.55	2490.33
347.76	2783.19
347.98	2547.67
348.19	2623.45
348.40	2826.20
348.61	2670.55
348.82	2998.23
349.03	2670.55
349.24	2529.24
349.45	3053.52
349.66	2496.47
349.88	2635.74
350.09	2574.30
350.30	2889.68
350.51	2906.07
350.72	2764.76
350.93	2652.12
351.14	2662.36
351.35	2848.72
351.56	2551.77
351.77	2613.21
351.99	2754.52
352.20	2932.69
352.41	2719.70
352.62	2375.64
352.83	2652.12
353.04	2701.27
353.25	2568.15
353.46	2703.32
353.67	2947.03
353.88	2478.04
354.09	2586.58
354.30	2580.44
354.52	2828.24
354.73	2678.74
354.94	2605.02
355.15	2578.39
355.36	2940.88
355.57	2709.46
355.78	2570.20
355.99	2592.73
356.20	2629.59
356.41	2934.74
356.62	2729.94
356.83	2621.40
357.04	2944.98
357.25	2473.95
357.46	2555.86
357.68	2533.34
357.89	2588.63
358.10	2678.74
358.31	2652.12
358.52	2623.45
358.73	2586.58
358.94	2625.50
359.15	2543.58
359.36	2670.55
359.57	2729.94
359.78	2758.61
359.99	2686.94
360.20	2504.67
360.41	2701.27
360.62	2906.07
360.83	2605.02
361.04	2637.78
361.25	2797.53
361.46	2912.21
361.67	2684.89
361.88	2742.23
362.09	2922.45
362.30	2777.05
362.51	2498.52
362.72	2658.26
362.93	2865.11
363.14	2766.81
363.35	2731.99
363.56	2592.73
363.78	2926.55
363.99	2834.39
364.20	2645.98
364.41	2715.61
364.62	2987.99
364.83	2660.31
365.04	2668.50
365.25	2635.74
365.46	3110.86
365.67	2562.01
365.88	2678.74
366.09	2600.92
366.30	2686.94
366.51	2711.51
366.72	2486.23
366.93	2613.21
367.14	2719.70
367.35	2912.21
367.56	2605.02
367.77	2736.09
367.98	2641.88
368.18	2795.48
368.39	2686.94
368.60	2500.57
368.81	2805.72
369.02	2783.19
369.23	2627.54
369.44	2463.71
369.65	2662.36
369.86	2760.66
370.07	2723.80
370.28	2469.85
370.49	2731.99
370.70	2738.13
370.91	2545.63
371.12	2437.08
371.33	2858.96
371.54	2650.07
371.75	2740.18
371.96	2424.80
372.17	2734.04
372.38	2670.55
372.59	2715.61
372.80	2551.77
373.01	2680.79
373.22	2781.14
373.43	2619.35
373.64	2521.05
373.85	2971.60
374.06	2951.12
374.26	2736.09
374.47	2750.42
374.68	3035.09
374.89	2746.33
375.10	2537.43
375.31	2676.70
375.52	2758.61
375.73	2766.81
375.94	2508.76
376.15	2793.43
376.36	2602.97
376.57	2576.34
376.78	2547.67
376.99	2662.36
377.20	2865.11
377.40	2650.07
377.61	2848.72
377.82	2539.48
378.03	2961.36
378.24	2793.43
378.45	2664.41
378.66	2658.26
378.87	2523.10
379.08	2572.25
379.29	2582.49
379.50	2762.71
379.71	2721.75
379.91	2850.77
380.12	2543.58
380.33	2660.31
380.54	2637.78
380.75	2697.17
380.96	2596.82
381.17	2629.59
381.38	2734.04
381.59	2772.95
381.80	2637.78
382.00	2764.76
382.21	2758.61
382.42	2924.50
382.63	2863.06
382.84	2637.78
383.05	2799.57
383.26	2977.75
383.47	2707.41
383.68	2625.50
383.88	2783.19
384.09	2861.01
384.30	2826.20
384.51	2705.37
384.72	2680.79
384.93	2562.01
385.14	2699.22
385.35	2768.85
385.55	2478.04
385.76	2959.31
385.97	2613.21
386.18	2510.81
386.39	2609.11
386.60	2602.97
386.81	2523.10
387.02	2426.84
387.22	2537.43
387.43	2813.91
387.64	2793.43
387.85	2805.72
388.06	2871.25
388.27	4059.07
388.48	7511.95
388.68	11267.92
388.89	13373.24
389.10	14309.16
389.31	13772.59
389.52	10788.70
389.73	9502.58
389.93	8431.49
390.14	7999.37
390.35	6993.81
390.56	6358.94
390.77	5240.75
390.98	4063.17
391.18	3409.87
391.39	3100.62
391.60	2715.61
391.81	2785.24
392.02	2566.10
392.23	2994.13
392.43	2779.09
392.64	2793.43
392.85	2709.46
393.06	2916.31
393.27	2711.51
393.47	2645.98
393.68	2639.83
393.89	2676.70
394.10	2920.40
394.31	2605.02
394.52	2574.30
394.72	2613.21
394.93	2973.65
395.14	2521.05
395.35	2717.65
395.56	2664.41
395.76	2662.36
395.97	2660.31
396.18	2797.53
396.39	2772.95
396.60	3256.27
396.80	2912.21
397.01	2844.63
397.22	2881.49
397.43	2840.53
397.64	2568.15
397.84	2805.72
398.05	3053.52
398.26	2797.53
398.47	2731.99
398.67	2768.85
398.88	2703.32
399.09	2865.11
399.30	2592.73
399.51	2684.89
399.71	2607.06
399.92	2656.22
400.13	2670.55
400.34	2611.16
400.54	2705.37
400.75	2987.99
400.96	2566.10
401.17	2846.68
401.37	2838.48
401.58	2801.62
401.79	2621.40
402.00	2826.20
402.21	3104.72
402.41	2983.89
402.62	2912.21
402.83	3074.00
403.04	3106.77
403.24	3311.57
403.45	2709.46
403.66	2828.24
403.87	2910.16
404.07	3018.71
404.28	2865.11
404.49	2908.12
404.70	2717.65
404.90	2889.68
405.11	2666.46
405.32	2721.75
405.52	2654.17
405.73	2623.45
405.94	2498.52
406.15	2650.07
406.35	2801.62
406.56	2775.00
406.77	2709.46
406.98	2643.93
407.18	2613.21
407.39	2926.55
407.60	2760.66
407.80	2719.70
408.01	2686.94
408.22	2734.04
408.43	2568.15
408.63	2725.85
408.84	2838.48
409.05	2838.48
409.25	2631.64
409.46	2598.87
409.67	2568.15
409.88	2645.98
410.08	2760.66
410.29	2551.77
410.50	2856.92
410.70	2793.43
410.91	2541.53
411.12	2779.09
411.32	2748.37
411.53	2559.96
411.74	2645.98
411.95	2703.32
412.15	2807.77
412.36	2897.88
412.57	2645.98
412.77	2775.00
412.98	2688.98
413.19	2623.45
413.39	2701.27
413.60	2695.13
413.81	2924.50
414.01	2519.00
414.22	2631.64
414.43	2738.13
414.63	2652.12
414.84	2893.78
415.05	2656.22
415.25	2508.76
415.46	2795.48
415.67	2637.78
415.87	2682.84
416.08	2592.73
416.29	2693.08
416.49	2723.80
416.70	2656.22
416.91	2588.63
417.11	2688.98
417.32	2959.31
417.53	2756.57
417.73	2693.08
417.94	2777.05
418.15	2731.99
418.35	2678.74
418.56	2684.89
418.77	3106.77
418.97	2740.18
419.18	2711.51
419.38	2324.44
419.59	2727.89
419.80	2893.78
420.00	2611.16
420.21	2631.64
420.42	2961.36
420.62	2846.68
420.83	2580.44
421.04	2602.97
421.24	2775.00
421.45	2818.00
421.65	2666.46
421.86	2654.17
422.07	2883.54
422.27	2697.17
422.48	2625.50
422.69	2514.91
422.89	2688.98
423.10	2695.13
423.30	2543.58
423.51	2672.60
423.72	2781.14
423.92	2856.92
424.13	2533.34
424.33	2703.32
424.54	2791.38
424.75	2770.90
424.95	2842.58
425.16	2596.82
425.36	2662.36
425.57	2930.64
425.78	2793.43
425.98	2699.22
426.19	2635.74
426.39	2602.97
426.60	2725.85
426.81	2838.48
427.01	2688.98
427.22	2637.78
427.42	2473.95
427.63	2574.30
427.83	2861.01
428.04	2969.55
428.25	2725.85
428.45	2834.39
428.66	2932.69
428.86	2699.22
429.07	2672.60
429.28	2709.46
429.48	2731.99
429.69	2621.40
429.89	2676.70
430.10	2531.29
430.30	2852.82
430.51	2889.68
430.71	2615.26
430.92	2682.84
431.13	2641.88
431.33	2824.15
431.54	2658.26
431.74	2846.68
431.95	3022.80
432.15	2600.92
432.36	2684.89
432.56	2707.41
432.77	3028.95
432.98	2990.03
433.18	2783.19
433.39	2584.54
433.59	2566.10
433.80	3067.86
434.00	2875.35
434.21	2572.25
434.41	2615.26
434.62	3088.34
434.82	2559.96
435.03	2539.48
435.23	2787.29
435.44	2385.88
435.64	2625.50
435.85	2691.03
436.06	2830.29
436.26	2832.34
436.47	2645.98
436.67	2592.73
436.88	2676.70
437.08	2879.44
437.29	2834.39
437.49	2760.66
437.70	2889.68
437.90	2686.94
438.11	2852.82
438.31	2758.61
438.52	2856.92
438.72	2865.11
438.93	2934.74
439.13	2766.81
439.34	2920.40
439.54	2719.70
439.75	2701.27
439.95	2695.13
440.16	2621.40
440.36	2691.03
440.57	2650.07
440.77	2703.32
440.98	2682.84
441.18	2840.53
441.39	2654.17
441.59	2512.86
441.80	3065.81
442.00	2752.47
442.21	2750.42
442.41	2562.01
442.62	2856.92
442.82	2666.46
443.02	2666.46
443.23	2609.11
443.43	2746.33
443.64	2785.24
443.84	2557.91
444.05	2785.24
444.25	2760.66
444.46	2592.73
444.66	2684.89
444.87	2803.67
445.07	2527.19
445.28	2695.13
445.48	2856.92
445.69	2748.37
445.89	3030.99
446.09	2709.46
446.30	2975.70
446.50	3137.49
446.71	4530.11
446.91	5527.47
447.12	6537.12
447.32	6784.92
447.53	6518.68
447.73	5369.77
447.93	4710.33
448.14	4505.53
448.34	4478.91
448.55	3854.28
448.75	3895.24
448.96	3684.30
449.16	3383.24
449.36	3215.31
449.57	2912.21
449.77	2670.55
449.98	2662.36
450.18	2785.24
450.39	2684.89
450.59	2772.95
450.79	2701.27
451.00	2693.08
451.20	2719.70
451.41	2637.78
451.61	2881.49
451.81	2682.84
452.02	2641.88
452.22	2658.26
452.43	2645.98
452.63	2637.78
