SpectraSuite Data File
++++++++++++++++++++++++++++++++++++
Date: Thu May 05 16:20:42 CEST 2016
User: root
Dark Spectrum Present: No
Reference Spectrum Present: No
Number of Sampled Component Spectra: 1
Spectrometers: USB4C02835
Integration Time (usec): 100000 (USB4C02835)
Spectra Averaged: 1 (USB4C02835)
Boxcar Smoothing: 0 (USB4C02835)
Correct for Electrical Dark: No (USB4C02835)
Strobe/Lamp Enabled: No (USB4C02835)
Correct for Detector Non-linearity: No (USB4C02835)
Correct for Stray Light: No (USB4C02835)
Number of Pixels in Processed Spectrum: 3648
>>>>>Begin Processed Spectral Data<<<<<
177.47	2068.45
177.69	2068.45
177.91	2068.45
178.13	2007.01
178.36	2013.15
178.58	2574.30
178.80	2746.33
179.02	2461.66
179.24	2674.65
179.46	2498.52
179.68	2473.95
179.90	2672.60
180.13	2680.79
180.35	2377.69
180.57	2562.01
180.79	2848.72
181.01	2719.70
181.23	2537.43
181.45	2557.91
181.67	2906.07
181.90	2879.44
182.12	2521.05
182.34	2428.89
182.56	2836.44
182.78	2758.61
183.00	2514.91
183.22	2514.91
183.44	2418.65
183.66	3094.48
183.89	2658.26
184.11	2508.76
184.33	2777.05
184.55	2895.83
184.77	2537.43
184.99	2521.05
185.21	2654.17
185.43	3106.77
185.65	2514.91
185.87	2459.61
186.10	3041.23
186.32	3055.57
186.54	2705.37
186.76	2586.58
186.98	2871.25
187.20	2684.89
187.42	2555.86
187.64	2486.23
187.86	2811.86
188.08	2826.20
188.30	2457.56
188.52	2643.93
188.75	2897.88
188.97	2897.88
189.19	2465.75
189.41	2521.05
189.63	2852.82
189.85	2617.30
190.07	2484.19
190.29	2371.55
190.51	2791.38
190.73	2531.29
190.95	2693.08
191.17	2521.05
191.39	2529.24
191.61	2635.74
191.84	2580.44
192.06	2570.20
192.28	2547.67
192.50	3051.47
192.72	2600.92
192.94	2598.87
193.16	2967.51
193.38	2781.14
193.60	2453.47
193.82	2615.26
194.04	2832.34
194.26	2746.33
194.48	2461.66
194.70	2453.47
194.92	2668.50
195.14	2795.48
195.36	2519.00
195.58	2572.25
195.80	2701.27
196.02	2654.17
196.24	2463.71
196.46	2633.69
196.69	2609.11
196.91	3055.57
197.13	2394.08
197.35	2494.43
197.57	2963.41
197.79	2811.86
198.01	2539.48
198.23	2541.53
198.45	2838.48
198.67	2568.15
198.89	2422.75
199.11	2619.35
199.33	2582.49
199.55	2463.71
199.77	2469.85
199.99	2629.59
200.21	2666.46
200.43	2742.23
200.65	2441.18
200.87	2412.51
201.09	2680.79
201.31	2643.93
201.53	2553.82
201.75	2555.86
201.97	2811.86
202.19	2707.41
202.41	2621.40
202.63	2668.50
202.85	2838.48
203.07	2721.75
203.29	2506.71
203.51	2412.51
203.73	2658.26
203.95	3141.58
204.17	2572.25
204.39	2650.07
204.61	2666.46
204.83	2635.74
205.05	2660.31
205.27	2533.34
205.49	3026.90
205.71	2738.13
205.93	2414.56
206.15	2516.95
206.37	2707.41
206.59	2697.17
206.81	2437.08
207.03	2435.03
207.25	2598.87
207.47	2828.24
207.69	2578.39
207.91	2658.26
208.13	2912.21
208.34	2664.41
208.56	2467.80
208.78	2482.14
209.00	2605.02
209.22	2617.30
209.44	2504.67
209.66	2523.10
209.88	2719.70
210.10	2682.84
210.32	2465.75
210.54	2629.59
210.76	2664.41
210.98	2873.30
211.20	2406.36
211.42	2637.78
211.64	2916.31
211.86	2744.28
212.08	2623.45
212.30	2502.62
212.52	2695.13
212.74	2781.14
212.96	2613.21
213.17	2523.10
213.39	2752.47
213.61	2981.84
213.83	2576.34
214.05	2400.22
214.27	2867.16
214.49	2568.15
214.71	2439.13
214.93	2662.36
215.15	2768.85
215.37	2895.83
215.59	2428.89
215.81	2602.97
216.03	2887.64
216.24	2697.17
216.46	2512.86
216.68	2541.53
216.90	2858.96
217.12	2889.68
217.34	2443.23
217.56	2668.50
217.78	2981.84
218.00	2770.90
218.22	2600.92
218.44	2641.88
218.66	2772.95
218.87	3004.37
219.09	2539.48
219.31	2512.86
219.53	2731.99
219.75	2625.50
219.97	2590.68
220.19	2506.71
220.41	2684.89
220.63	2932.69
220.85	2529.24
221.06	2537.43
221.28	2883.54
221.50	2836.44
221.72	2547.67
221.94	2394.08
222.16	2797.53
222.38	2791.38
222.60	2506.71
222.82	2549.72
223.03	2865.11
223.25	2508.76
223.47	2514.91
223.69	2670.55
223.91	2875.35
224.13	2715.61
224.35	2365.40
224.57	2715.61
224.78	2887.64
225.00	2576.34
225.22	2512.86
225.44	2461.66
225.66	2897.88
225.88	2623.45
226.10	2562.01
226.32	2584.54
226.53	2883.54
226.75	2666.46
226.97	2512.86
227.19	2574.30
227.41	2713.56
227.63	2633.69
227.85	2396.12
228.06	2492.38
228.28	2639.83
228.50	2772.95
228.72	2437.08
228.94	2478.04
229.16	2502.62
229.37	2541.53
229.59	2430.94
229.81	2674.65
230.03	2772.95
230.25	2514.91
230.47	2416.60
230.69	2459.61
230.90	2858.96
231.12	2658.26
231.34	2549.72
231.56	2643.93
231.78	2586.58
232.00	2781.14
232.21	2570.20
232.43	2478.04
232.65	2480.09
232.87	2775.00
233.09	2488.28
233.30	2392.03
233.52	2852.82
233.74	2596.82
233.96	2478.04
234.18	2641.88
234.40	2656.22
234.61	3026.90
234.83	2482.14
235.05	2514.91
235.27	3133.39
235.49	2920.40
235.70	2486.23
235.92	2551.77
236.14	2865.11
236.36	3112.91
236.58	2414.56
236.79	2637.78
237.01	2721.75
237.23	2801.62
237.45	2723.80
237.67	2572.25
237.88	2797.53
238.10	3063.76
238.32	2492.38
238.54	2523.10
238.76	2793.43
238.97	2602.97
239.19	2412.51
239.41	2586.58
239.63	2881.49
239.85	2625.50
240.06	2562.01
240.28	2492.38
240.50	2875.35
240.72	2627.54
240.93	2471.90
241.15	2547.67
241.37	2793.43
241.59	2918.36
241.81	2500.57
242.02	2586.58
242.24	2842.58
242.46	2850.77
242.68	2383.84
242.89	2486.23
243.11	2811.86
243.33	2654.17
243.55	2592.73
243.76	2572.25
243.98	2602.97
244.20	2748.37
244.42	2519.00
244.64	2529.24
244.85	2553.82
245.07	2566.10
245.29	2498.52
245.51	2557.91
245.72	2750.42
245.94	2856.92
246.16	2457.56
246.38	2564.06
246.59	2564.06
246.81	2631.64
247.03	2402.27
247.24	2432.99
247.46	2631.64
247.68	2752.47
247.90	2498.52
248.11	2537.43
248.33	2895.83
248.55	2684.89
248.77	2570.20
248.98	2559.96
249.20	2971.60
249.42	2742.23
249.64	2584.54
249.85	2486.23
250.07	2656.22
250.29	2764.76
250.50	2570.20
250.72	2471.90
250.94	2752.47
251.16	3065.81
251.37	2564.06
251.59	2605.02
251.81	2760.66
252.02	2865.11
252.24	2437.08
252.46	2715.61
252.68	2670.55
252.89	2674.65
253.11	2349.02
253.33	2719.70
253.54	2928.60
253.76	2584.54
253.98	2488.28
254.20	2432.99
254.41	2566.10
254.63	2684.89
254.85	2439.13
255.06	2602.97
255.28	2799.57
255.50	2697.17
255.71	2510.81
255.93	2404.32
256.15	2680.79
256.36	2834.39
256.58	2410.46
256.80	2435.03
257.02	2621.40
257.23	2707.41
257.45	2578.39
257.67	2662.36
257.88	2602.97
258.10	2699.22
258.32	2527.19
258.53	2551.77
258.75	2975.70
258.97	2650.07
259.18	2451.42
259.40	2480.09
259.62	2965.46
259.83	2930.64
260.05	2553.82
260.27	3209.17
260.48	2873.30
260.70	2588.63
260.92	2465.75
261.13	2545.63
261.35	2785.24
261.57	2772.95
261.78	2439.13
262.00	2516.95
262.22	2824.15
262.43	2637.78
262.65	2545.63
262.86	2559.96
263.08	2985.94
263.30	2662.36
263.51	2342.88
263.73	2475.99
263.95	2969.55
264.16	2564.06
264.38	2455.51
264.60	2555.86
264.81	2682.84
265.03	2863.06
265.25	2848.72
265.46	2383.84
265.68	2875.35
265.89	2777.05
266.11	2379.74
266.33	2506.71
266.54	2852.82
266.76	2807.77
266.98	2574.30
267.19	2699.22
267.41	2861.01
267.62	2744.28
267.84	2349.02
268.06	2635.74
268.27	2697.17
268.49	2926.55
268.70	2637.78
268.92	2545.63
269.14	2572.25
269.35	2527.19
269.57	2625.50
269.79	2619.35
270.00	2586.58
270.22	2891.73
270.43	2408.41
270.65	2336.73
270.87	2801.62
271.08	2828.24
271.30	2586.58
271.51	2500.57
271.73	2756.57
271.95	2957.27
272.16	2555.86
272.38	2639.83
272.59	2584.54
272.81	2877.40
273.02	2498.52
273.24	2572.25
273.46	2832.34
273.67	2572.25
273.89	2473.95
274.10	2480.09
274.32	2914.26
274.54	2713.56
274.75	2586.58
274.97	2658.26
275.18	2834.39
275.40	2867.16
275.61	2516.95
275.83	2676.70
276.05	2564.06
276.26	2734.04
276.48	2699.22
276.69	2678.74
276.91	2656.22
277.12	2949.08
277.34	2666.46
277.55	2760.66
277.77	2742.23
277.99	2723.80
278.20	2568.15
278.42	2482.14
278.63	2670.55
278.85	2613.21
279.06	2504.67
279.28	2672.60
279.49	2840.53
279.71	2756.57
279.93	2650.07
280.14	2639.83
280.36	2602.97
280.57	2791.38
280.79	2711.51
281.00	2551.77
281.22	2564.06
281.43	2807.77
281.65	2398.17
281.86	2529.24
282.08	2783.19
282.29	3014.61
282.51	2406.36
282.73	2484.19
282.94	2457.56
283.16	2908.12
283.37	2723.80
283.59	2654.17
283.80	2760.66
284.02	2711.51
284.23	2619.35
284.45	2643.93
284.66	2609.11
284.88	2602.97
285.09	2660.31
285.31	2650.07
285.52	2703.32
285.74	2475.99
285.95	2785.24
286.17	2637.78
286.38	2844.63
286.60	2637.78
286.81	2584.54
287.03	2609.11
287.24	2719.70
287.46	2824.15
287.67	2672.60
287.89	2828.24
288.10	2645.98
288.32	2783.19
288.53	2715.61
288.75	2635.74
288.96	2854.87
289.18	2625.50
289.39	2441.18
289.61	2641.88
289.82	3022.80
290.04	2959.31
290.25	2496.47
290.47	2666.46
290.68	2619.35
290.90	2805.72
291.11	2404.32
291.33	2688.98
291.54	2619.35
291.76	2633.69
291.97	2701.27
292.18	2652.12
292.40	2672.60
292.61	2641.88
292.83	2891.73
293.04	2668.50
293.26	2752.47
293.47	2652.12
293.69	2598.87
293.90	2602.97
294.12	2897.88
294.33	2680.79
294.55	2666.46
294.76	2815.96
294.97	2930.64
295.19	3061.71
295.40	2570.20
295.62	2629.59
295.83	2842.58
296.05	2611.16
296.26	2824.15
296.48	2590.68
296.69	2660.31
296.90	2678.74
297.12	2703.32
297.33	2662.36
297.55	2832.34
297.76	2834.39
297.98	2701.27
298.19	2754.52
298.41	2695.13
298.62	2625.50
298.83	2787.29
299.05	2633.69
299.26	2662.36
299.48	2627.54
299.69	2691.03
299.90	2553.82
300.12	2553.82
300.33	2805.72
300.55	2645.98
300.76	2699.22
300.98	2594.78
301.19	2744.28
301.40	2586.58
301.62	2521.05
301.83	2754.52
302.05	2789.33
302.26	2643.93
302.47	2602.97
302.69	2512.86
302.90	2764.76
303.12	2443.23
303.33	2691.03
303.54	2965.46
303.76	2639.83
303.97	2619.35
304.19	2791.38
304.40	2549.72
304.61	2770.90
304.83	2820.05
305.04	2746.33
305.26	2801.62
305.47	2672.60
305.68	2605.02
305.90	2502.62
306.11	2914.26
306.33	2664.41
306.54	2494.43
306.75	2572.25
306.97	2469.85
307.18	2557.91
307.39	2607.06
307.61	2602.97
307.82	2703.32
308.04	2740.18
308.25	2482.14
308.46	2686.94
308.68	2781.14
308.89	2740.18
309.10	2772.95
309.32	2631.64
309.53	2736.09
309.74	2826.20
309.96	2521.05
310.17	2746.33
310.39	2613.21
310.60	2842.58
310.81	2629.59
311.03	2537.43
311.24	2820.05
311.45	2727.89
311.67	2783.19
311.88	2717.65
312.09	2684.89
312.31	2680.79
312.52	2492.38
312.73	2553.82
312.95	2510.81
313.16	2572.25
313.37	2789.33
313.59	2738.13
313.80	2840.53
314.01	2840.53
314.23	2547.67
314.44	2605.02
314.65	2582.49
314.87	2639.83
315.08	2588.63
315.29	2615.26
315.51	2633.69
315.72	2529.24
315.93	2725.85
316.15	2674.65
316.36	2609.11
316.57	2779.09
316.79	2717.65
317.00	2574.30
317.21	2777.05
317.43	2631.64
317.64	2641.88
317.85	2492.38
318.07	2631.64
318.28	2715.61
318.49	2760.66
318.70	2842.58
318.92	2830.29
319.13	2826.20
319.34	2838.48
319.56	2674.65
319.77	2742.23
319.98	2824.15
320.20	2756.57
320.41	2707.41
320.62	2791.38
320.83	2523.10
321.05	2838.48
321.26	2684.89
321.47	2645.98
321.69	2836.44
321.90	2553.82
322.11	2641.88
322.32	2815.96
322.54	3020.75
322.75	2525.15
322.96	3307.47
323.18	2469.85
323.39	2463.71
323.60	2488.28
323.81	2654.17
324.03	2643.93
324.24	2705.37
324.45	2721.75
324.66	2580.44
324.88	2916.31
325.09	2930.64
325.30	2645.98
325.52	2631.64
325.73	2797.53
325.94	2582.49
326.15	2480.09
326.37	2508.76
326.58	2965.46
326.79	3010.51
327.00	2590.68
327.22	2602.97
327.43	2678.74
327.64	2658.26
327.85	2699.22
328.07	2576.34
328.28	3061.71
328.49	2672.60
328.70	2643.93
328.92	2605.02
329.13	2650.07
329.34	2777.05
329.55	2842.58
329.76	2709.46
329.98	2703.32
330.19	2875.35
330.40	2627.54
330.61	2652.12
330.83	2834.39
331.04	2629.59
331.25	2691.03
331.46	2709.46
331.68	2602.97
331.89	2824.15
332.10	2625.50
332.31	2494.43
332.52	2756.57
332.74	2877.40
332.95	2490.33
333.16	2566.10
333.37	2852.82
333.58	2699.22
333.80	2586.58
334.01	2430.94
334.22	2615.26
334.43	2562.01
334.64	2637.78
334.86	2480.09
335.07	2625.50
335.28	3043.28
335.49	2455.51
335.70	2633.69
335.92	2889.68
336.13	3047.38
336.34	2635.74
336.55	2672.60
336.76	2766.81
336.98	2430.94
337.19	2611.16
337.40	2795.48
337.61	3106.77
337.82	2641.88
338.04	2686.94
338.25	2482.14
338.46	2643.93
338.67	2598.87
338.88	2537.43
339.09	2529.24
339.31	2615.26
339.52	2557.91
339.73	2523.10
339.94	2617.30
340.15	2801.62
340.36	2672.60
340.58	2625.50
340.79	2492.38
341.00	2834.39
341.21	2504.67
341.42	2844.63
341.63	2566.10
341.85	2891.73
342.06	2760.66
342.27	2508.76
342.48	2731.99
342.69	2555.86
342.90	2756.57
343.12	2772.95
343.33	2580.44
343.54	2803.67
343.75	2930.64
343.96	2629.59
344.17	2562.01
344.38	2719.70
344.60	2504.67
344.81	2549.72
345.02	2619.35
345.23	2822.10
345.44	3139.54
345.65	2691.03
345.86	2641.88
346.07	2717.65
346.29	2568.15
346.50	2691.03
346.71	2670.55
346.92	2867.16
347.13	3071.95
347.34	2637.78
347.55	2514.91
347.76	2863.06
347.98	2537.43
348.19	2580.44
348.40	2787.29
348.61	2594.78
348.82	2985.94
349.03	2723.80
349.24	2592.73
349.45	2934.74
349.66	2449.37
349.88	2650.07
350.09	2531.29
350.30	2901.97
350.51	2836.44
350.72	2703.32
350.93	2592.73
351.14	2678.74
351.35	2809.81
351.56	2699.22
351.77	2602.97
351.99	2848.72
352.20	2889.68
352.41	2752.47
352.62	2465.75
352.83	2752.47
353.04	2775.00
353.25	2525.15
353.46	2686.94
353.67	2850.77
353.88	2414.56
354.09	2592.73
354.30	2625.50
354.52	2744.28
354.73	2748.37
354.94	2611.16
355.15	2668.50
355.36	2983.89
355.57	2674.65
355.78	2557.91
355.99	2594.78
356.20	2723.80
356.41	2815.96
356.62	2658.26
356.83	2602.97
357.04	2850.77
357.25	2424.80
357.46	2684.89
357.68	2420.70
357.89	2629.59
358.10	2662.36
358.31	2531.29
358.52	2654.17
358.73	2598.87
358.94	2510.81
359.15	2498.52
359.36	2639.83
359.57	2707.41
359.78	2670.55
359.99	2738.13
360.20	2467.80
360.41	2766.81
360.62	2830.29
360.83	2668.50
361.04	2664.41
361.25	2879.44
361.46	2957.27
361.67	2740.18
361.88	2621.40
362.09	2881.49
362.30	2711.51
362.51	2607.06
362.72	2654.17
362.93	2791.38
363.14	2768.85
363.35	2686.94
363.56	2564.06
363.78	2891.73
363.99	2785.24
364.20	2607.06
364.41	2672.60
364.62	2969.55
364.83	2746.33
365.04	2625.50
365.25	2725.85
365.46	3106.77
365.67	2596.82
365.88	2658.26
366.09	2607.06
366.30	2639.83
366.51	2715.61
366.72	2490.33
366.93	2611.16
367.14	2793.43
367.35	2891.73
367.56	2590.68
367.77	2674.65
367.98	2744.28
368.18	2775.00
368.39	2703.32
368.60	2553.82
368.81	2818.00
369.02	2787.29
369.23	2693.08
369.44	2451.42
369.65	2666.46
369.86	2748.37
370.07	2740.18
370.28	2555.86
370.49	2777.05
370.70	2789.33
370.91	2602.97
371.12	2447.32
371.33	2899.92
371.54	2613.21
371.75	2760.66
371.96	2396.12
372.17	2826.20
372.38	2643.93
372.59	2639.83
372.80	2543.58
373.01	2676.70
373.22	2756.57
373.43	2617.30
373.64	2523.10
373.85	2959.31
374.06	2975.70
374.26	2768.85
374.47	2760.66
374.68	2971.60
374.89	2746.33
375.10	2555.86
375.31	2633.69
375.52	2727.89
375.73	2815.96
375.94	2529.24
376.15	2764.76
376.36	2645.98
376.57	2635.74
376.78	2609.11
376.99	2678.74
377.20	2858.96
377.40	2633.69
377.61	2908.12
377.82	2543.58
378.03	2842.58
378.24	2764.76
378.45	2580.44
378.66	2623.45
378.87	2478.04
379.08	2473.95
379.29	2629.59
379.50	2699.22
379.71	2715.61
379.91	2850.77
380.12	2629.59
380.33	2705.37
380.54	2701.27
380.75	2666.46
380.96	2592.73
381.17	2562.01
381.38	2715.61
381.59	2729.94
381.80	2686.94
382.00	2815.96
382.21	2772.95
382.42	2992.08
382.63	2914.26
382.84	2740.18
383.05	2856.92
383.26	2924.50
383.47	2590.68
383.68	2625.50
383.88	2809.81
384.09	2711.51
384.30	2818.00
384.51	2719.70
384.72	2664.41
384.93	2555.86
385.14	2693.08
385.35	2779.09
385.55	2553.82
385.76	2932.69
385.97	2611.16
386.18	2437.08
386.39	2637.78
386.60	2602.97
386.81	2637.78
387.02	2559.96
387.22	2516.95
387.43	2830.29
387.64	2731.99
387.85	2883.54
388.06	2725.85
388.27	3997.64
388.48	7479.18
388.68	10979.16
388.89	13422.39
389.10	14790.43
389.31	13977.39
389.52	10936.15
389.73	9410.42
389.93	8599.42
390.14	7853.96
390.35	7092.12
390.56	6406.05
390.77	5349.29
390.98	4083.65
391.18	3510.22
391.39	3207.12
391.60	2836.44
391.81	2852.82
392.02	2676.70
392.23	3078.10
392.43	2748.37
392.64	2731.99
392.85	2721.75
393.06	2979.79
393.27	2707.41
393.47	2537.43
393.68	2596.82
393.89	2703.32
394.10	2850.77
394.31	2619.35
394.52	2629.59
394.72	2598.87
394.93	2951.12
395.14	2605.02
395.35	2748.37
395.56	2621.40
395.76	2725.85
395.97	2652.12
396.18	2785.24
396.39	2754.52
396.60	3178.45
396.80	3030.99
397.01	2789.33
397.22	2957.27
397.43	2940.88
397.64	2576.34
397.84	2750.42
398.05	3065.81
398.26	2678.74
398.47	2760.66
398.67	2850.77
398.88	2738.13
399.09	2871.25
399.30	2570.20
399.51	2746.33
399.71	2652.12
399.92	2764.76
400.13	2785.24
400.34	2658.26
400.54	2701.27
400.75	3061.71
400.96	2598.87
401.17	2787.29
401.37	2863.06
401.58	2652.12
401.79	2652.12
402.00	2815.96
402.21	3096.53
402.41	2912.21
402.62	2936.79
402.83	3030.99
403.04	3067.86
403.24	3338.19
403.45	2750.42
403.66	2899.92
403.87	2922.45
404.07	2858.96
404.28	2914.26
404.49	2838.48
404.70	2766.81
404.90	2906.07
405.11	2686.94
405.32	2770.90
405.52	2645.98
405.73	2553.82
405.94	2564.06
406.15	2727.89
406.35	2873.30
406.56	2752.47
406.77	2672.60
406.98	2684.89
407.18	2645.98
407.39	2922.45
407.60	2590.68
407.80	2744.28
408.01	2670.55
408.22	2717.65
408.43	2584.54
408.63	2664.41
408.84	2867.16
409.05	2805.72
409.25	2521.05
409.46	2580.44
409.67	2676.70
409.88	2574.30
410.08	2666.46
410.29	2549.72
410.50	2863.06
410.70	2815.96
410.91	2555.86
411.12	2746.33
411.32	2721.75
411.53	2523.10
411.74	2703.32
411.95	2746.33
412.15	2744.28
412.36	2744.28
412.57	2793.43
412.77	2766.81
412.98	2701.27
413.19	2627.54
413.39	2701.27
413.60	2678.74
413.81	2914.26
414.01	2590.68
414.22	2588.63
414.43	2801.62
414.63	2652.12
414.84	2850.77
415.05	2600.92
415.25	2412.51
415.46	2897.88
415.67	2633.69
415.87	2643.93
416.08	2605.02
416.29	2701.27
416.49	2858.96
416.70	2547.67
416.91	2588.63
417.11	2592.73
417.32	2887.64
417.53	2756.57
417.73	2727.89
417.94	2688.98
418.15	2656.22
418.35	2592.73
418.56	2637.78
418.77	3028.95
418.97	2734.04
419.18	2590.68
419.38	2392.03
419.59	2748.37
419.80	2916.31
420.00	2637.78
420.21	2711.51
420.42	2846.68
420.62	2754.52
420.83	2605.02
421.04	2592.73
421.24	2666.46
421.45	2840.53
421.65	2686.94
421.86	2676.70
422.07	2908.12
422.27	2789.33
422.48	2621.40
422.69	2519.00
422.89	2701.27
423.10	2703.32
423.30	2574.30
423.51	2625.50
423.72	2785.24
423.92	2848.72
424.13	2510.81
424.33	2699.22
424.54	2799.57
424.75	2736.09
424.95	2858.96
425.16	2619.35
425.36	2703.32
425.57	2809.81
425.78	2703.32
425.98	2822.10
426.19	2662.36
426.39	2602.97
426.60	2676.70
426.81	2768.85
427.01	2760.66
427.22	2590.68
427.42	2525.15
427.63	2525.15
427.83	2826.20
428.04	2961.36
428.25	2756.57
428.45	2770.90
428.66	2908.12
428.86	2691.03
429.07	2600.92
429.28	2703.32
429.48	2711.51
429.69	2641.88
429.89	2650.07
430.10	2510.81
430.30	2799.57
430.51	2885.59
430.71	2566.10
430.92	2680.79
431.13	2652.12
431.33	2813.91
431.54	2672.60
431.74	2793.43
431.95	3035.09
432.15	2600.92
432.36	2654.17
432.56	2695.13
432.77	2955.22
432.98	2940.88
433.18	2717.65
433.39	2557.91
433.59	2686.94
433.80	3069.91
434.00	2895.83
434.21	2629.59
434.41	2562.01
434.62	3102.67
434.82	2506.71
435.03	2570.20
435.23	2766.81
435.44	2496.47
435.64	2678.74
435.85	2639.83
436.06	2842.58
436.26	2953.17
436.47	2588.63
436.67	2678.74
436.88	2672.60
437.08	2908.12
437.29	2789.33
437.49	2762.71
437.70	2955.22
437.90	2686.94
438.11	2856.92
438.31	2738.13
438.52	2928.60
438.72	2967.51
438.93	2957.27
439.13	2699.22
439.34	2904.02
439.54	2727.89
439.75	2789.33
439.95	2768.85
440.16	2586.58
440.36	2762.71
440.57	2688.98
440.77	2674.65
440.98	2793.43
441.18	2736.09
441.39	2588.63
441.59	2506.71
441.80	3071.95
442.00	2791.38
442.21	2740.18
442.41	2490.33
442.62	2881.49
442.82	2643.93
443.02	2627.54
443.23	2719.70
443.43	2723.80
443.64	2942.93
443.84	2617.30
444.05	2805.72
444.25	2766.81
444.46	2682.84
444.66	2605.02
444.87	2867.16
445.07	2525.15
445.28	2746.33
445.48	2746.33
445.69	2762.71
445.89	3020.75
446.09	2734.04
446.30	2938.84
446.50	3117.01
446.71	4577.21
446.91	5603.24
447.12	6516.64
447.32	6995.86
447.53	6590.36
447.73	5513.13
447.93	4806.58
448.14	4554.68
448.34	4591.55
448.55	3844.04
448.75	3841.99
448.96	3653.58
449.16	3405.77
449.36	3262.41
449.57	2895.83
449.77	2723.80
449.98	2627.54
450.18	2777.05
450.39	2680.79
450.59	2818.00
450.79	2719.70
451.00	2592.73
451.20	2840.53
451.41	2719.70
451.61	2801.62
451.81	2693.08
452.02	2648.02
452.22	2777.05
452.43	2559.96
452.63	2637.78
