SpectraSuite Data File
++++++++++++++++++++++++++++++++++++
Date: Thu May 05 16:20:28 CEST 2016
User: root
Dark Spectrum Present: No
Reference Spectrum Present: No
Number of Sampled Component Spectra: 1
Spectrometers: USB4C02835
Integration Time (usec): 100000 (USB4C02835)
Spectra Averaged: 1 (USB4C02835)
Boxcar Smoothing: 0 (USB4C02835)
Correct for Electrical Dark: No (USB4C02835)
Strobe/Lamp Enabled: No (USB4C02835)
Correct for Detector Non-linearity: No (USB4C02835)
Correct for Stray Light: No (USB4C02835)
Number of Pixels in Processed Spectrum: 3648
>>>>>Begin Processed Spectral Data<<<<<
177.47	2035.68
177.69	2035.68
177.91	2035.68
178.13	2031.58
178.36	1994.72
178.58	2564.06
178.80	2703.32
179.02	2439.13
179.24	2529.24
179.46	2488.28
179.68	2510.81
179.90	2695.13
180.13	2709.46
180.35	2422.75
180.57	2459.61
180.79	2768.85
181.01	2750.42
181.23	2549.72
181.45	2572.25
181.67	2865.11
181.90	2826.20
182.12	2576.34
182.34	2385.88
182.56	2775.00
182.78	2766.81
183.00	2531.29
183.22	2551.77
183.44	2551.77
183.66	3051.47
183.89	2680.79
184.11	2506.71
184.33	2836.44
184.55	2856.92
184.77	2496.47
184.99	2559.96
185.21	2676.70
185.43	3063.76
185.65	2482.14
185.87	2484.19
186.10	3168.21
186.32	3137.49
186.54	2576.34
186.76	2576.34
186.98	2840.53
187.20	2688.98
187.42	2494.43
187.64	2480.09
187.86	2760.66
188.08	2873.30
188.30	2420.70
188.52	2529.24
188.75	2867.16
188.97	2858.96
189.19	2529.24
189.41	2457.56
189.63	2777.05
189.85	2619.35
190.07	2361.31
190.29	2404.32
190.51	2766.81
190.73	2475.99
190.95	2666.46
191.17	2506.71
191.39	2519.00
191.61	2713.56
191.84	2549.72
192.06	2541.53
192.28	2455.51
192.50	3227.60
192.72	2582.49
192.94	2598.87
193.16	2861.01
193.38	2727.89
193.60	2439.13
193.82	2564.06
194.04	2949.08
194.26	2770.90
194.48	2519.00
194.70	2469.85
194.92	2643.93
195.14	2731.99
195.36	2461.66
195.58	2541.53
195.80	2590.68
196.02	2639.83
196.24	2449.37
196.46	2551.77
196.69	2617.30
196.91	3117.01
197.13	2469.85
197.35	2519.00
197.57	2983.89
197.79	2850.77
198.01	2553.82
198.23	2478.04
198.45	2748.37
198.67	2650.07
198.89	2459.61
199.11	2639.83
199.33	2648.02
199.55	2414.56
199.77	2453.47
199.99	2576.34
200.21	2633.69
200.43	2787.29
200.65	2338.78
200.87	2375.64
201.09	2723.80
201.31	2623.45
201.53	2549.72
201.75	2559.96
201.97	2766.81
202.19	2658.26
202.41	2525.15
202.63	2688.98
202.85	2725.85
203.07	2848.72
203.29	2547.67
203.51	2439.13
203.73	2543.58
203.95	3157.97
204.17	2488.28
204.39	2625.50
204.61	2684.89
204.83	2715.61
205.05	2695.13
205.27	2496.47
205.49	3102.67
205.71	2764.76
205.93	2439.13
206.15	2453.47
206.37	2791.38
206.59	2691.03
206.81	2349.02
207.03	2443.23
207.25	2584.54
207.47	2842.58
207.69	2566.10
207.91	2682.84
208.13	2930.64
208.34	2684.89
208.56	2488.28
208.78	2506.71
209.00	2582.49
209.22	2609.11
209.44	2478.04
209.66	2488.28
209.88	2731.99
210.10	2645.98
210.32	2473.95
210.54	2613.21
210.76	2699.22
210.98	2846.68
211.20	2420.70
211.42	2619.35
211.64	2883.54
211.86	2793.43
212.08	2578.39
212.30	2498.52
212.52	2656.22
212.74	2770.90
212.96	2578.39
213.17	2629.59
213.39	2805.72
213.61	3000.27
213.83	2533.34
214.05	2320.35
214.27	2856.92
214.49	2572.25
214.71	2473.95
214.93	2643.93
215.15	2736.09
215.37	2791.38
215.59	2492.38
215.81	2512.86
216.03	2932.69
216.24	2746.33
216.46	2500.57
216.68	2568.15
216.90	2867.16
217.12	2883.54
217.34	2463.71
217.56	2600.92
217.78	2953.17
218.00	2793.43
218.22	2535.39
218.44	2555.86
218.66	2775.00
218.87	2932.69
219.09	2516.95
219.31	2475.99
219.53	2799.57
219.75	2600.92
219.97	2549.72
220.19	2478.04
220.41	2678.74
220.63	3018.71
220.85	2490.33
221.06	2545.63
221.28	2918.36
221.50	2807.77
221.72	2420.70
221.94	2398.17
222.16	2717.65
222.38	2920.40
222.60	2475.99
222.82	2574.30
223.03	2861.01
223.25	2596.82
223.47	2555.86
223.69	2791.38
223.91	2844.63
224.13	2752.47
224.35	2441.18
224.57	2731.99
224.78	2729.94
225.00	2566.10
225.22	2582.49
225.44	2461.66
225.66	2818.00
225.88	2623.45
226.10	2527.19
226.32	2543.58
226.53	2938.84
226.75	2641.88
226.97	2559.96
227.19	2580.44
227.41	2658.26
227.63	2582.49
227.85	2381.79
228.06	2527.19
228.28	2662.36
228.50	2875.35
228.72	2457.56
228.94	2539.48
229.16	2465.75
229.37	2574.30
229.59	2416.60
229.81	2801.62
230.03	2633.69
230.25	2541.53
230.47	2396.12
230.69	2502.62
230.90	2789.33
231.12	2697.17
231.34	2559.96
231.56	2549.72
231.78	2463.71
232.00	2809.81
232.21	2533.34
232.43	2486.23
232.65	2381.79
232.87	2785.24
233.09	2387.93
233.30	2533.34
233.52	2858.96
233.74	2740.18
233.96	2500.57
234.18	2611.16
234.40	2715.61
234.61	3131.34
234.83	2392.03
235.05	2445.27
235.27	3088.34
235.49	2867.16
235.70	2445.27
235.92	2666.46
236.14	2832.34
236.36	3108.82
236.58	2334.68
236.79	2594.78
237.01	2684.89
237.23	2600.92
237.45	2709.46
237.67	2541.53
237.88	2709.46
238.10	3061.71
238.32	2455.51
238.54	2510.81
238.76	2654.17
238.97	2605.02
239.19	2506.71
239.41	2504.67
239.63	2881.49
239.85	2777.05
240.06	2463.71
240.28	2551.77
240.50	2867.16
240.72	2729.94
240.93	2457.56
241.15	2615.26
241.37	2731.99
241.59	2916.31
241.81	2478.04
242.02	2600.92
242.24	2772.95
242.46	2867.16
242.68	2402.27
242.89	2551.77
243.11	2863.06
243.33	2725.85
243.55	2551.77
243.76	2557.91
243.98	2572.25
244.20	2635.74
244.42	2553.82
244.64	2580.44
244.85	2504.67
245.07	2711.51
245.29	2621.40
245.51	2527.19
245.72	2807.77
245.94	2867.16
246.16	2424.80
246.38	2580.44
246.59	2678.74
246.81	2645.98
247.03	2437.08
247.24	2379.74
247.46	2707.41
247.68	2713.56
247.90	2381.79
248.11	2484.19
248.33	2891.73
248.55	2744.28
248.77	2590.68
248.98	2641.88
249.20	2949.08
249.42	2668.50
249.64	2506.71
249.85	2535.39
250.07	2660.31
250.29	2789.33
250.50	2555.86
250.72	2439.13
250.94	2746.33
251.16	3125.20
251.37	2512.86
251.59	2582.49
251.81	2910.16
252.02	2904.02
252.24	2402.27
252.46	2623.45
252.68	2594.78
252.89	2654.17
253.11	2414.56
253.33	2660.31
253.54	2942.93
253.76	2514.91
253.98	2494.43
254.20	2519.00
254.41	2531.29
254.63	2652.12
254.85	2426.84
255.06	2578.39
255.28	2785.24
255.50	2705.37
255.71	2439.13
255.93	2432.99
256.15	2635.74
256.36	2746.33
256.58	2355.16
256.80	2504.67
257.02	2678.74
257.23	2654.17
257.45	2547.67
257.67	2629.59
257.88	2641.88
258.10	2793.43
258.32	2551.77
258.53	2635.74
258.75	2996.18
258.97	2611.16
259.18	2508.76
259.40	2496.47
259.62	2930.64
259.83	2938.84
260.05	2488.28
260.27	3182.54
260.48	2842.58
260.70	2484.19
260.92	2402.27
261.13	2523.10
261.35	2838.48
261.57	2842.58
261.78	2432.99
262.00	2453.47
262.22	2750.42
262.43	2633.69
262.65	2621.40
262.86	2564.06
263.08	3080.14
263.30	2680.79
263.51	2318.30
263.73	2473.95
263.95	2944.98
264.16	2598.87
264.38	2461.66
264.60	2492.38
264.81	2723.80
265.03	2787.29
265.25	2783.19
265.46	2389.98
265.68	2947.03
265.89	2865.11
266.11	2414.56
266.33	2578.39
266.54	2893.78
266.76	2791.38
266.98	2592.73
267.19	2721.75
267.41	2899.92
267.62	2668.50
267.84	2369.50
268.06	2549.72
268.27	2731.99
268.49	2856.92
268.70	2594.78
268.92	2564.06
269.14	2605.02
269.35	2441.18
269.57	2539.48
269.79	2564.06
270.00	2621.40
270.22	2938.84
270.43	2482.14
270.65	2422.75
270.87	2750.42
271.08	2742.23
271.30	2611.16
271.51	2566.10
271.73	2809.81
271.95	2987.99
272.16	2490.33
272.38	2629.59
272.59	2680.79
272.81	2785.24
273.02	2478.04
273.24	2570.20
273.46	2818.00
273.67	2490.33
273.89	2355.16
274.10	2508.76
274.32	2879.44
274.54	2754.52
274.75	2523.10
274.97	2570.20
275.18	2809.81
275.40	2764.76
275.61	2555.86
275.83	2666.46
276.05	2486.23
276.26	2742.23
276.48	2602.97
276.69	2531.29
276.91	2584.54
277.12	2973.65
277.34	2609.11
277.55	2772.95
277.77	2750.42
277.99	2557.91
278.20	2514.91
278.42	2514.91
278.63	2605.02
278.85	2555.86
279.06	2455.51
279.28	2674.65
279.49	2897.88
279.71	2822.10
279.93	2691.03
280.14	2686.94
280.36	2535.39
280.57	2865.11
280.79	2652.12
281.00	2586.58
281.22	2623.45
281.43	2885.59
281.65	2371.55
281.86	2527.19
282.08	2684.89
282.29	3045.33
282.51	2432.99
282.73	2545.63
282.94	2484.19
283.16	2848.72
283.37	2754.52
283.59	2605.02
283.80	2881.49
284.02	2686.94
284.23	2664.41
284.45	2619.35
284.66	2564.06
284.88	2621.40
285.09	2602.97
285.31	2635.74
285.52	2746.33
285.74	2500.57
285.95	2807.77
286.17	2623.45
286.38	2920.40
286.60	2588.63
286.81	2600.92
287.03	2570.20
287.24	2682.84
287.46	2779.09
287.67	2654.17
287.89	2828.24
288.10	2580.44
288.32	2715.61
288.53	2789.33
288.75	2621.40
288.96	2826.20
289.18	2682.84
289.39	2566.10
289.61	2693.08
289.82	3026.90
290.04	2996.18
290.25	2498.52
290.47	2668.50
290.68	2633.69
290.90	2797.53
291.11	2389.98
291.33	2756.57
291.54	2656.22
291.76	2627.54
291.97	2588.63
292.18	2625.50
292.40	2639.83
292.61	2635.74
292.83	2920.40
293.04	2707.41
293.26	2783.19
293.47	2699.22
293.69	2523.10
293.90	2465.75
294.12	2930.64
294.33	2660.31
294.55	2578.39
294.76	2740.18
294.97	2987.99
295.19	2985.94
295.40	2582.49
295.62	2719.70
295.83	2842.58
296.05	2648.02
296.26	2760.66
296.48	2549.72
296.69	2746.33
296.90	2711.51
297.12	2725.85
297.33	2801.62
297.55	2715.61
297.76	2815.96
297.98	2684.89
298.19	2768.85
298.41	2787.29
298.62	2668.50
298.83	2777.05
299.05	2717.65
299.26	2717.65
299.48	2559.96
299.69	2670.55
299.90	2627.54
300.12	2674.65
300.33	2811.86
300.55	2582.49
300.76	2643.93
300.98	2559.96
301.19	2867.16
301.40	2580.44
301.62	2574.30
301.83	2713.56
302.05	2693.08
302.26	2609.11
302.47	2764.76
302.69	2584.54
302.90	2803.67
303.12	2379.74
303.33	2682.84
303.54	3045.33
303.76	2631.64
303.97	2639.83
304.19	2875.35
304.40	2670.55
304.61	2748.37
304.83	2740.18
305.04	2723.80
305.26	2731.99
305.47	2676.70
305.68	2598.87
305.90	2519.00
306.11	2856.92
306.33	2674.65
306.54	2469.85
306.75	2588.63
306.97	2500.57
307.18	2625.50
307.39	2572.25
307.61	2770.90
307.82	2707.41
308.04	2805.72
308.25	2521.05
308.46	2709.46
308.68	2707.41
308.89	2668.50
309.10	2738.13
309.32	2682.84
309.53	2777.05
309.74	2842.58
309.96	2502.62
310.17	2633.69
310.39	2723.80
310.60	2871.25
310.81	2619.35
311.03	2580.44
311.24	2770.90
311.45	2748.37
311.67	2842.58
311.88	2662.36
312.09	2627.54
312.31	2695.13
312.52	2535.39
312.73	2625.50
312.95	2521.05
313.16	2637.78
313.37	2766.81
313.59	2723.80
313.80	2834.39
314.01	2983.89
314.23	2564.06
314.44	2559.96
314.65	2529.24
314.87	2639.83
315.08	2582.49
315.29	2600.92
315.51	2547.67
315.72	2529.24
315.93	2748.37
316.15	2697.17
316.36	2594.78
316.57	2719.70
316.79	2631.64
317.00	2592.73
317.21	2777.05
317.43	2559.96
317.64	2721.75
317.85	2576.34
318.07	2564.06
318.28	2713.56
318.49	2748.37
318.70	2875.35
318.92	2863.06
319.13	2865.11
319.34	2809.81
319.56	2658.26
319.77	2818.00
319.98	2883.54
320.20	2783.19
320.41	2715.61
320.62	2791.38
320.83	2596.82
321.05	2850.77
321.26	2670.55
321.47	2764.76
321.69	2869.20
321.90	2478.04
322.11	2582.49
322.32	2783.19
322.54	2910.16
322.75	2660.31
322.96	3231.69
323.18	2512.86
323.39	2406.36
323.60	2582.49
323.81	2688.98
324.03	2609.11
324.24	2723.80
324.45	2748.37
324.66	2650.07
324.88	2807.77
325.09	2998.23
325.30	2619.35
325.52	2566.10
325.73	2811.86
325.94	2473.95
326.15	2459.61
326.37	2459.61
326.58	2826.20
326.79	2973.65
327.00	2514.91
327.22	2607.06
327.43	2635.74
327.64	2637.78
327.85	2707.41
328.07	2707.41
328.28	2990.03
328.49	2615.26
328.70	2621.40
328.92	2576.34
329.13	2760.66
329.34	2791.38
329.55	2775.00
329.76	2736.09
329.98	2717.65
330.19	2951.12
330.40	2668.50
330.61	2654.17
330.83	2863.06
331.04	2519.00
331.25	2609.11
331.46	2602.97
331.68	2586.58
331.89	2883.54
332.10	2621.40
332.31	2482.14
332.52	2758.61
332.74	2875.35
332.95	2529.24
333.16	2641.88
333.37	2822.10
333.58	2631.64
333.80	2637.78
334.01	2426.84
334.22	2658.26
334.43	2664.41
334.64	2559.96
334.86	2615.26
335.07	2580.44
335.28	2949.08
335.49	2529.24
335.70	2719.70
335.92	2871.25
336.13	3041.23
336.34	2691.03
336.55	2658.26
336.76	2822.10
336.98	2463.71
337.19	2598.87
337.40	2729.94
337.61	2994.13
337.82	2662.36
338.04	2668.50
338.25	2441.18
338.46	2582.49
338.67	2666.46
338.88	2539.48
339.09	2449.37
339.31	2676.70
339.52	2553.82
339.73	2602.97
339.94	2682.84
340.15	2797.53
340.36	2686.94
340.58	2727.89
340.79	2545.63
341.00	2783.19
341.21	2566.10
341.42	2809.81
341.63	2639.83
341.85	2887.64
342.06	2746.33
342.27	2551.77
342.48	2787.29
342.69	2428.89
342.90	2748.37
343.12	2826.20
343.33	2465.75
343.54	2883.54
343.75	2924.50
343.96	2658.26
344.17	2598.87
344.38	2760.66
344.60	2621.40
344.81	2519.00
345.02	2609.11
345.23	2891.73
345.44	2998.23
345.65	2682.84
345.86	2693.08
346.07	2772.95
346.29	2617.30
346.50	2734.04
346.71	2656.22
346.92	2906.07
347.13	3059.67
347.34	2664.41
347.55	2506.71
347.76	2840.53
347.98	2441.18
348.19	2633.69
348.40	2822.10
348.61	2643.93
348.82	2914.26
349.03	2699.22
349.24	2557.91
349.45	3088.34
349.66	2461.66
349.88	2602.97
350.09	2512.86
350.30	2996.18
350.51	2897.88
350.72	2750.42
350.93	2596.82
351.14	2627.54
351.35	2756.57
351.56	2584.54
351.77	2643.93
351.99	2738.13
352.20	2922.45
352.41	2709.46
352.62	2457.56
352.83	2664.41
353.04	2707.41
353.25	2607.06
353.46	2719.70
353.67	2904.02
353.88	2455.51
354.09	2586.58
354.30	2695.13
354.52	2783.19
354.73	2744.28
354.94	2553.82
355.15	2602.97
355.36	2940.88
355.57	2607.06
355.78	2576.34
355.99	2504.67
356.20	2713.56
356.41	2914.26
356.62	2582.49
356.83	2650.07
357.04	2934.74
357.25	2484.19
357.46	2541.53
357.68	2471.90
357.89	2568.15
358.10	2742.23
358.31	2605.02
358.52	2617.30
358.73	2555.86
358.94	2602.97
359.15	2596.82
359.36	2629.59
359.57	2711.51
359.78	2678.74
359.99	2709.46
360.20	2562.01
360.41	2674.65
360.62	2820.05
360.83	2576.34
361.04	2672.60
361.25	2777.05
361.46	2963.41
361.67	2805.72
361.88	2637.78
362.09	2901.97
362.30	2785.24
362.51	2521.05
362.72	2691.03
362.93	2797.53
363.14	2779.09
363.35	2678.74
363.56	2617.30
363.78	2856.92
363.99	2842.58
364.20	2621.40
364.41	2676.70
364.62	2924.50
364.83	2693.08
365.04	2617.30
365.25	2713.56
365.46	2949.08
365.67	2600.92
365.88	2719.70
366.09	2633.69
366.30	2674.65
366.51	2701.27
366.72	2535.39
366.93	2512.86
367.14	2785.24
367.35	2932.69
367.56	2580.44
367.77	2791.38
367.98	2785.24
368.18	2822.10
368.39	2703.32
368.60	2588.63
368.81	2820.05
369.02	2818.00
369.23	2643.93
369.44	2492.38
369.65	2639.83
369.86	2742.23
370.07	2688.98
370.28	2521.05
370.49	2818.00
370.70	2742.23
370.91	2545.63
371.12	2461.66
371.33	2863.06
371.54	2613.21
371.75	2731.99
371.96	2385.88
372.17	2734.04
372.38	2729.94
372.59	2652.12
372.80	2562.01
373.01	2688.98
373.22	2693.08
373.43	2627.54
373.64	2455.51
373.85	2899.92
374.06	2922.45
374.26	2678.74
374.47	2740.18
374.68	2926.55
374.89	2772.95
375.10	2551.77
375.31	2715.61
375.52	2707.41
375.73	2721.75
375.94	2500.57
376.15	2758.61
376.36	2609.11
376.57	2600.92
376.78	2592.73
376.99	2744.28
377.20	2889.68
377.40	2676.70
377.61	2895.83
377.82	2566.10
378.03	2897.88
378.24	2752.47
378.45	2678.74
378.66	2639.83
378.87	2547.67
379.08	2553.82
379.29	2555.86
379.50	2703.32
379.71	2764.76
379.91	2871.25
380.12	2619.35
380.33	2645.98
380.54	2713.56
380.75	2686.94
380.96	2590.68
381.17	2727.89
381.38	2703.32
381.59	2797.53
381.80	2691.03
382.00	2881.49
382.21	2725.85
382.42	2912.21
382.63	2875.35
382.84	2650.07
383.05	2867.16
383.26	2994.13
383.47	2711.51
383.68	2572.25
383.88	2805.72
384.09	2744.28
384.30	2873.30
384.51	2621.40
384.72	2654.17
384.93	2549.72
385.14	2660.31
385.35	2820.05
385.55	2527.19
385.76	2959.31
385.97	2668.50
386.18	2547.67
386.39	2615.26
386.60	2695.13
386.81	2605.02
387.02	2570.20
387.22	2494.43
387.43	2822.10
387.64	2734.04
387.85	2813.91
388.06	2818.00
388.27	3925.96
388.48	7614.35
388.68	10823.51
388.89	13481.78
389.10	14505.76
389.31	13893.42
389.52	10778.46
389.73	9383.79
389.93	8619.90
390.14	7905.16
390.35	7085.97
390.56	6360.99
390.77	5263.28
390.98	4046.79
391.18	3399.63
391.39	3198.93
391.60	2858.96
391.81	2840.53
392.02	2596.82
392.23	3055.57
392.43	2752.47
392.64	2775.00
392.85	2635.74
393.06	2904.02
393.27	2705.37
393.47	2600.92
393.68	2676.70
393.89	2707.41
394.10	2856.92
394.31	2609.11
394.52	2666.46
394.72	2648.02
394.93	2963.41
395.14	2539.48
395.35	2691.03
395.56	2641.88
395.76	2648.02
395.97	2686.94
396.18	2695.13
396.39	2766.81
396.60	3239.89
396.80	2938.84
397.01	2768.85
397.22	2871.25
397.43	2871.25
397.64	2592.73
397.84	2713.56
398.05	3018.71
398.26	2676.70
398.47	2768.85
398.67	2842.58
398.88	2764.76
399.09	2822.10
399.30	2574.30
399.51	2697.17
399.71	2555.86
399.92	2791.38
400.13	2658.26
400.34	2623.45
400.54	2734.04
400.75	2932.69
400.96	2731.99
401.17	2848.72
401.37	2863.06
401.58	2678.74
401.79	2611.16
402.00	2803.67
402.21	3082.19
402.41	2920.40
402.62	2873.30
402.83	3084.24
403.04	3078.10
403.24	3377.10
403.45	2719.70
403.66	2844.63
403.87	2936.79
404.07	3049.43
404.28	2869.20
404.49	2938.84
404.70	2807.77
404.90	2867.16
405.11	2654.17
405.32	2695.13
405.52	2652.12
405.73	2639.83
405.94	2527.19
406.15	2670.55
406.35	2818.00
406.56	2838.48
406.77	2662.36
406.98	2678.74
407.18	2588.63
407.39	2985.94
407.60	2686.94
407.80	2701.27
408.01	2744.28
408.22	2715.61
408.43	2600.92
408.63	2660.31
408.84	2856.92
409.05	2858.96
409.25	2570.20
409.46	2514.91
409.67	2615.26
409.88	2617.30
410.08	2633.69
410.29	2607.06
410.50	2809.81
410.70	2781.14
410.91	2551.77
411.12	2707.41
411.32	2758.61
411.53	2619.35
411.74	2672.60
411.95	2742.23
412.15	2740.18
412.36	2801.62
412.57	2691.03
412.77	2791.38
412.98	2674.65
413.19	2643.93
413.39	2691.03
413.60	2641.88
413.81	2852.82
414.01	2559.96
414.22	2746.33
414.43	2797.53
414.63	2701.27
414.84	2893.78
415.05	2650.07
415.25	2443.23
415.46	2746.33
415.67	2754.52
415.87	2662.36
416.08	2650.07
416.29	2697.17
416.49	2811.86
416.70	2621.40
416.91	2662.36
417.11	2762.71
417.32	2863.06
417.53	2826.20
417.73	2641.88
417.94	2697.17
418.15	2760.66
418.35	2783.19
418.56	2594.78
418.77	3108.82
418.97	2815.96
419.18	2791.38
419.38	2406.36
419.59	2717.65
419.80	2916.31
420.00	2508.76
420.21	2676.70
420.42	2897.88
420.62	2686.94
420.83	2623.45
421.04	2576.34
421.24	2709.46
421.45	2904.02
421.65	2729.94
421.86	2648.02
422.07	2856.92
422.27	2785.24
422.48	2635.74
422.69	2463.71
422.89	2748.37
423.10	2748.37
423.30	2557.91
423.51	2699.22
423.72	2775.00
423.92	2760.66
424.13	2514.91
424.33	2674.65
424.54	2752.47
424.75	2719.70
424.95	2899.92
425.16	2615.26
425.36	2707.41
425.57	2887.64
425.78	2811.86
425.98	2731.99
426.19	2678.74
426.39	2541.53
426.60	2725.85
426.81	2836.44
427.01	2777.05
427.22	2678.74
427.42	2461.66
427.63	2564.06
427.83	2822.10
428.04	2998.23
428.25	2756.57
428.45	2789.33
428.66	2938.84
428.86	2723.80
429.07	2668.50
429.28	2645.98
429.48	2613.21
429.69	2568.15
429.89	2775.00
430.10	2482.14
430.30	2916.31
430.51	2889.68
430.71	2502.62
430.92	2650.07
431.13	2613.21
431.33	2789.33
431.54	2670.55
431.74	2822.10
431.95	2998.23
432.15	2576.34
432.36	2695.13
432.56	2695.13
432.77	3051.47
432.98	3010.51
433.18	2731.99
433.39	2531.29
433.59	2670.55
433.80	2990.03
434.00	2865.11
434.21	2686.94
434.41	2650.07
434.62	3002.32
434.82	2564.06
435.03	2619.35
435.23	2789.33
435.44	2478.04
435.64	2602.97
435.85	2662.36
436.06	2803.67
436.26	2965.46
436.47	2660.31
436.67	2545.63
436.88	2613.21
437.08	2932.69
437.29	2854.87
437.49	2641.88
437.70	2920.40
437.90	2709.46
438.11	2967.51
438.31	2789.33
438.52	2990.03
438.72	2918.36
438.93	3006.42
439.13	2652.12
439.34	2906.07
439.54	2666.46
439.75	2695.13
439.95	2801.62
440.16	2686.94
440.36	2715.61
440.57	2619.35
440.77	2686.94
440.98	2826.20
441.18	2861.01
441.39	2635.74
441.59	2527.19
441.80	3080.14
442.00	2711.51
442.21	2709.46
442.41	2490.33
442.62	2893.78
442.82	2623.45
443.02	2607.06
443.23	2695.13
443.43	2643.93
443.64	2963.41
443.84	2578.39
444.05	2744.28
444.25	2666.46
444.46	2756.57
444.66	2617.30
444.87	2820.05
445.07	2537.43
445.28	2682.84
445.48	2834.39
445.69	2721.75
445.89	3049.43
446.09	2668.50
446.30	2914.26
446.50	3125.20
446.71	4538.30
446.91	5494.70
447.12	6545.31
447.32	6803.35
447.53	6608.80
447.73	5375.92
447.93	4724.66
448.14	4521.92
448.34	4650.94
448.55	3895.24
448.75	3841.99
448.96	3620.81
449.16	3391.44
449.36	3309.52
449.57	2842.58
449.77	2766.81
449.98	2645.98
450.18	2811.86
450.39	2676.70
450.59	2879.44
450.79	2713.56
451.00	2682.84
451.20	2820.05
451.41	2643.93
451.61	2805.72
451.81	2715.61
452.02	2586.58
452.22	2662.36
452.43	2578.39
452.63	2613.21
