SpectraSuite Data File
++++++++++++++++++++++++++++++++++++
Date: Thu May 05 16:20:34 CEST 2016
User: root
Dark Spectrum Present: No
Reference Spectrum Present: No
Number of Sampled Component Spectra: 1
Spectrometers: USB4C02835
Integration Time (usec): 100000 (USB4C02835)
Spectra Averaged: 1 (USB4C02835)
Boxcar Smoothing: 0 (USB4C02835)
Correct for Electrical Dark: No (USB4C02835)
Strobe/Lamp Enabled: No (USB4C02835)
Correct for Detector Non-linearity: No (USB4C02835)
Correct for Stray Light: No (USB4C02835)
Number of Pixels in Processed Spectrum: 3648
>>>>>Begin Processed Spectral Data<<<<<
177.47	2107.36
177.69	2107.36
177.91	2107.36
178.13	2045.92
178.36	2064.35
178.58	2582.49
178.80	2758.61
179.02	2463.71
179.24	2529.24
179.46	2449.37
179.68	2543.58
179.90	2641.88
180.13	2760.66
180.35	2416.60
180.57	2480.09
180.79	2811.86
181.01	2691.03
181.23	2506.71
181.45	2625.50
181.67	2797.53
181.90	2840.53
182.12	2582.49
182.34	2410.46
182.56	2834.39
182.78	2756.57
183.00	2498.52
183.22	2582.49
183.44	2498.52
183.66	3104.72
183.89	2625.50
184.11	2475.99
184.33	2838.48
184.55	2842.58
184.77	2463.71
184.99	2572.25
185.21	2617.30
185.43	3020.75
185.65	2498.52
185.87	2443.23
186.10	3104.72
186.32	3061.71
186.54	2596.82
186.76	2576.34
186.98	2928.60
187.20	2664.41
187.42	2537.43
187.64	2486.23
187.86	2795.48
188.08	2848.72
188.30	2373.60
188.52	2490.33
188.75	2875.35
188.97	2934.74
189.19	2539.48
189.41	2584.54
189.63	2793.43
189.85	2637.78
190.07	2326.49
190.29	2383.84
190.51	2750.42
190.73	2502.62
190.95	2693.08
191.17	2473.95
191.39	2535.39
191.61	2711.51
191.84	2502.62
192.06	2625.50
192.28	2588.63
192.50	3170.26
192.72	2621.40
192.94	2609.11
193.16	2940.88
193.38	2789.33
193.60	2480.09
193.82	2686.94
194.04	2885.59
194.26	2785.24
194.48	2570.20
194.70	2473.95
194.92	2678.74
195.14	2846.68
195.36	2475.99
195.58	2592.73
195.80	2637.78
196.02	2693.08
196.24	2504.67
196.46	2537.43
196.69	2680.79
196.91	3102.67
197.13	2629.59
197.35	2600.92
197.57	2887.64
197.79	2869.20
198.01	2539.48
198.23	2551.77
198.45	2752.47
198.67	2578.39
198.89	2426.84
199.11	2627.54
199.33	2594.78
199.55	2408.41
199.77	2447.32
199.99	2580.44
200.21	2627.54
200.43	2785.24
200.65	2369.50
200.87	2295.77
201.09	2684.89
201.31	2592.73
201.53	2570.20
201.75	2625.50
201.97	2758.61
202.19	2731.99
202.41	2572.25
202.63	2693.08
202.85	2787.29
203.07	2783.19
203.29	2549.72
203.51	2486.23
203.73	2656.22
203.95	3110.86
204.17	2480.09
204.39	2658.26
204.61	2680.79
204.83	2678.74
205.05	2652.12
205.27	2549.72
205.49	3051.47
205.71	2658.26
205.93	2365.40
206.15	2369.50
206.37	2731.99
206.59	2701.27
206.81	2365.40
207.03	2465.75
207.25	2588.63
207.47	2838.48
207.69	2496.47
207.91	2731.99
208.13	2971.60
208.34	2648.02
208.56	2449.37
208.78	2510.81
209.00	2742.23
209.22	2627.54
209.44	2496.47
209.66	2504.67
209.88	2709.46
210.10	2686.94
210.32	2488.28
210.54	2656.22
210.76	2578.39
210.98	2818.00
211.20	2408.41
211.42	2637.78
211.64	2867.16
211.86	2775.00
212.08	2566.10
212.30	2553.82
212.52	2672.60
212.74	2738.13
212.96	2555.86
213.17	2617.30
213.39	2777.05
213.61	2955.22
213.83	2551.77
214.05	2465.75
214.27	2830.29
214.49	2545.63
214.71	2463.71
214.93	2615.26
215.15	2807.77
215.37	2840.53
215.59	2471.90
215.81	2545.63
216.03	2977.75
216.24	2789.33
216.46	2541.53
216.68	2568.15
216.90	2865.11
217.12	2850.77
217.34	2514.91
217.56	2615.26
217.78	2987.99
218.00	2834.39
218.22	2562.01
218.44	2584.54
218.66	2699.22
218.87	3020.75
219.09	2547.67
219.31	2555.86
219.53	2619.35
219.75	2703.32
219.97	2617.30
220.19	2576.34
220.41	2658.26
220.63	2953.17
220.85	2502.62
221.06	2621.40
221.28	2930.64
221.50	2789.33
221.72	2543.58
221.94	2447.32
222.16	2688.98
222.38	2848.72
222.60	2478.04
222.82	2539.48
223.03	2906.07
223.25	2557.91
223.47	2506.71
223.69	2779.09
223.91	2875.35
224.13	2738.13
224.35	2498.52
224.57	2785.24
224.78	2803.67
225.00	2557.91
225.22	2543.58
225.44	2473.95
225.66	2879.44
225.88	2686.94
226.10	2664.41
226.32	2586.58
226.53	2932.69
226.75	2652.12
226.97	2580.44
227.19	2566.10
227.41	2572.25
227.63	2672.60
227.85	2351.07
228.06	2572.25
228.28	2625.50
228.50	2744.28
228.72	2418.65
228.94	2469.85
229.16	2486.23
229.37	2531.29
229.59	2449.37
229.81	2682.84
230.03	2637.78
230.25	2541.53
230.47	2410.46
230.69	2453.47
230.90	2836.44
231.12	2619.35
231.34	2559.96
231.56	2682.84
231.78	2590.68
232.00	2731.99
232.21	2445.27
232.43	2543.58
232.65	2424.80
232.87	2807.77
233.09	2439.13
233.30	2527.19
233.52	2875.35
233.74	2707.41
233.96	2471.90
234.18	2641.88
234.40	2705.37
234.61	3006.42
234.83	2342.88
235.05	2457.56
235.27	3147.73
235.49	2944.98
235.70	2285.53
235.92	2545.63
236.14	2744.28
236.36	3045.33
236.58	2430.94
236.79	2602.97
237.01	2693.08
237.23	2693.08
237.45	2660.31
237.67	2535.39
237.88	2848.72
238.10	2985.94
238.32	2377.69
238.54	2465.75
238.76	2748.37
238.97	2615.26
239.19	2373.60
239.41	2564.06
239.63	2830.29
239.85	2744.28
240.06	2521.05
240.28	2469.85
240.50	2840.53
240.72	2727.89
240.93	2533.34
241.15	2568.15
241.37	2725.85
241.59	2863.06
241.81	2461.66
242.02	2541.53
242.24	2818.00
242.46	2850.77
242.68	2449.37
242.89	2467.80
243.11	2873.30
243.33	2660.31
243.55	2504.67
243.76	2500.57
243.98	2645.98
244.20	2709.46
244.42	2506.71
244.64	2475.99
244.85	2521.05
245.07	2482.14
245.29	2521.05
245.51	2578.39
245.72	2719.70
245.94	2826.20
246.16	2475.99
246.38	2531.29
246.59	2725.85
246.81	2668.50
247.03	2523.10
247.24	2443.23
247.46	2578.39
247.68	2809.81
247.90	2418.65
248.11	2527.19
248.33	2865.11
248.55	2697.17
248.77	2621.40
248.98	2557.91
249.20	3014.61
249.42	2754.52
249.64	2490.33
249.85	2525.15
250.07	2621.40
250.29	2854.87
250.50	2531.29
250.72	2408.41
250.94	2797.53
251.16	3104.72
251.37	2539.48
251.59	2627.54
251.81	2729.94
252.02	2895.83
252.24	2449.37
252.46	2613.21
252.68	2664.41
252.89	2551.77
253.11	2338.78
253.33	2686.94
253.54	2973.65
253.76	2547.67
253.98	2572.25
254.20	2521.05
254.41	2504.67
254.63	2678.74
254.85	2402.27
255.06	2623.45
255.28	2799.57
255.50	2648.02
255.71	2496.47
255.93	2303.96
256.15	2654.17
256.36	2834.39
256.58	2447.32
256.80	2449.37
257.02	2744.28
257.23	2641.88
257.45	2625.50
257.67	2555.86
257.88	2611.16
258.10	2760.66
258.32	2459.61
258.53	2547.67
258.75	2973.65
258.97	2666.46
259.18	2422.75
259.40	2416.60
259.62	3035.09
259.83	2916.31
260.05	2541.53
260.27	3262.41
260.48	2824.15
260.70	2586.58
260.92	2469.85
261.13	2525.15
261.35	2744.28
261.57	2777.05
261.78	2383.84
262.00	2521.05
262.22	2830.29
262.43	2648.02
262.65	2488.28
262.86	2480.09
263.08	3090.38
263.30	2793.43
263.51	2385.88
263.73	2459.61
263.95	3024.85
264.16	2523.10
264.38	2424.80
264.60	2484.19
264.81	2648.02
265.03	2828.24
265.25	2813.91
265.46	2500.57
265.68	2906.07
265.89	2793.43
266.11	2422.75
266.33	2494.43
266.54	2891.73
266.76	2717.65
266.98	2549.72
267.19	2627.54
267.41	2889.68
267.62	2754.52
267.84	2396.12
268.06	2670.55
268.27	2842.58
268.49	2922.45
268.70	2637.78
268.92	2514.91
269.14	2621.40
269.35	2482.14
269.57	2613.21
269.79	2535.39
270.00	2639.83
270.22	3000.27
270.43	2478.04
270.65	2330.59
270.87	2760.66
271.08	2875.35
271.30	2568.15
271.51	2566.10
271.73	2756.57
271.95	2940.88
272.16	2488.28
272.38	2598.87
272.59	2684.89
272.81	2854.87
273.02	2578.39
273.24	2531.29
273.46	2947.03
273.67	2478.04
273.89	2387.93
274.10	2516.95
274.32	2869.20
274.54	2797.53
274.75	2592.73
274.97	2498.52
275.18	2957.27
275.40	2777.05
275.61	2629.59
275.83	2602.97
276.05	2580.44
276.26	2666.46
276.48	2621.40
276.69	2578.39
276.91	2621.40
277.12	2899.92
277.34	2703.32
277.55	2707.41
277.77	2717.65
277.99	2670.55
278.20	2650.07
278.42	2525.15
278.63	2613.21
278.85	2617.30
279.06	2523.10
279.28	2711.51
279.49	2846.68
279.71	2772.95
279.93	2723.80
280.14	2619.35
280.36	2586.58
280.57	2887.64
280.79	2699.22
281.00	2482.14
281.22	2645.98
281.43	2906.07
281.65	2457.56
281.86	2551.77
282.08	2791.38
282.29	2998.23
282.51	2420.70
282.73	2500.57
282.94	2435.03
283.16	2838.48
283.37	2734.04
283.59	2607.06
283.80	2752.47
284.02	2727.89
284.23	2715.61
284.45	2576.34
284.66	2592.73
284.88	2607.06
285.09	2623.45
285.31	2746.33
285.52	2793.43
285.74	2459.61
285.95	2740.18
286.17	2621.40
286.38	2885.59
286.60	2615.26
286.81	2629.59
287.03	2600.92
287.24	2725.85
287.46	2807.77
287.67	2652.12
287.89	2777.05
288.10	2658.26
288.32	2828.24
288.53	2803.67
288.75	2684.89
288.96	2785.24
289.18	2688.98
289.39	2547.67
289.61	2711.51
289.82	2996.18
290.04	2994.13
290.25	2514.91
290.47	2652.12
290.68	2709.46
290.90	2893.78
291.11	2404.32
291.33	2777.05
291.54	2555.86
291.76	2545.63
291.97	2775.00
292.18	2725.85
292.40	2666.46
292.61	2592.73
292.83	2883.54
293.04	2674.65
293.26	2734.04
293.47	2666.46
293.69	2453.47
293.90	2488.28
294.12	2854.87
294.33	2688.98
294.55	2625.50
294.76	2715.61
294.97	2908.12
295.19	3012.56
295.40	2650.07
295.62	2672.60
295.83	2783.19
296.05	2635.74
296.26	2777.05
296.48	2572.25
296.69	2695.13
296.90	2711.51
297.12	2725.85
297.33	2838.48
297.55	2709.46
297.76	2684.89
297.98	2699.22
298.19	2668.50
298.41	2658.26
298.62	2533.34
298.83	2811.86
299.05	2629.59
299.26	2658.26
299.48	2676.70
299.69	2664.41
299.90	2623.45
300.12	2553.82
300.33	2820.05
300.55	2699.22
300.76	2664.41
300.98	2631.64
301.19	2762.71
301.40	2592.73
301.62	2555.86
301.83	2748.37
302.05	2680.79
302.26	2666.46
302.47	2719.70
302.69	2600.92
302.90	2744.28
303.12	2392.03
303.33	2686.94
303.54	3059.67
303.76	2580.44
303.97	2639.83
304.19	2803.67
304.40	2633.69
304.61	2858.96
304.83	2686.94
305.04	2770.90
305.26	2832.34
305.47	2705.37
305.68	2609.11
305.90	2508.76
306.11	2875.35
306.33	2662.36
306.54	2494.43
306.75	2531.29
306.97	2480.09
307.18	2639.83
307.39	2541.53
307.61	2697.17
307.82	2666.46
308.04	2781.14
308.25	2455.51
308.46	2580.44
308.68	2736.09
308.89	2676.70
309.10	2697.17
309.32	2668.50
309.53	2721.75
309.74	2736.09
309.96	2559.96
310.17	2746.33
310.39	2660.31
310.60	2738.13
310.81	2670.55
311.03	2457.56
311.24	2797.53
311.45	2781.14
311.67	2914.26
311.88	2686.94
312.09	2674.65
312.31	2619.35
312.52	2627.54
312.73	2637.78
312.95	2494.43
313.16	2602.97
313.37	2731.99
313.59	2756.57
313.80	2881.49
314.01	2879.44
314.23	2592.73
314.44	2590.68
314.65	2527.19
314.87	2586.58
315.08	2588.63
315.29	2514.91
315.51	2562.01
315.72	2578.39
315.93	2752.47
316.15	2709.46
316.36	2652.12
316.57	2725.85
316.79	2643.93
317.00	2619.35
317.21	2826.20
317.43	2553.82
317.64	2662.36
317.85	2461.66
318.07	2641.88
318.28	2705.37
318.49	2797.53
318.70	2875.35
318.92	2801.62
319.13	2787.29
319.34	2783.19
319.56	2731.99
319.77	2775.00
319.98	2828.24
320.20	2838.48
320.41	2744.28
320.62	2795.48
320.83	2523.10
321.05	2766.81
321.26	2674.65
321.47	2731.99
321.69	2867.16
321.90	2394.08
322.11	2578.39
322.32	2717.65
322.54	3020.75
322.75	2578.39
322.96	3180.50
323.18	2533.34
323.39	2381.79
323.60	2502.62
323.81	2760.66
324.03	2656.22
324.24	2764.76
324.45	2658.26
324.66	2572.25
324.88	2895.83
325.09	2944.98
325.30	2664.41
325.52	2615.26
325.73	2787.29
325.94	2549.72
326.15	2451.42
326.37	2510.81
326.58	2858.96
326.79	2918.36
327.00	2516.95
327.22	2590.68
327.43	2695.13
327.64	2600.92
327.85	2697.17
328.07	2592.73
328.28	2955.22
328.49	2578.39
328.70	2559.96
328.92	2635.74
329.13	2611.16
329.34	2852.82
329.55	2811.86
329.76	2748.37
329.98	2744.28
330.19	2889.68
330.40	2693.08
330.61	2738.13
330.83	2854.87
331.04	2596.82
331.25	2656.22
331.46	2580.44
331.68	2541.53
331.89	2854.87
332.10	2654.17
332.31	2586.58
332.52	2660.31
332.74	2834.39
332.95	2482.14
333.16	2527.19
333.37	2799.57
333.58	2629.59
333.80	2682.84
334.01	2435.03
334.22	2781.14
334.43	2691.03
334.64	2564.06
334.86	2525.15
335.07	2629.59
335.28	2916.31
335.49	2430.94
335.70	2695.13
335.92	2942.93
336.13	3071.95
336.34	2717.65
336.55	2772.95
336.76	2795.48
336.98	2340.83
337.19	2625.50
337.40	2760.66
337.61	3143.63
337.82	2709.46
338.04	2725.85
338.25	2500.57
338.46	2674.65
338.67	2676.70
338.88	2537.43
339.09	2455.51
339.31	2633.69
339.52	2482.14
339.73	2551.77
339.94	2592.73
340.15	2828.24
340.36	2697.17
340.58	2592.73
340.79	2578.39
341.00	2750.42
341.21	2539.48
341.42	2785.24
341.63	2541.53
341.85	2895.83
342.06	2748.37
342.27	2492.38
342.48	2682.84
342.69	2645.98
342.90	2725.85
343.12	2775.00
343.33	2555.86
343.54	2861.01
343.75	2891.73
343.96	2637.78
344.17	2498.52
344.38	2727.89
344.60	2568.15
344.81	2588.63
345.02	2555.86
345.23	2865.11
345.44	3094.48
345.65	2641.88
345.86	2688.98
346.07	2711.51
346.29	2727.89
346.50	2695.13
346.71	2662.36
346.92	2912.21
347.13	3045.33
347.34	2615.26
347.55	2555.86
347.76	2754.52
347.98	2496.47
348.19	2549.72
348.40	2742.23
348.61	2625.50
348.82	2942.93
349.03	2682.84
349.24	2535.39
349.45	2918.36
349.66	2480.09
349.88	2662.36
350.09	2525.15
350.30	2895.83
350.51	2899.92
350.72	2652.12
350.93	2703.32
351.14	2738.13
351.35	2758.61
351.56	2578.39
351.77	2697.17
351.99	2801.62
352.20	3022.80
352.41	2723.80
352.62	2414.56
352.83	2715.61
353.04	2738.13
353.25	2631.64
353.46	2697.17
353.67	2820.05
353.88	2527.19
354.09	2582.49
354.30	2637.78
354.52	2830.29
354.73	2664.41
354.94	2547.67
355.15	2576.34
355.36	2951.12
355.57	2783.19
355.78	2631.64
355.99	2617.30
356.20	2625.50
356.41	2895.83
356.62	2684.89
356.83	2615.26
357.04	2926.55
357.25	2484.19
357.46	2588.63
357.68	2439.13
357.89	2586.58
358.10	2609.11
358.31	2588.63
358.52	2582.49
358.73	2547.67
358.94	2559.96
359.15	2633.69
359.36	2607.06
359.57	2727.89
359.78	2691.03
359.99	2701.27
360.20	2473.95
360.41	2662.36
360.62	2836.44
360.83	2666.46
361.04	2697.17
361.25	2840.53
361.46	2924.50
361.67	2600.92
361.88	2609.11
362.09	2842.58
362.30	2820.05
362.51	2527.19
362.72	2654.17
362.93	2858.96
363.14	2734.04
363.35	2648.02
363.56	2537.43
363.78	2981.84
363.99	2824.15
364.20	2588.63
364.41	2695.13
364.62	2994.13
364.83	2760.66
365.04	2684.89
365.25	2596.82
365.46	3020.75
365.67	2633.69
365.88	2738.13
366.09	2607.06
366.30	2648.02
366.51	2643.93
366.72	2535.39
366.93	2588.63
367.14	2764.76
367.35	2981.84
367.56	2602.97
367.77	2738.13
367.98	2787.29
368.18	2764.76
368.39	2750.42
368.60	2527.19
368.81	2744.28
369.02	2779.09
369.23	2600.92
369.44	2490.33
369.65	2734.04
369.86	2793.43
370.07	2764.76
370.28	2504.67
370.49	2742.23
370.70	2813.91
370.91	2586.58
371.12	2527.19
371.33	2924.50
371.54	2621.40
371.75	2797.53
371.96	2367.45
372.17	2736.09
372.38	2652.12
372.59	2676.70
372.80	2492.38
373.01	2740.18
373.22	2711.51
373.43	2654.17
373.64	2453.47
373.85	2879.44
374.06	2971.60
374.26	2750.42
374.47	2709.46
374.68	2940.88
374.89	2779.09
375.10	2559.96
375.31	2682.84
375.52	2711.51
375.73	2744.28
375.94	2611.16
376.15	2793.43
376.36	2598.87
376.57	2670.55
376.78	2627.54
376.99	2662.36
377.20	2854.87
377.40	2676.70
377.61	2893.78
377.82	2504.67
378.03	2949.08
378.24	2801.62
378.45	2674.65
378.66	2650.07
378.87	2482.14
379.08	2451.42
379.29	2584.54
379.50	2805.72
379.71	2594.78
379.91	2824.15
380.12	2588.63
380.33	2662.36
380.54	2709.46
380.75	2691.03
380.96	2629.59
381.17	2742.23
381.38	2691.03
381.59	2729.94
381.80	2617.30
382.00	2795.48
382.21	2762.71
382.42	2906.07
382.63	2969.55
382.84	2758.61
383.05	2826.20
383.26	2983.89
383.47	2695.13
383.68	2613.21
383.88	2813.91
384.09	2785.24
384.30	2754.52
384.51	2783.19
384.72	2631.64
384.93	2547.67
385.14	2688.98
385.35	2807.77
385.55	2504.67
385.76	2893.78
385.97	2607.06
386.18	2461.66
386.39	2629.59
386.60	2635.74
386.81	2596.82
387.02	2555.86
387.22	2525.15
387.43	2867.16
387.64	2787.29
387.85	2852.82
388.06	2850.77
388.27	3983.30
388.48	7536.52
388.68	11034.46
388.89	13395.76
389.10	14450.47
389.31	13817.65
389.52	10848.09
389.73	9467.76
389.93	8507.26
390.14	7872.39
390.35	7085.97
390.56	6322.08
390.77	5236.66
390.98	4136.90
391.18	3471.31
391.39	3119.06
391.60	2752.47
391.81	2799.57
392.02	2678.74
392.23	3063.76
392.43	2813.91
392.64	2772.95
392.85	2648.02
393.06	2947.03
393.27	2709.46
393.47	2566.10
393.68	2652.12
393.89	2654.17
394.10	2887.64
394.31	2596.82
394.52	2545.63
394.72	2570.20
394.93	2940.88
395.14	2506.71
395.35	2740.18
395.56	2623.45
395.76	2686.94
395.97	2697.17
396.18	2752.47
396.39	2838.48
396.60	3305.42
396.80	2940.88
397.01	2785.24
397.22	2924.50
397.43	2871.25
397.64	2580.44
397.84	2799.57
398.05	3092.43
398.26	2668.50
398.47	2682.84
398.67	2856.92
398.88	2785.24
399.09	2791.38
399.30	2602.97
399.51	2699.22
399.71	2660.31
399.92	2703.32
400.13	2633.69
400.34	2664.41
400.54	2840.53
400.75	2940.88
400.96	2670.55
401.17	2883.54
401.37	2852.82
401.58	2764.76
401.79	2594.78
402.00	2789.33
402.21	3125.20
402.41	2971.60
402.62	2959.31
402.83	3030.99
403.04	3057.62
403.24	3332.05
403.45	2787.29
403.66	2918.36
403.87	2861.01
404.07	2949.08
404.28	2949.08
404.49	2934.74
404.70	2797.53
404.90	2731.99
405.11	2719.70
405.32	2811.86
405.52	2658.26
405.73	2693.08
405.94	2557.91
406.15	2688.98
406.35	2836.44
406.56	2883.54
406.77	2666.46
406.98	2691.03
407.18	2596.82
407.39	2889.68
407.60	2615.26
407.80	2688.98
408.01	2676.70
408.22	2746.33
408.43	2570.20
408.63	2734.04
408.84	2924.50
409.05	2842.58
409.25	2562.01
409.46	2500.57
409.67	2584.54
409.88	2574.30
410.08	2637.78
410.29	2615.26
410.50	2854.87
410.70	2830.29
410.91	2555.86
411.12	2602.97
411.32	2699.22
411.53	2582.49
411.74	2639.83
411.95	2672.60
412.15	2766.81
412.36	2830.29
412.57	2752.47
412.77	2770.90
412.98	2748.37
413.19	2656.22
413.39	2699.22
413.60	2629.59
413.81	2871.25
414.01	2504.67
414.22	2578.39
414.43	2697.17
414.63	2719.70
414.84	2848.72
415.05	2686.94
415.25	2486.23
415.46	2719.70
415.67	2641.88
415.87	2682.84
416.08	2570.20
416.29	2664.41
416.49	2832.34
416.70	2695.13
416.91	2594.78
417.11	2736.09
417.32	2805.72
417.53	2764.76
417.73	2670.55
417.94	2779.09
418.15	2779.09
418.35	2666.46
418.56	2650.07
418.77	3098.58
418.97	2760.66
419.18	2736.09
419.38	2480.09
419.59	2695.13
419.80	2922.45
420.00	2658.26
420.21	2715.61
420.42	2856.92
420.62	2768.85
420.83	2629.59
421.04	2617.30
421.24	2705.37
421.45	2805.72
421.65	2691.03
421.86	2588.63
422.07	2815.96
422.27	2777.05
422.48	2598.87
422.69	2490.33
422.89	2734.04
423.10	2699.22
423.30	2600.92
423.51	2672.60
423.72	2785.24
423.92	2914.26
424.13	2478.04
424.33	2686.94
424.54	2830.29
424.75	2744.28
424.95	2813.91
425.16	2701.27
425.36	2711.51
425.57	2895.83
425.78	2725.85
425.98	2762.71
426.19	2654.17
426.39	2707.41
426.60	2701.27
426.81	2772.95
427.01	2695.13
427.22	2619.35
427.42	2480.09
427.63	2543.58
427.83	2824.15
428.04	2875.35
428.25	2799.57
428.45	2746.33
428.66	2899.92
428.86	2668.50
429.07	2605.02
429.28	2639.83
429.48	2715.61
429.69	2588.63
429.89	2654.17
430.10	2523.10
430.30	2856.92
430.51	2832.34
430.71	2490.33
430.92	2652.12
431.13	2627.54
431.33	2803.67
431.54	2748.37
431.74	2947.03
431.95	3026.90
432.15	2639.83
432.36	2609.11
432.56	2772.95
432.77	3119.06
432.98	3069.91
433.18	2715.61
433.39	2574.30
433.59	2703.32
433.80	3039.19
434.00	2940.88
434.21	2650.07
434.41	2533.34
434.62	3127.25
434.82	2457.56
435.03	2486.23
435.23	2770.90
435.44	2559.96
435.64	2621.40
435.85	2705.37
436.06	2836.44
436.26	2877.40
436.47	2625.50
436.67	2605.02
436.88	2711.51
437.08	2895.83
437.29	2783.19
437.49	2684.89
437.70	2930.64
437.90	2693.08
438.11	2897.88
438.31	2738.13
438.52	2879.44
438.72	2881.49
438.93	2975.70
439.13	2645.98
439.34	2846.68
439.54	2674.65
439.75	2674.65
439.95	2723.80
440.16	2553.82
440.36	2723.80
440.57	2670.55
440.77	2648.02
440.98	2760.66
441.18	2731.99
441.39	2531.29
441.59	2527.19
441.80	2998.23
442.00	2768.85
442.21	2734.04
442.41	2486.23
442.62	2867.16
442.82	2627.54
443.02	2639.83
443.23	2656.22
443.43	2711.51
443.64	2895.83
443.84	2582.49
444.05	2715.61
444.25	2699.22
444.46	2744.28
444.66	2668.50
444.87	2820.05
445.07	2529.24
445.28	2654.17
445.48	2764.76
445.69	2725.85
445.89	3078.10
446.09	2744.28
446.30	2969.55
446.50	3086.29
446.71	4569.02
446.91	5646.25
447.12	6508.44
447.32	6791.06
447.53	6504.35
447.73	5406.64
447.93	4786.10
448.14	4562.87
448.34	4435.90
448.55	3844.04
448.75	3805.13
448.96	3604.42
449.16	3387.34
449.36	3309.52
449.57	2793.43
449.77	2709.46
449.98	2686.94
450.18	2867.16
450.39	2744.28
450.59	2770.90
450.79	2701.27
451.00	2592.73
451.20	2818.00
451.41	2617.30
451.61	2791.38
451.81	2762.71
452.02	2594.78
452.22	2658.26
452.43	2670.55
452.63	2662.36
