SpectraSuite Data File
++++++++++++++++++++++++++++++++++++
Date: Thu May 05 16:20:51 CEST 2016
User: root
Dark Spectrum Present: No
Reference Spectrum Present: No
Number of Sampled Component Spectra: 1
Spectrometers: USB4C02835
Integration Time (usec): 100000 (USB4C02835)
Spectra Averaged: 1 (USB4C02835)
Boxcar Smoothing: 0 (USB4C02835)
Correct for Electrical Dark: No (USB4C02835)
Strobe/Lamp Enabled: No (USB4C02835)
Correct for Detector Non-linearity: No (USB4C02835)
Correct for Stray Light: No (USB4C02835)
Number of Pixels in Processed Spectrum: 3648
>>>>>Begin Processed Spectral Data<<<<<
177.47	2060.26
177.69	2060.26
177.91	2060.26
178.13	2107.36
178.36	2078.69
178.58	2639.83
178.80	2654.17
179.02	2586.58
179.24	2570.20
179.46	2469.85
179.68	2535.39
179.90	2623.45
180.13	2719.70
180.35	2400.22
180.57	2486.23
180.79	2865.11
181.01	2688.98
181.23	2531.29
181.45	2670.55
181.67	2736.09
181.90	2904.02
182.12	2555.86
182.34	2430.94
182.56	2914.26
182.78	2766.81
183.00	2537.43
183.22	2519.00
183.44	2478.04
183.66	3096.53
183.89	2688.98
184.11	2541.53
184.33	2785.24
184.55	2885.59
184.77	2523.10
184.99	2525.15
185.21	2697.17
185.43	3006.42
185.65	2432.99
185.87	2473.95
186.10	3065.81
186.32	2981.84
186.54	2592.73
186.76	2633.69
186.98	2858.96
187.20	2725.85
187.42	2484.19
187.64	2432.99
187.86	2744.28
188.08	2893.78
188.30	2453.47
188.52	2629.59
188.75	2893.78
188.97	2944.98
189.19	2541.53
189.41	2441.18
189.63	2908.12
189.85	2709.46
190.07	2422.75
190.29	2392.03
190.51	2832.34
190.73	2613.21
190.95	2682.84
191.17	2580.44
191.39	2502.62
191.61	2750.42
191.84	2582.49
192.06	2525.15
192.28	2484.19
192.50	3194.83
192.72	2596.82
192.94	2635.74
193.16	2914.26
193.38	2740.18
193.60	2443.23
193.82	2523.10
194.04	2815.96
194.26	2836.44
194.48	2439.13
194.70	2574.30
194.92	2740.18
195.14	2758.61
195.36	2527.19
195.58	2588.63
195.80	2682.84
196.02	2639.83
196.24	2465.75
196.46	2598.87
196.69	2654.17
196.91	3106.77
197.13	2519.00
197.35	2564.06
197.57	3020.75
197.79	2813.91
198.01	2553.82
198.23	2547.67
198.45	2846.68
198.67	2592.73
198.89	2404.32
199.11	2645.98
199.33	2588.63
199.55	2398.17
199.77	2437.08
199.99	2607.06
200.21	2654.17
200.43	2818.00
200.65	2361.31
200.87	2359.26
201.09	2662.36
201.31	2725.85
201.53	2572.25
201.75	2588.63
201.97	2842.58
202.19	2695.13
202.41	2570.20
202.63	2580.44
202.85	2785.24
203.07	2725.85
203.29	2516.95
203.51	2383.84
203.73	2586.58
203.95	3133.39
204.17	2533.34
204.39	2621.40
204.61	2697.17
204.83	2717.65
205.05	2637.78
205.27	2496.47
205.49	2981.84
205.71	2699.22
205.93	2414.56
206.15	2463.71
206.37	2734.04
206.59	2701.27
206.81	2430.94
207.03	2471.90
207.25	2609.11
207.47	2731.99
207.69	2531.29
207.91	2736.09
208.13	2949.08
208.34	2672.60
208.56	2490.33
208.78	2537.43
209.00	2654.17
209.22	2701.27
209.44	2521.05
209.66	2500.57
209.88	2766.81
210.10	2633.69
210.32	2516.95
210.54	2715.61
210.76	2758.61
210.98	2834.39
211.20	2363.36
211.42	2602.97
211.64	2869.20
211.86	2842.58
212.08	2539.48
212.30	2465.75
212.52	2748.37
212.74	2738.13
212.96	2568.15
213.17	2598.87
213.39	2836.44
213.61	2938.84
213.83	2602.97
214.05	2367.45
214.27	2830.29
214.49	2549.72
214.71	2471.90
214.93	2598.87
215.15	2711.51
215.37	2807.77
215.59	2439.13
215.81	2578.39
216.03	2865.11
216.24	2672.60
216.46	2506.71
216.68	2592.73
216.90	2942.93
217.12	2865.11
217.34	2459.61
217.56	2674.65
217.78	2934.74
218.00	2799.57
218.22	2570.20
218.44	2619.35
218.66	2715.61
218.87	2932.69
219.09	2539.48
219.31	2428.89
219.53	2766.81
219.75	2688.98
219.97	2490.33
220.19	2562.01
220.41	2645.98
220.63	2981.84
220.85	2539.48
221.06	2588.63
221.28	2867.16
221.50	2793.43
221.72	2494.43
221.94	2512.86
222.16	2742.23
222.38	2752.47
222.60	2527.19
222.82	2541.53
223.03	2842.58
223.25	2490.33
223.47	2605.02
223.69	2674.65
223.91	2838.48
224.13	2713.56
224.35	2367.45
224.57	2707.41
224.78	2758.61
225.00	2559.96
225.22	2607.06
225.44	2449.37
225.66	2863.06
225.88	2643.93
226.10	2600.92
226.32	2572.25
226.53	2975.70
226.75	2701.27
226.97	2566.10
227.19	2574.30
227.41	2568.15
227.63	2662.36
227.85	2332.64
228.06	2605.02
228.28	2768.85
228.50	2844.63
228.72	2447.32
228.94	2480.09
229.16	2547.67
229.37	2535.39
229.59	2502.62
229.81	2703.32
230.03	2643.93
230.25	2580.44
230.47	2355.16
230.69	2484.19
230.90	2830.29
231.12	2686.94
231.34	2564.06
231.56	2525.15
231.78	2615.26
232.00	2723.80
232.21	2523.10
232.43	2510.81
232.65	2422.75
232.87	2818.00
233.09	2408.41
233.30	2457.56
233.52	2809.81
233.74	2678.74
233.96	2414.56
234.18	2645.98
234.40	2625.50
234.61	3098.58
234.83	2418.65
235.05	2473.95
235.27	3190.74
235.49	2875.35
235.70	2498.52
235.92	2523.10
236.14	2777.05
236.36	3090.38
236.58	2379.74
236.79	2564.06
237.01	2772.95
237.23	2721.75
237.45	2631.64
237.67	2506.71
237.88	2772.95
238.10	2957.27
238.32	2430.94
238.54	2486.23
238.76	2725.85
238.97	2596.82
239.19	2432.99
239.41	2570.20
239.63	2848.72
239.85	2576.34
240.06	2512.86
240.28	2527.19
240.50	2877.40
240.72	2775.00
240.93	2512.86
241.15	2688.98
241.37	2723.80
241.59	2957.27
241.81	2539.48
242.02	2580.44
242.24	2779.09
242.46	2801.62
242.68	2404.32
242.89	2459.61
243.11	2912.21
243.33	2658.26
243.55	2475.99
243.76	2525.15
243.98	2682.84
244.20	2746.33
244.42	2557.91
244.64	2482.14
244.85	2543.58
245.07	2641.88
245.29	2555.86
245.51	2615.26
245.72	2740.18
245.94	2904.02
246.16	2529.24
246.38	2537.43
246.59	2613.21
246.81	2682.84
247.03	2502.62
247.24	2355.16
247.46	2666.46
247.68	2797.53
247.90	2371.55
248.11	2504.67
248.33	2775.00
248.55	2738.13
248.77	2615.26
248.98	2559.96
249.20	2951.12
249.42	2645.98
249.64	2557.91
249.85	2521.05
250.07	2619.35
250.29	2865.11
250.50	2615.26
250.72	2385.88
250.94	2762.71
251.16	3067.86
251.37	2555.86
251.59	2519.00
251.81	2863.06
252.02	2934.74
252.24	2473.95
252.46	2707.41
252.68	2582.49
252.89	2625.50
253.11	2392.03
253.33	2615.26
253.54	2906.07
253.76	2555.86
253.98	2508.76
254.20	2500.57
254.41	2523.10
254.63	2648.02
254.85	2355.16
255.06	2639.83
255.28	2697.17
255.50	2684.89
255.71	2521.05
255.93	2396.12
256.15	2686.94
256.36	2803.67
256.58	2365.40
256.80	2512.86
257.02	2674.65
257.23	2594.78
257.45	2504.67
257.67	2656.22
257.88	2625.50
258.10	2807.77
258.32	2529.24
258.53	2584.54
258.75	2914.26
258.97	2639.83
259.18	2457.56
259.40	2519.00
259.62	2944.98
259.83	2867.16
260.05	2574.30
260.27	3174.35
260.48	2885.59
260.70	2555.86
260.92	2484.19
261.13	2570.20
261.35	2658.26
261.57	2746.33
261.78	2494.43
262.00	2416.60
262.22	2840.53
262.43	2633.69
262.65	2512.86
262.86	2529.24
263.08	3067.86
263.30	2744.28
263.51	2383.84
263.73	2539.48
263.95	2998.23
264.16	2600.92
264.38	2430.94
264.60	2564.06
264.81	2746.33
265.03	2873.30
265.25	2705.37
265.46	2516.95
265.68	3024.85
265.89	2822.10
266.11	2383.84
266.33	2555.86
266.54	2854.87
266.76	2834.39
266.98	2617.30
267.19	2656.22
267.41	2889.68
267.62	2725.85
267.84	2324.44
268.06	2609.11
268.27	2758.61
268.49	2828.24
268.70	2643.93
268.92	2578.39
269.14	2551.77
269.35	2516.95
269.57	2549.72
269.79	2617.30
270.00	2582.49
270.22	2949.08
270.43	2400.22
270.65	2365.40
270.87	2856.92
271.08	2953.17
271.30	2652.12
271.51	2478.04
271.73	2844.63
271.95	2879.44
272.16	2482.14
272.38	2637.78
272.59	2672.60
272.81	2688.98
273.02	2557.91
273.24	2564.06
273.46	2883.54
273.67	2598.87
273.89	2482.14
274.10	2504.67
274.32	2906.07
274.54	2787.29
274.75	2535.39
274.97	2576.34
275.18	2809.81
275.40	2746.33
275.61	2562.01
275.83	2549.72
276.05	2572.25
276.26	2801.62
276.48	2615.26
276.69	2533.34
276.91	2607.06
277.12	2979.79
277.34	2580.44
277.55	2797.53
277.77	2682.84
277.99	2691.03
278.20	2584.54
278.42	2506.71
278.63	2562.01
278.85	2584.54
279.06	2578.39
279.28	2695.13
279.49	2924.50
279.71	2783.19
279.93	2684.89
280.14	2635.74
280.36	2637.78
280.57	2795.48
280.79	2652.12
281.00	2557.91
281.22	2635.74
281.43	2940.88
281.65	2486.23
281.86	2514.91
282.08	2809.81
282.29	2908.12
282.51	2498.52
282.73	2471.90
282.94	2480.09
283.16	2861.01
283.37	2844.63
283.59	2633.69
283.80	2777.05
284.02	2742.23
284.23	2699.22
284.45	2631.64
284.66	2682.84
284.88	2611.16
285.09	2551.77
285.31	2703.32
285.52	2775.00
285.74	2512.86
285.95	2764.76
286.17	2637.78
286.38	2928.60
286.60	2576.34
286.81	2539.48
287.03	2539.48
287.24	2707.41
287.46	2826.20
287.67	2666.46
287.89	2850.77
288.10	2666.46
288.32	2662.36
288.53	2789.33
288.75	2641.88
288.96	2815.96
289.18	2627.54
289.39	2588.63
289.61	2635.74
289.82	3033.04
290.04	3061.71
290.25	2486.23
290.47	2648.02
290.68	2680.79
290.90	2858.96
291.11	2441.18
291.33	2799.57
291.54	2613.21
291.76	2717.65
291.97	2635.74
292.18	2725.85
292.40	2686.94
292.61	2609.11
292.83	2865.11
293.04	2615.26
293.26	2758.61
293.47	2764.76
293.69	2506.71
293.90	2559.96
294.12	2932.69
294.33	2625.50
294.55	2637.78
294.76	2703.32
294.97	2848.72
295.19	2973.65
295.40	2555.86
295.62	2656.22
295.83	2842.58
296.05	2596.82
296.26	2799.57
296.48	2576.34
296.69	2666.46
296.90	2666.46
297.12	2703.32
297.33	2781.14
297.55	2711.51
297.76	2697.17
297.98	2664.41
298.19	2701.27
298.41	2711.51
298.62	2605.02
298.83	2760.66
299.05	2719.70
299.26	2703.32
299.48	2586.58
299.69	2713.56
299.90	2566.10
300.12	2617.30
300.33	2840.53
300.55	2643.93
300.76	2670.55
300.98	2611.16
301.19	2801.62
301.40	2629.59
301.62	2590.68
301.83	2746.33
302.05	2760.66
302.26	2516.95
302.47	2592.73
302.69	2596.82
302.90	2721.75
303.12	2400.22
303.33	2686.94
303.54	2957.27
303.76	2731.99
303.97	2596.82
304.19	2801.62
304.40	2574.30
304.61	2803.67
304.83	2711.51
305.04	2641.88
305.26	2830.29
305.47	2701.27
305.68	2645.98
305.90	2508.76
306.11	2836.44
306.33	2754.52
306.54	2562.01
306.75	2607.06
306.97	2562.01
307.18	2590.68
307.39	2543.58
307.61	2746.33
307.82	2602.97
308.04	2746.33
308.25	2529.24
308.46	2645.98
308.68	2713.56
308.89	2672.60
309.10	2678.74
309.32	2666.46
309.53	2645.98
309.74	2746.33
309.96	2588.63
310.17	2686.94
310.39	2674.65
310.60	2758.61
310.81	2652.12
311.03	2473.95
311.24	2781.14
311.45	2686.94
311.67	2805.72
311.88	2684.89
312.09	2664.41
312.31	2617.30
312.52	2529.24
312.73	2666.46
312.95	2572.25
313.16	2578.39
313.37	2807.77
313.59	2725.85
313.80	2805.72
314.01	2920.40
314.23	2562.01
314.44	2559.96
314.65	2490.33
314.87	2574.30
315.08	2564.06
315.29	2576.34
315.51	2592.73
315.72	2557.91
315.93	2766.81
316.15	2703.32
316.36	2670.55
316.57	2697.17
316.79	2699.22
317.00	2586.58
317.21	2785.24
317.43	2639.83
317.64	2684.89
317.85	2553.82
318.07	2566.10
318.28	2695.13
318.49	2660.31
318.70	2787.29
318.92	2791.38
319.13	2822.10
319.34	2768.85
319.56	2650.07
319.77	2846.68
319.98	2783.19
320.20	2858.96
320.41	2736.09
320.62	2820.05
320.83	2564.06
321.05	2801.62
321.26	2570.20
321.47	2701.27
321.69	2955.22
321.90	2574.30
322.11	2580.44
322.32	2803.67
322.54	3033.04
322.75	2633.69
322.96	3090.38
323.18	2467.80
323.39	2527.19
323.60	2514.91
323.81	2662.36
324.03	2652.12
324.24	2736.09
324.45	2703.32
324.66	2602.97
324.88	2803.67
325.09	2920.40
325.30	2605.02
325.52	2588.63
325.73	2772.95
325.94	2570.20
326.15	2512.86
326.37	2559.96
326.58	2904.02
326.79	2992.08
327.00	2400.22
327.22	2670.55
327.43	2756.57
327.64	2559.96
327.85	2670.55
328.07	2684.89
328.28	3004.37
328.49	2662.36
328.70	2574.30
328.92	2643.93
329.13	2654.17
329.34	2703.32
329.55	2834.39
329.76	2777.05
329.98	2738.13
330.19	2967.51
330.40	2670.55
330.61	2731.99
330.83	2869.20
331.04	2662.36
331.25	2639.83
331.46	2611.16
331.68	2566.10
331.89	2873.30
332.10	2623.45
332.31	2494.43
332.52	2682.84
332.74	2877.40
332.95	2392.03
333.16	2588.63
333.37	2809.81
333.58	2615.26
333.80	2605.02
334.01	2447.32
334.22	2654.17
334.43	2609.11
334.64	2578.39
334.86	2467.80
335.07	2576.34
335.28	2932.69
335.49	2514.91
335.70	2674.65
335.92	2885.59
336.13	3035.09
336.34	2736.09
336.55	2551.77
336.76	2764.76
336.98	2435.03
337.19	2598.87
337.40	2711.51
337.61	3067.86
337.82	2662.36
338.04	2611.16
338.25	2496.47
338.46	2703.32
338.67	2633.69
338.88	2574.30
339.09	2562.01
339.31	2650.07
339.52	2600.92
339.73	2535.39
339.94	2680.79
340.15	2758.61
340.36	2654.17
340.58	2625.50
340.79	2592.73
341.00	2793.43
341.21	2547.67
341.42	2820.05
341.63	2545.63
341.85	2846.68
342.06	2740.18
342.27	2539.48
342.48	2740.18
342.69	2566.10
342.90	2795.48
343.12	2906.07
343.33	2613.21
343.54	2768.85
343.75	2951.12
343.96	2574.30
344.17	2514.91
344.38	2727.89
344.60	2627.54
344.81	2553.82
345.02	2562.01
345.23	2906.07
345.44	3141.58
345.65	2699.22
345.86	2705.37
346.07	2752.47
346.29	2607.06
346.50	2641.88
346.71	2629.59
346.92	2938.84
347.13	3028.95
347.34	2658.26
347.55	2570.20
347.76	2826.20
347.98	2512.86
348.19	2592.73
348.40	2713.56
348.61	2582.49
348.82	2979.79
349.03	2691.03
349.24	2559.96
349.45	2867.16
349.66	2396.12
349.88	2572.25
350.09	2492.38
350.30	2996.18
350.51	2930.64
350.72	2785.24
350.93	2611.16
351.14	2701.27
351.35	2777.05
351.56	2627.54
351.77	2602.97
351.99	2820.05
352.20	2955.22
352.41	2785.24
352.62	2363.36
352.83	2611.16
353.04	2705.37
353.25	2580.44
353.46	2637.78
353.67	2854.87
353.88	2461.66
354.09	2641.88
354.30	2676.70
354.52	2805.72
354.73	2693.08
354.94	2545.63
355.15	2707.41
355.36	3045.33
355.57	2658.26
355.78	2527.19
355.99	2525.15
356.20	2629.59
356.41	2908.12
356.62	2768.85
356.83	2672.60
357.04	2871.25
357.25	2457.56
357.46	2635.74
357.68	2529.24
357.89	2648.02
358.10	2713.56
358.31	2629.59
358.52	2635.74
358.73	2611.16
358.94	2506.71
359.15	2623.45
359.36	2625.50
359.57	2752.47
359.78	2711.51
359.99	2748.37
360.20	2529.24
360.41	2758.61
360.62	2740.18
360.83	2670.55
361.04	2629.59
361.25	2803.67
361.46	2965.46
361.67	2721.75
361.88	2615.26
362.09	2893.78
362.30	2721.75
362.51	2615.26
362.72	2727.89
362.93	2809.81
363.14	2861.01
363.35	2711.51
363.56	2555.86
363.78	2838.48
363.99	2826.20
364.20	2596.82
364.41	2723.80
364.62	2967.51
364.83	2768.85
365.04	2635.74
365.25	2682.84
365.46	3112.91
365.67	2631.64
365.88	2705.37
366.09	2566.10
366.30	2758.61
366.51	2668.50
366.72	2547.67
366.93	2551.77
367.14	2748.37
367.35	2904.02
367.56	2613.21
367.77	2723.80
367.98	2775.00
368.18	2822.10
368.39	2719.70
368.60	2502.62
368.81	2867.16
369.02	2715.61
369.23	2615.26
369.44	2506.71
369.65	2633.69
369.86	2801.62
370.07	2670.55
370.28	2516.95
370.49	2711.51
370.70	2756.57
370.91	2525.15
371.12	2525.15
371.33	2920.40
371.54	2707.41
371.75	2768.85
371.96	2406.36
372.17	2744.28
372.38	2695.13
372.59	2717.65
372.80	2496.47
373.01	2670.55
373.22	2795.48
373.43	2654.17
373.64	2494.43
373.85	2928.60
374.06	2953.17
374.26	2705.37
374.47	2752.47
374.68	2969.55
374.89	2750.42
375.10	2625.50
375.31	2678.74
375.52	2719.70
375.73	2811.86
375.94	2533.34
376.15	2760.66
376.36	2633.69
376.57	2658.26
376.78	2594.78
376.99	2641.88
377.20	2924.50
377.40	2731.99
377.61	2832.34
377.82	2521.05
378.03	2893.78
378.24	2854.87
378.45	2723.80
378.66	2664.41
378.87	2443.23
379.08	2611.16
379.29	2564.06
379.50	2805.72
379.71	2736.09
379.91	2852.82
380.12	2607.06
380.33	2684.89
380.54	2711.51
380.75	2596.82
380.96	2596.82
381.17	2670.55
381.38	2756.57
381.59	2717.65
381.80	2625.50
382.00	2906.07
382.21	2775.00
382.42	2947.03
382.63	2922.45
382.84	2691.03
383.05	2787.29
383.26	2926.55
383.47	2713.56
383.68	2654.17
383.88	2836.44
384.09	2703.32
384.30	2840.53
384.51	2742.23
384.72	2725.85
384.93	2562.01
385.14	2623.45
385.35	2750.42
385.55	2553.82
385.76	2912.21
385.97	2611.16
386.18	2471.90
386.39	2555.86
386.60	2615.26
386.81	2623.45
387.02	2494.43
387.22	2529.24
387.43	2826.20
387.64	2693.08
387.85	2836.44
388.06	2852.82
388.27	3995.59
388.48	7585.68
388.68	10973.02
388.89	13500.21
389.10	14130.98
389.31	13844.27
389.52	11030.36
389.73	9398.13
389.93	8554.37
390.14	7851.91
390.35	7026.58
390.56	6356.90
390.77	5289.90
390.98	4102.08
391.18	3368.91
391.39	3137.49
391.60	2740.18
391.81	2846.68
392.02	2592.73
392.23	3074.00
392.43	2781.14
392.64	2756.57
392.85	2645.98
393.06	2906.07
393.27	2731.99
393.47	2611.16
393.68	2656.22
393.89	2676.70
394.10	2883.54
394.31	2619.35
394.52	2559.96
394.72	2643.93
394.93	2957.27
395.14	2600.92
395.35	2678.74
395.56	2609.11
395.76	2658.26
395.97	2658.26
396.18	2723.80
396.39	2768.85
396.60	3254.22
396.80	2957.27
397.01	2856.92
397.22	2887.64
397.43	2910.16
397.64	2652.12
397.84	2772.95
398.05	3055.57
398.26	2729.94
398.47	2699.22
398.67	2818.00
398.88	2750.42
399.09	2768.85
399.30	2623.45
399.51	2721.75
399.71	2564.06
399.92	2670.55
400.13	2662.36
400.34	2609.11
400.54	2717.65
400.75	2899.92
400.96	2602.97
401.17	2922.45
401.37	2830.29
401.58	2660.31
401.79	2650.07
402.00	2762.71
402.21	3047.38
402.41	2875.35
402.62	2871.25
402.83	2987.99
403.04	3096.53
403.24	3330.00
403.45	2682.84
403.66	2883.54
403.87	2916.31
404.07	2949.08
404.28	2916.31
404.49	2852.82
404.70	2809.81
404.90	2770.90
405.11	2535.39
405.32	2740.18
405.52	2605.02
405.73	2580.44
405.94	2527.19
406.15	2723.80
406.35	2768.85
406.56	2815.96
406.77	2725.85
406.98	2703.32
407.18	2572.25
407.39	2967.51
407.60	2639.83
407.80	2621.40
408.01	2643.93
408.22	2834.39
408.43	2600.92
408.63	2715.61
408.84	2852.82
409.05	2838.48
409.25	2557.91
409.46	2662.36
409.67	2660.31
409.88	2781.14
410.08	2680.79
410.29	2590.68
410.50	2852.82
410.70	2836.44
410.91	2549.72
411.12	2717.65
411.32	2682.84
411.53	2619.35
411.74	2672.60
411.95	2734.04
412.15	2756.57
412.36	2795.48
412.57	2725.85
412.77	2820.05
412.98	2742.23
413.19	2740.18
413.39	2621.40
413.60	2609.11
413.81	2838.48
414.01	2564.06
414.22	2711.51
414.43	2797.53
414.63	2654.17
414.84	2879.44
415.05	2727.89
415.25	2510.81
415.46	2861.01
415.67	2605.02
415.87	2637.78
416.08	2637.78
416.29	2703.32
416.49	2838.48
416.70	2609.11
416.91	2645.98
417.11	2695.13
417.32	2818.00
417.53	2688.98
417.73	2748.37
417.94	2764.76
418.15	2775.00
418.35	2676.70
418.56	2682.84
418.77	3078.10
418.97	2815.96
419.18	2686.94
419.38	2451.42
419.59	2740.18
419.80	2889.68
420.00	2656.22
420.21	2717.65
420.42	2838.48
420.62	2740.18
420.83	2621.40
421.04	2611.16
421.24	2731.99
421.45	2875.35
421.65	2738.13
421.86	2600.92
422.07	2895.83
422.27	2805.72
422.48	2645.98
422.69	2531.29
422.89	2658.26
423.10	2652.12
423.30	2578.39
423.51	2711.51
423.72	2787.29
423.92	2883.54
424.13	2494.43
424.33	2699.22
424.54	2955.22
424.75	2775.00
424.95	2822.10
425.16	2584.54
425.36	2758.61
425.57	2820.05
425.78	2793.43
425.98	2830.29
426.19	2709.46
426.39	2531.29
426.60	2772.95
426.81	2879.44
427.01	2768.85
427.22	2668.50
427.42	2494.43
427.63	2590.68
427.83	2834.39
428.04	2981.84
428.25	2695.13
428.45	2725.85
428.66	2875.35
428.86	2695.13
429.07	2629.59
429.28	2709.46
429.48	2629.59
429.69	2598.87
429.89	2740.18
430.10	2562.01
430.30	2820.05
430.51	2904.02
430.71	2633.69
430.92	2658.26
431.13	2635.74
431.33	2768.85
431.54	2744.28
431.74	2861.01
431.95	2992.08
432.15	2566.10
432.36	2621.40
432.56	2727.89
432.77	2963.41
432.98	2998.23
433.18	2723.80
433.39	2611.16
433.59	2660.31
433.80	3049.43
434.00	2850.77
434.21	2682.84
434.41	2564.06
434.62	3086.29
434.82	2539.48
435.03	2582.49
435.23	2695.13
435.44	2572.25
435.64	2578.39
435.85	2678.74
436.06	2897.88
436.26	2906.07
436.47	2631.64
436.67	2568.15
436.88	2662.36
437.08	2813.91
437.29	2828.24
437.49	2785.24
437.70	2863.06
437.90	2686.94
438.11	2877.40
438.31	2719.70
438.52	2852.82
438.72	2875.35
438.93	3055.57
439.13	2723.80
439.34	2858.96
439.54	2645.98
439.75	2797.53
439.95	2731.99
440.16	2674.65
440.36	2842.58
440.57	2709.46
440.77	2559.96
440.98	2686.94
441.18	2758.61
441.39	2605.02
441.59	2539.48
441.80	2940.88
442.00	2734.04
442.21	2781.14
442.41	2512.86
442.62	2889.68
442.82	2506.71
443.02	2592.73
443.23	2766.81
443.43	2650.07
443.64	2869.20
443.84	2547.67
444.05	2678.74
444.25	2779.09
444.46	2662.36
444.66	2672.60
444.87	2887.64
445.07	2523.10
445.28	2656.22
445.48	2828.24
445.69	2748.37
445.89	3082.19
446.09	2766.81
446.30	2934.74
446.50	3000.27
446.71	4573.11
446.91	5595.05
447.12	6592.41
447.32	6748.06
447.53	6485.92
447.73	5474.22
447.93	4845.49
448.14	4509.63
448.34	4528.06
448.55	3874.76
448.75	3817.41
448.96	3567.56
449.16	3332.05
449.36	3219.41
449.57	2936.79
449.77	2699.22
449.98	2717.65
450.18	2762.71
450.39	2770.90
450.59	2721.75
450.79	2711.51
451.00	2576.34
451.20	2699.22
451.41	2711.51
451.61	2867.16
451.81	2740.18
452.02	2609.11
452.22	2539.48
452.43	2666.46
452.63	2609.11
