SpectraSuite Data File
++++++++++++++++++++++++++++++++++++
Date: Thu May 05 16:20:13 CEST 2016
User: root
Dark Spectrum Present: No
Reference Spectrum Present: No
Number of Sampled Component Spectra: 1
Spectrometers: USB4C02835
Integration Time (usec): 100000 (USB4C02835)
Spectra Averaged: 1 (USB4C02835)
Boxcar Smoothing: 0 (USB4C02835)
Correct for Electrical Dark: No (USB4C02835)
Strobe/Lamp Enabled: No (USB4C02835)
Correct for Detector Non-linearity: No (USB4C02835)
Correct for Stray Light: No (USB4C02835)
Number of Pixels in Processed Spectrum: 3648
>>>>>Begin Processed Spectral Data<<<<<
177.47	2007.01
177.69	2007.01
177.91	2007.01
178.13	2072.54
178.36	2076.64
178.58	2512.86
178.80	2799.57
179.02	2576.34
179.24	2566.10
179.46	2512.86
179.68	2516.95
179.90	2688.98
180.13	2680.79
180.35	2408.41
180.57	2508.76
180.79	2834.39
181.01	2680.79
181.23	2514.91
181.45	2592.73
181.67	2822.10
181.90	2760.66
182.12	2566.10
182.34	2398.17
182.56	2824.15
182.78	2762.71
183.00	2463.71
183.22	2494.43
183.44	2445.27
183.66	3114.96
183.89	2557.91
184.11	2502.62
184.33	2791.38
184.55	2850.77
184.77	2424.80
184.99	2531.29
185.21	2654.17
185.43	3104.72
185.65	2523.10
185.87	2473.95
186.10	3084.24
186.32	3043.28
186.54	2521.05
186.76	2650.07
186.98	2869.20
187.20	2643.93
187.42	2602.97
187.64	2523.10
187.86	2723.80
188.08	2967.51
188.30	2447.32
188.52	2490.33
188.75	3012.56
188.97	2951.12
189.19	2549.72
189.41	2482.14
189.63	2748.37
189.85	2701.27
190.07	2351.07
190.29	2379.74
190.51	2789.33
190.73	2557.91
190.95	2623.45
191.17	2514.91
191.39	2494.43
191.61	2699.22
191.84	2527.19
192.06	2582.49
192.28	2455.51
192.50	3186.64
192.72	2641.88
192.94	2619.35
193.16	2863.06
193.38	2703.32
193.60	2510.81
193.82	2611.16
194.04	2899.92
194.26	2783.19
194.48	2514.91
194.70	2473.95
194.92	2617.30
195.14	2826.20
195.36	2535.39
195.58	2582.49
195.80	2676.70
196.02	2658.26
196.24	2553.82
196.46	2564.06
196.69	2666.46
196.91	3030.99
197.13	2525.15
197.35	2584.54
197.57	2854.87
197.79	2865.11
198.01	2596.82
198.23	2531.29
198.45	2783.19
198.67	2500.57
198.89	2398.17
199.11	2590.68
199.33	2635.74
199.55	2424.80
199.77	2437.08
199.99	2637.78
200.21	2676.70
200.43	2803.67
200.65	2408.41
200.87	2359.26
201.09	2723.80
201.31	2611.16
201.53	2508.76
201.75	2637.78
201.97	2766.81
202.19	2738.13
202.41	2664.41
202.63	2664.41
202.85	2758.61
203.07	2688.98
203.29	2539.48
203.51	2455.51
203.73	2580.44
203.95	3139.54
204.17	2432.99
204.39	2629.59
204.61	2707.41
204.83	2693.08
205.05	2641.88
205.27	2570.20
205.49	3055.57
205.71	2596.82
205.93	2375.64
206.15	2523.10
206.37	2672.60
206.59	2670.55
206.81	2451.42
207.03	2412.51
207.25	2576.34
207.47	2842.58
207.69	2580.44
207.91	2707.41
208.13	2914.26
208.34	2555.86
208.56	2420.70
208.78	2496.47
209.00	2654.17
209.22	2691.03
209.44	2568.15
209.66	2496.47
209.88	2693.08
210.10	2670.55
210.32	2502.62
210.54	2600.92
210.76	2645.98
210.98	2867.16
211.20	2418.65
211.42	2578.39
211.64	2924.50
211.86	2803.67
212.08	2551.77
212.30	2600.92
212.52	2674.65
212.74	2822.10
212.96	2635.74
213.17	2498.52
213.39	2797.53
213.61	2858.96
213.83	2410.46
214.05	2342.88
214.27	2895.83
214.49	2543.58
214.71	2410.46
214.93	2633.69
215.15	2768.85
215.37	2836.44
215.59	2367.45
215.81	2566.10
216.03	2842.58
216.24	2723.80
216.46	2473.95
216.68	2588.63
216.90	2863.06
217.12	2936.79
217.34	2488.28
217.56	2559.96
217.78	2942.93
218.00	2746.33
218.22	2564.06
218.44	2506.71
218.66	2779.09
218.87	3008.47
219.09	2514.91
219.31	2574.30
219.53	2797.53
219.75	2635.74
219.97	2578.39
220.19	2484.19
220.41	2717.65
220.63	2959.31
220.85	2521.05
221.06	2566.10
221.28	2914.26
221.50	2785.24
221.72	2496.47
221.94	2469.85
222.16	2779.09
222.38	2899.92
222.60	2527.19
222.82	2543.58
223.03	2826.20
223.25	2598.87
223.47	2451.42
223.69	2682.84
223.91	2869.20
224.13	2719.70
224.35	2437.08
224.57	2627.54
224.78	2797.53
225.00	2529.24
225.22	2547.67
225.44	2402.27
225.66	2885.59
225.88	2645.98
226.10	2529.24
226.32	2519.00
226.53	3018.71
226.75	2703.32
226.97	2600.92
227.19	2551.77
227.41	2592.73
227.63	2641.88
227.85	2389.98
228.06	2529.24
228.28	2711.51
228.50	2891.73
228.72	2361.31
228.94	2435.03
229.16	2504.67
229.37	2562.01
229.59	2465.75
229.81	2705.37
230.03	2736.09
230.25	2502.62
230.47	2406.36
230.69	2441.18
230.90	2918.36
231.12	2613.21
231.34	2617.30
231.56	2553.82
231.78	2619.35
232.00	2783.19
232.21	2527.19
232.43	2451.42
232.65	2344.92
232.87	2805.72
233.09	2402.27
233.30	2355.16
233.52	2789.33
233.74	2725.85
233.96	2439.13
234.18	2717.65
234.40	2721.75
234.61	3121.10
234.83	2453.47
235.05	2449.37
235.27	3078.10
235.49	2895.83
235.70	2402.27
235.92	2592.73
236.14	2768.85
236.36	3155.92
236.58	2396.12
236.79	2631.64
237.01	2607.06
237.23	2754.52
237.45	2711.51
237.67	2545.63
237.88	2777.05
238.10	2998.23
238.32	2512.86
238.54	2504.67
238.76	2703.32
238.97	2488.28
239.19	2502.62
239.41	2551.77
239.63	2858.96
239.85	2578.39
240.06	2506.71
240.28	2566.10
240.50	2881.49
240.72	2697.17
240.93	2457.56
241.15	2564.06
241.37	2664.41
241.59	2899.92
241.81	2447.32
242.02	2553.82
242.24	2740.18
242.46	2861.01
242.68	2430.94
242.89	2531.29
243.11	2877.40
243.33	2678.74
243.55	2457.56
243.76	2559.96
243.98	2652.12
244.20	2682.84
244.42	2459.61
244.64	2529.24
244.85	2510.81
245.07	2562.01
245.29	2447.32
245.51	2494.43
245.72	2688.98
245.94	2897.88
246.16	2568.15
246.38	2531.29
246.59	2596.82
246.81	2664.41
247.03	2445.27
247.24	2379.74
247.46	2605.02
247.68	2752.47
247.90	2465.75
248.11	2459.61
248.33	2785.24
248.55	2711.51
248.77	2588.63
248.98	2627.54
249.20	2936.79
249.42	2750.42
249.64	2562.01
249.85	2537.43
250.07	2615.26
250.29	2895.83
250.50	2537.43
250.72	2437.08
250.94	2789.33
251.16	3039.19
251.37	2490.33
251.59	2629.59
251.81	2772.95
252.02	2906.07
252.24	2441.18
252.46	2625.50
252.68	2562.01
252.89	2627.54
253.11	2406.36
253.33	2639.83
253.54	2967.51
253.76	2564.06
253.98	2496.47
254.20	2494.43
254.41	2611.16
254.63	2674.65
254.85	2379.74
255.06	2557.91
255.28	2695.13
255.50	2736.09
255.71	2475.99
255.93	2412.51
256.15	2709.46
256.36	2766.81
256.58	2418.65
256.80	2457.56
257.02	2623.45
257.23	2658.26
257.45	2527.19
257.67	2549.72
257.88	2629.59
258.10	2746.33
258.32	2482.14
258.53	2678.74
258.75	2944.98
258.97	2582.49
259.18	2461.66
259.40	2512.86
259.62	2990.03
259.83	2848.72
260.05	2572.25
260.27	3194.83
260.48	2826.20
260.70	2586.58
260.92	2428.89
261.13	2555.86
261.35	2711.51
261.57	2805.72
261.78	2396.12
262.00	2531.29
262.22	2766.81
262.43	2645.98
262.65	2420.70
262.86	2523.10
263.08	3133.39
263.30	2744.28
263.51	2359.26
263.73	2523.10
263.95	2961.36
264.16	2652.12
264.38	2482.14
264.60	2416.60
264.81	2680.79
265.03	2885.59
265.25	2799.57
265.46	2568.15
265.68	2932.69
265.89	2858.96
266.11	2383.84
266.33	2349.02
266.54	2775.00
266.76	2789.33
266.98	2596.82
267.19	2658.26
267.41	2815.96
267.62	2725.85
267.84	2306.01
268.06	2555.86
268.27	2768.85
268.49	2865.11
268.70	2574.30
268.92	2523.10
269.14	2586.58
269.35	2502.62
269.57	2553.82
269.79	2564.06
270.00	2750.42
270.22	2979.79
270.43	2435.03
270.65	2387.93
270.87	2801.62
271.08	2803.67
271.30	2617.30
271.51	2453.47
271.73	2736.09
271.95	2936.79
272.16	2471.90
272.38	2643.93
272.59	2627.54
272.81	2785.24
273.02	2473.95
273.24	2494.43
273.46	2867.16
273.67	2469.85
273.89	2426.84
274.10	2500.57
274.32	2879.44
274.54	2768.85
274.75	2617.30
274.97	2484.19
275.18	2863.06
275.40	2760.66
275.61	2584.54
275.83	2664.41
276.05	2590.68
276.26	2596.82
276.48	2609.11
276.69	2592.73
276.91	2691.03
277.12	2899.92
277.34	2613.21
277.55	2752.47
277.77	2729.94
277.99	2686.94
278.20	2545.63
278.42	2551.77
278.63	2578.39
278.85	2555.86
279.06	2607.06
279.28	2748.37
279.49	2865.11
279.71	2793.43
279.93	2656.22
280.14	2557.91
280.36	2652.12
280.57	2772.95
280.79	2713.56
281.00	2480.09
281.22	2664.41
281.43	2908.12
281.65	2414.56
281.86	2496.47
282.08	2789.33
282.29	2996.18
282.51	2473.95
282.73	2514.91
282.94	2500.57
283.16	2834.39
283.37	2711.51
283.59	2654.17
283.80	2830.29
284.02	2725.85
284.23	2600.92
284.45	2564.06
284.66	2611.16
284.88	2555.86
285.09	2629.59
285.31	2684.89
285.52	2777.05
285.74	2453.47
285.95	2770.90
286.17	2637.78
286.38	2949.08
286.60	2611.16
286.81	2570.20
287.03	2621.40
287.24	2695.13
287.46	2795.48
287.67	2645.98
287.89	2897.88
288.10	2703.32
288.32	2713.56
288.53	2858.96
288.75	2607.06
288.96	2793.43
289.18	2662.36
289.39	2588.63
289.61	2600.92
289.82	2998.23
290.04	2969.55
290.25	2564.06
290.47	2654.17
290.68	2666.46
290.90	2813.91
291.11	2408.41
291.33	2729.94
291.54	2627.54
291.76	2695.13
291.97	2656.22
292.18	2660.31
292.40	2588.63
292.61	2623.45
292.83	2883.54
293.04	2627.54
293.26	2717.65
293.47	2672.60
293.69	2564.06
293.90	2562.01
294.12	2846.68
294.33	2764.76
294.55	2637.78
294.76	2750.42
294.97	2947.03
295.19	2977.75
295.40	2607.06
295.62	2686.94
295.83	2906.07
296.05	2635.74
296.26	2770.90
296.48	2525.15
296.69	2715.61
296.90	2742.23
297.12	2709.46
297.33	2682.84
297.55	2729.94
297.76	2809.81
297.98	2703.32
298.19	2678.74
298.41	2711.51
298.62	2643.93
298.83	2725.85
299.05	2668.50
299.26	2666.46
299.48	2637.78
299.69	2613.21
299.90	2609.11
300.12	2645.98
300.33	2858.96
300.55	2648.02
300.76	2697.17
300.98	2516.95
301.19	2818.00
301.40	2570.20
301.62	2596.82
301.83	2785.24
302.05	2670.55
302.26	2619.35
302.47	2701.27
302.69	2514.91
302.90	2775.00
303.12	2467.80
303.33	2729.94
303.54	3022.80
303.76	2727.89
303.97	2592.73
304.19	2861.01
304.40	2607.06
304.61	2807.77
304.83	2662.36
305.04	2738.13
305.26	2760.66
305.47	2678.74
305.68	2623.45
305.90	2496.47
306.11	2877.40
306.33	2768.85
306.54	2521.05
306.75	2572.25
306.97	2529.24
307.18	2525.15
307.39	2516.95
307.61	2609.11
307.82	2758.61
308.04	2766.81
308.25	2508.76
308.46	2672.60
308.68	2727.89
308.89	2697.17
309.10	2750.42
309.32	2631.64
309.53	2723.80
309.74	2818.00
309.96	2572.25
310.17	2703.32
310.39	2623.45
310.60	2848.72
310.81	2637.78
311.03	2492.38
311.24	2803.67
311.45	2668.50
311.67	2783.19
311.88	2711.51
312.09	2650.07
312.31	2611.16
312.52	2555.86
312.73	2635.74
312.95	2480.09
313.16	2609.11
313.37	2729.94
313.59	2807.77
313.80	2791.38
314.01	2967.51
314.23	2547.67
314.44	2492.38
314.65	2555.86
314.87	2670.55
315.08	2623.45
315.29	2512.86
315.51	2641.88
315.72	2469.85
315.93	2676.70
316.15	2631.64
316.36	2637.78
316.57	2705.37
316.79	2590.68
317.00	2547.67
317.21	2779.09
317.43	2623.45
317.64	2637.78
317.85	2510.81
318.07	2703.32
318.28	2734.04
318.49	2684.89
318.70	2781.14
318.92	2818.00
319.13	2799.57
319.34	2777.05
319.56	2623.45
319.77	2697.17
319.98	2869.20
320.20	2824.15
320.41	2746.33
320.62	2795.48
320.83	2559.96
321.05	2803.67
321.26	2645.98
321.47	2824.15
321.69	2914.26
321.90	2529.24
322.11	2555.86
322.32	2781.14
322.54	3016.66
322.75	2594.78
322.96	3119.06
323.18	2412.51
323.39	2498.52
323.60	2414.56
323.81	2676.70
324.03	2672.60
324.24	2701.27
324.45	2664.41
324.66	2617.30
324.88	2924.50
325.09	3010.51
325.30	2637.78
325.52	2654.17
325.73	2842.58
325.94	2594.78
326.15	2478.04
326.37	2490.33
326.58	2811.86
326.79	2916.31
327.00	2551.77
327.22	2672.60
327.43	2662.36
327.64	2582.49
327.85	2711.51
328.07	2643.93
328.28	3002.32
328.49	2678.74
328.70	2572.25
328.92	2639.83
329.13	2736.09
329.34	2822.10
329.55	2809.81
329.76	2787.29
329.98	2684.89
330.19	2928.60
330.40	2664.41
330.61	2678.74
330.83	2832.34
331.04	2625.50
331.25	2678.74
331.46	2535.39
331.68	2555.86
331.89	2815.96
332.10	2660.31
332.31	2535.39
332.52	2795.48
332.74	2922.45
332.95	2498.52
333.16	2582.49
333.37	2834.39
333.58	2629.59
333.80	2670.55
334.01	2428.89
334.22	2719.70
334.43	2539.48
334.64	2543.58
334.86	2502.62
335.07	2602.97
335.28	2955.22
335.49	2533.34
335.70	2588.63
335.92	2908.12
336.13	3028.95
336.34	2570.20
336.55	2678.74
336.76	2785.24
336.98	2389.98
337.19	2594.78
337.40	2752.47
337.61	3004.37
337.82	2682.84
338.04	2658.26
338.25	2402.27
338.46	2662.36
338.67	2609.11
338.88	2619.35
339.09	2463.71
339.31	2678.74
339.52	2594.78
339.73	2521.05
339.94	2607.06
340.15	2834.39
340.36	2705.37
340.58	2615.26
340.79	2570.20
341.00	2775.00
341.21	2562.01
341.42	2850.77
341.63	2607.06
341.85	2807.77
342.06	2695.13
342.27	2494.43
342.48	2711.51
342.69	2523.10
342.90	2721.75
343.12	2742.23
343.33	2596.82
343.54	2842.58
343.75	2875.35
343.96	2695.13
344.17	2512.86
344.38	2684.89
344.60	2586.58
344.81	2500.57
345.02	2619.35
345.23	2850.77
345.44	3096.53
345.65	2678.74
345.86	2602.97
346.07	2740.18
346.29	2643.93
346.50	2740.18
346.71	2625.50
346.92	2910.16
347.13	3055.57
347.34	2676.70
347.55	2541.53
347.76	2830.29
347.98	2469.85
348.19	2629.59
348.40	2922.45
348.61	2664.41
348.82	2922.45
349.03	2629.59
349.24	2580.44
349.45	3028.95
349.66	2371.55
349.88	2570.20
350.09	2570.20
350.30	2861.01
350.51	2856.92
350.72	2705.37
350.93	2660.31
351.14	2576.34
351.35	2772.95
351.56	2623.45
351.77	2635.74
351.99	2791.38
352.20	2928.60
352.41	2715.61
352.62	2451.42
352.83	2719.70
353.04	2703.32
353.25	2578.39
353.46	2707.41
353.67	2955.22
353.88	2519.00
354.09	2584.54
354.30	2619.35
354.52	2854.87
354.73	2648.02
354.94	2580.44
355.15	2709.46
355.36	2990.03
355.57	2578.39
355.78	2607.06
355.99	2605.02
356.20	2596.82
356.41	2934.74
356.62	2695.13
356.83	2592.73
357.04	2881.49
357.25	2461.66
357.46	2611.16
357.68	2420.70
357.89	2539.48
358.10	2770.90
358.31	2666.46
358.52	2584.54
358.73	2525.15
358.94	2475.99
359.15	2555.86
359.36	2598.87
359.57	2725.85
359.78	2686.94
359.99	2768.85
360.20	2504.67
360.41	2731.99
360.62	2711.51
360.83	2607.06
361.04	2635.74
361.25	2815.96
361.46	3024.85
361.67	2621.40
361.88	2641.88
362.09	2899.92
362.30	2727.89
362.51	2547.67
362.72	2709.46
362.93	2932.69
363.14	2713.56
363.35	2641.88
363.56	2463.71
363.78	2883.54
363.99	2781.14
364.20	2572.25
364.41	2680.79
364.62	2981.84
364.83	2725.85
365.04	2654.17
365.25	2684.89
365.46	3147.73
365.67	2588.63
365.88	2598.87
366.09	2553.82
366.30	2666.46
366.51	2707.41
366.72	2482.14
366.93	2557.91
367.14	2727.89
367.35	2883.54
367.56	2637.78
367.77	2734.04
367.98	2719.70
368.18	2672.60
368.39	2697.17
368.60	2586.58
368.81	2846.68
369.02	2752.47
369.23	2613.21
369.44	2451.42
369.65	2588.63
369.86	2832.34
370.07	2793.43
370.28	2478.04
370.49	2766.81
370.70	2856.92
370.91	2473.95
371.12	2410.46
371.33	2881.49
371.54	2631.64
371.75	2836.44
371.96	2359.26
372.17	2727.89
372.38	2688.98
372.59	2643.93
372.80	2547.67
373.01	2715.61
373.22	2752.47
373.43	2594.78
373.64	2459.61
373.85	2846.68
374.06	2975.70
374.26	2758.61
374.47	2723.80
374.68	2971.60
374.89	2762.71
375.10	2594.78
375.31	2650.07
375.52	2709.46
375.73	2693.08
375.94	2537.43
376.15	2723.80
376.36	2645.98
376.57	2525.15
376.78	2510.81
376.99	2654.17
377.20	2906.07
377.40	2629.59
377.61	2807.77
377.82	2576.34
378.03	2861.01
378.24	2832.34
378.45	2727.89
378.66	2680.79
378.87	2486.23
379.08	2572.25
379.29	2611.16
379.50	2822.10
379.71	2717.65
379.91	2828.24
380.12	2586.58
380.33	2631.64
380.54	2645.98
380.75	2736.09
380.96	2553.82
381.17	2756.57
381.38	2799.57
381.59	2742.23
381.80	2621.40
382.00	2836.44
382.21	2842.58
382.42	2947.03
382.63	2871.25
382.84	2756.57
383.05	2856.92
383.26	2914.26
383.47	2678.74
383.68	2619.35
383.88	2750.42
384.09	2729.94
384.30	2867.16
384.51	2660.31
384.72	2623.45
384.93	2600.92
385.14	2643.93
385.35	2719.70
385.55	2559.96
385.76	2842.58
385.97	2678.74
386.18	2537.43
386.39	2541.53
386.60	2648.02
386.81	2629.59
387.02	2410.46
387.22	2578.39
387.43	2772.95
387.64	2711.51
387.85	2842.58
388.06	2793.43
388.27	3979.20
388.48	7493.52
388.68	10981.21
388.89	13416.24
389.10	14602.02
389.31	14022.44
389.52	10786.65
389.73	9559.92
389.93	8527.74
390.14	7913.35
390.35	7128.98
390.56	6340.51
390.77	5222.32
390.98	4130.75
391.18	3452.88
391.39	3178.45
391.60	2760.66
391.81	2809.81
392.02	2641.88
392.23	3022.80
392.43	2779.09
392.64	2752.47
392.85	2672.60
393.06	2957.27
393.27	2691.03
393.47	2547.67
393.68	2691.03
393.89	2613.21
394.10	2908.12
394.31	2570.20
394.52	2533.34
394.72	2609.11
394.93	2928.60
395.14	2527.19
395.35	2752.47
395.56	2686.94
395.76	2719.70
395.97	2703.32
396.18	2791.38
396.39	2818.00
396.60	3258.32
396.80	2916.31
397.01	2883.54
397.22	2836.44
397.43	2832.34
397.64	2600.92
397.84	2740.18
398.05	3006.42
398.26	2772.95
398.47	2752.47
398.67	2781.14
398.88	2707.41
399.09	2883.54
399.30	2539.48
399.51	2670.55
399.71	2574.30
399.92	2727.89
400.13	2658.26
400.34	2656.22
400.54	2686.94
400.75	2947.03
400.96	2629.59
401.17	2916.31
401.37	2805.72
401.58	2668.50
401.79	2691.03
402.00	2797.53
402.21	3090.38
402.41	2883.54
402.62	2975.70
402.83	2973.65
403.04	3211.22
403.24	3264.46
403.45	2697.17
403.66	2895.83
403.87	2887.64
404.07	3035.09
404.28	2865.11
404.49	2924.50
404.70	2811.86
404.90	2826.20
405.11	2676.70
405.32	2746.33
405.52	2686.94
405.73	2639.83
405.94	2570.20
406.15	2686.94
406.35	2750.42
406.56	2901.97
406.77	2772.95
406.98	2660.31
407.18	2586.58
407.39	2981.84
407.60	2568.15
407.80	2645.98
408.01	2637.78
408.22	2742.23
408.43	2578.39
408.63	2752.47
408.84	2779.09
409.05	2869.20
409.25	2625.50
409.46	2508.76
409.67	2676.70
409.88	2623.45
410.08	2645.98
410.29	2641.88
410.50	2828.24
410.70	2785.24
410.91	2535.39
411.12	2682.84
411.32	2648.02
411.53	2572.25
411.74	2660.31
411.95	2777.05
412.15	2754.52
412.36	2854.87
412.57	2719.70
412.77	2772.95
412.98	2781.14
413.19	2611.16
413.39	2701.27
413.60	2635.74
413.81	2928.60
414.01	2576.34
414.22	2637.78
414.43	2783.19
414.63	2711.51
414.84	2899.92
415.05	2684.89
415.25	2500.57
415.46	2822.10
415.67	2658.26
415.87	2748.37
416.08	2631.64
416.29	2662.36
416.49	2850.77
416.70	2682.84
416.91	2641.88
417.11	2779.09
417.32	2897.88
417.53	2727.89
417.73	2707.41
417.94	2729.94
418.15	2731.99
418.35	2648.02
418.56	2584.54
418.77	3121.10
418.97	2787.29
419.18	2721.75
419.38	2383.84
419.59	2758.61
419.80	2996.18
420.00	2578.39
420.21	2672.60
420.42	3000.27
420.62	2744.28
420.83	2617.30
421.04	2576.34
421.24	2664.41
421.45	2904.02
421.65	2762.71
421.86	2580.44
422.07	2838.48
422.27	2822.10
422.48	2600.92
422.69	2480.09
422.89	2725.85
423.10	2676.70
423.30	2543.58
423.51	2734.04
423.72	2824.15
423.92	2865.11
424.13	2478.04
424.33	2711.51
424.54	2914.26
424.75	2731.99
424.95	2883.54
425.16	2586.58
425.36	2684.89
425.57	2856.92
425.78	2742.23
425.98	2791.38
426.19	2639.83
426.39	2531.29
426.60	2662.36
426.81	2824.15
427.01	2809.81
427.22	2631.64
427.42	2437.08
427.63	2537.43
427.83	2846.68
428.04	2858.96
428.25	2797.53
428.45	2842.58
428.66	2877.40
428.86	2813.91
429.07	2662.36
429.28	2666.46
429.48	2660.31
429.69	2596.82
429.89	2721.75
430.10	2584.54
430.30	2809.81
430.51	2846.68
430.71	2586.58
430.92	2641.88
431.13	2721.75
431.33	2809.81
431.54	2736.09
431.74	2764.76
431.95	3022.80
432.15	2576.34
432.36	2654.17
432.56	2717.65
432.77	2985.94
432.98	2920.40
433.18	2719.70
433.39	2498.52
433.59	2777.05
433.80	3055.57
434.00	2856.92
434.21	2535.39
434.41	2529.24
434.62	3092.43
434.82	2545.63
435.03	2625.50
435.23	2756.57
435.44	2461.66
435.64	2625.50
435.85	2721.75
436.06	2881.49
436.26	2942.93
436.47	2650.07
436.67	2598.87
436.88	2654.17
437.08	2891.73
437.29	2775.00
437.49	2670.55
437.70	2863.06
437.90	2691.03
438.11	2842.58
438.31	2772.95
438.52	2901.97
438.72	3018.71
438.93	2924.50
439.13	2787.29
439.34	2873.30
439.54	2727.89
439.75	2824.15
439.95	2799.57
440.16	2678.74
440.36	2695.13
440.57	2592.73
440.77	2641.88
440.98	2785.24
441.18	2789.33
441.39	2553.82
441.59	2584.54
441.80	2971.60
442.00	2654.17
442.21	2717.65
442.41	2566.10
442.62	2858.96
442.82	2584.54
443.02	2613.21
443.23	2760.66
443.43	2729.94
443.64	2914.26
443.84	2486.23
444.05	2725.85
444.25	2785.24
444.46	2609.11
444.66	2688.98
444.87	2922.45
445.07	2463.71
445.28	2680.79
445.48	2873.30
445.69	2729.94
445.89	3131.34
446.09	2764.76
446.30	3045.33
446.50	3139.54
446.71	4585.40
446.91	5599.15
447.12	6354.85
447.32	6780.82
447.53	6557.60
447.73	5437.36
447.93	4687.80
448.14	4669.37
448.34	4509.63
448.55	3844.04
448.75	3831.75
448.96	3612.62
449.16	3391.44
449.36	3254.22
449.57	2897.88
449.77	2721.75
449.98	2691.03
450.18	2809.81
450.39	2664.41
450.59	2869.20
450.79	2629.59
451.00	2584.54
451.20	2803.67
451.41	2674.65
451.61	2813.91
451.81	2795.48
452.02	2596.82
452.22	2652.12
452.43	2602.97
452.63	2584.54
