SpectraSuite Data File
++++++++++++++++++++++++++++++++++++
Date: Thu May 05 16:20:26 CEST 2016
User: root
Dark Spectrum Present: No
Reference Spectrum Present: No
Number of Sampled Component Spectra: 1
Spectrometers: USB4C02835
Integration Time (usec): 100000 (USB4C02835)
Spectra Averaged: 1 (USB4C02835)
Boxcar Smoothing: 0 (USB4C02835)
Correct for Electrical Dark: No (USB4C02835)
Strobe/Lamp Enabled: No (USB4C02835)
Correct for Detector Non-linearity: No (USB4C02835)
Correct for Stray Light: No (USB4C02835)
Number of Pixels in Processed Spectrum: 3648
>>>>>Begin Processed Spectral Data<<<<<
177.47	2011.11
177.69	2011.11
177.91	2011.11
178.13	1966.05
178.36	2002.91
178.58	2580.44
178.80	2723.80
179.02	2490.33
179.24	2588.63
179.46	2459.61
179.68	2562.01
179.90	2680.79
180.13	2783.19
180.35	2430.94
180.57	2492.38
180.79	2891.73
181.01	2664.41
181.23	2566.10
181.45	2645.98
181.67	2736.09
181.90	2795.48
182.12	2447.32
182.34	2424.80
182.56	2797.53
182.78	2789.33
183.00	2469.85
183.22	2504.67
183.44	2426.84
183.66	3117.01
183.89	2609.11
184.11	2475.99
184.33	2779.09
184.55	2873.30
184.77	2465.75
184.99	2512.86
185.21	2652.12
185.43	3039.19
185.65	2508.76
185.87	2441.18
186.10	3043.28
186.32	3028.95
186.54	2619.35
186.76	2633.69
186.98	2856.92
187.20	2742.23
187.42	2432.99
187.64	2525.15
187.86	2793.43
188.08	2891.73
188.30	2367.45
188.52	2545.63
188.75	2947.03
188.97	2932.69
189.19	2469.85
189.41	2494.43
189.63	2801.62
189.85	2682.84
190.07	2377.69
190.29	2439.13
190.51	2740.18
190.73	2514.91
190.95	2707.41
191.17	2607.06
191.39	2490.33
191.61	2717.65
191.84	2463.71
192.06	2625.50
192.28	2471.90
192.50	3137.49
192.72	2617.30
192.94	2590.68
193.16	2861.01
193.38	2842.58
193.60	2437.08
193.82	2549.72
194.04	2887.64
194.26	2832.34
194.48	2557.91
194.70	2512.86
194.92	2572.25
195.14	2762.71
195.36	2492.38
195.58	2535.39
195.80	2736.09
196.02	2701.27
196.24	2404.32
196.46	2586.58
196.69	2662.36
196.91	3069.91
197.13	2480.09
197.35	2521.05
197.57	2848.72
197.79	2777.05
198.01	2584.54
198.23	2559.96
198.45	2826.20
198.67	2582.49
198.89	2400.22
199.11	2725.85
199.33	2645.98
199.55	2465.75
199.77	2457.56
199.99	2611.16
200.21	2672.60
200.43	2799.57
200.65	2430.94
200.87	2357.21
201.09	2703.32
201.31	2645.98
201.53	2504.67
201.75	2549.72
201.97	2791.38
202.19	2742.23
202.41	2541.53
202.63	2676.70
202.85	2848.72
203.07	2801.62
203.29	2555.86
203.51	2414.56
203.73	2641.88
203.95	3106.77
204.17	2531.29
204.39	2574.30
204.61	2680.79
204.83	2613.21
205.05	2703.32
205.27	2543.58
205.49	2971.60
205.71	2738.13
205.93	2473.95
206.15	2453.47
206.37	2783.19
206.59	2668.50
206.81	2392.03
207.03	2527.19
207.25	2605.02
207.47	2871.25
207.69	2486.23
207.91	2703.32
208.13	3033.04
208.34	2674.65
208.56	2459.61
208.78	2457.56
209.00	2699.22
209.22	2639.83
209.44	2547.67
209.66	2541.53
209.88	2727.89
210.10	2762.71
210.32	2451.42
210.54	2541.53
210.76	2641.88
210.98	2920.40
211.20	2408.41
211.42	2592.73
211.64	2922.45
211.86	2715.61
212.08	2570.20
212.30	2502.62
212.52	2676.70
212.74	2746.33
212.96	2590.68
213.17	2570.20
213.39	2811.86
213.61	2990.03
213.83	2519.00
214.05	2379.74
214.27	2936.79
214.49	2529.24
214.71	2531.29
214.93	2609.11
215.15	2736.09
215.37	2863.06
215.59	2371.55
215.81	2584.54
216.03	2957.27
216.24	2660.31
216.46	2580.44
216.68	2547.67
216.90	2781.14
217.12	2883.54
217.34	2539.48
217.56	2629.59
217.78	2965.46
218.00	2791.38
218.22	2574.30
218.44	2607.06
218.66	2746.33
218.87	2981.84
219.09	2535.39
219.31	2521.05
219.53	2764.76
219.75	2684.89
219.97	2588.63
220.19	2521.05
220.41	2756.57
220.63	2944.98
220.85	2588.63
221.06	2506.71
221.28	2977.75
221.50	2822.10
221.72	2527.19
221.94	2482.14
222.16	2854.87
222.38	2897.88
222.60	2523.10
222.82	2484.19
223.03	2791.38
223.25	2562.01
223.47	2519.00
223.69	2795.48
223.91	2826.20
224.13	2793.43
224.35	2484.19
224.57	2738.13
224.78	2838.48
225.00	2559.96
225.22	2627.54
225.44	2447.32
225.66	2832.34
225.88	2625.50
226.10	2625.50
226.32	2551.77
226.53	2922.45
226.75	2588.63
226.97	2533.34
227.19	2498.52
227.41	2670.55
227.63	2664.41
227.85	2277.34
228.06	2549.72
228.28	2787.29
228.50	2762.71
228.72	2379.74
228.94	2566.10
229.16	2504.67
229.37	2609.11
229.59	2432.99
229.81	2686.94
230.03	2668.50
230.25	2557.91
230.47	2398.17
230.69	2445.27
230.90	2895.83
231.12	2602.97
231.34	2629.59
231.56	2707.41
231.78	2564.06
232.00	2756.57
232.21	2480.09
232.43	2545.63
232.65	2459.61
232.87	2809.81
233.09	2420.70
233.30	2457.56
233.52	2906.07
233.74	2731.99
233.96	2449.37
234.18	2676.70
234.40	2701.27
234.61	2961.36
234.83	2455.51
235.05	2392.03
235.27	3108.82
235.49	2844.63
235.70	2498.52
235.92	2607.06
236.14	2768.85
236.36	3125.20
236.58	2381.79
236.79	2617.30
237.01	2734.04
237.23	2748.37
237.45	2674.65
237.67	2484.19
237.88	2760.66
238.10	2973.65
238.32	2453.47
238.54	2521.05
238.76	2609.11
238.97	2588.63
239.19	2494.43
239.41	2555.86
239.63	2895.83
239.85	2648.02
240.06	2467.80
240.28	2492.38
240.50	2850.77
240.72	2738.13
240.93	2439.13
241.15	2666.46
241.37	2723.80
241.59	2889.68
241.81	2463.71
242.02	2570.20
242.24	2699.22
242.46	2844.63
242.68	2392.03
242.89	2535.39
243.11	2842.58
243.33	2682.84
243.55	2512.86
243.76	2559.96
243.98	2574.30
244.20	2672.60
244.42	2535.39
244.64	2564.06
244.85	2523.10
245.07	2539.48
245.29	2510.81
245.51	2541.53
245.72	2717.65
245.94	2891.73
246.16	2547.67
246.38	2549.72
246.59	2662.36
246.81	2557.91
247.03	2465.75
247.24	2402.27
247.46	2703.32
247.68	2783.19
247.90	2480.09
248.11	2494.43
248.33	2740.18
248.55	2742.23
248.77	2539.48
248.98	2639.83
249.20	2940.88
249.42	2701.27
249.64	2494.43
249.85	2549.72
250.07	2598.87
250.29	2754.52
250.50	2617.30
250.72	2449.37
250.94	2740.18
251.16	3030.99
251.37	2514.91
251.59	2594.78
251.81	2815.96
252.02	2922.45
252.24	2451.42
252.46	2623.45
252.68	2641.88
252.89	2645.98
253.11	2338.78
253.33	2670.55
253.54	2865.11
253.76	2521.05
253.98	2478.04
254.20	2490.33
254.41	2586.58
254.63	2701.27
254.85	2400.22
255.06	2562.01
255.28	2754.52
255.50	2754.52
255.71	2461.66
255.93	2424.80
256.15	2662.36
256.36	2746.33
256.58	2398.17
256.80	2432.99
257.02	2680.79
257.23	2678.74
257.45	2543.58
257.67	2576.34
257.88	2695.13
258.10	2729.94
258.32	2557.91
258.53	2537.43
258.75	2971.60
258.97	2584.54
259.18	2455.51
259.40	2469.85
259.62	2994.13
259.83	2897.88
260.05	2547.67
260.27	3176.40
260.48	2832.34
260.70	2645.98
260.92	2451.42
261.13	2523.10
261.35	2809.81
261.57	2742.23
261.78	2389.98
262.00	2453.47
262.22	2801.62
262.43	2590.68
262.65	2496.47
262.86	2545.63
263.08	3069.91
263.30	2736.09
263.51	2371.55
263.73	2451.42
263.95	2930.64
264.16	2514.91
264.38	2428.89
264.60	2480.09
264.81	2756.57
265.03	2873.30
265.25	2764.76
265.46	2408.41
265.68	3002.32
265.89	2861.01
266.11	2418.65
266.33	2490.33
266.54	2871.25
266.76	2682.84
266.98	2596.82
267.19	2648.02
267.41	2949.08
267.62	2736.09
267.84	2418.65
268.06	2564.06
268.27	2768.85
268.49	2932.69
268.70	2598.87
268.92	2551.77
269.14	2588.63
269.35	2545.63
269.57	2557.91
269.79	2623.45
270.00	2682.84
270.22	3020.75
270.43	2422.75
270.65	2424.80
270.87	2752.47
271.08	2809.81
271.30	2635.74
271.51	2531.29
271.73	2762.71
271.95	2922.45
272.16	2523.10
272.38	2607.06
272.59	2656.22
272.81	2838.48
273.02	2389.98
273.24	2609.11
273.46	2850.77
273.67	2566.10
273.89	2445.27
274.10	2537.43
274.32	2875.35
274.54	2736.09
274.75	2645.98
274.97	2600.92
275.18	2848.72
275.40	2836.44
275.61	2562.01
275.83	2707.41
276.05	2580.44
276.26	2703.32
276.48	2570.20
276.69	2613.21
276.91	2645.98
277.12	2916.31
277.34	2748.37
277.55	2777.05
277.77	2713.56
277.99	2670.55
278.20	2543.58
278.42	2486.23
278.63	2645.98
278.85	2633.69
279.06	2490.33
279.28	2637.78
279.49	2916.31
279.71	2858.96
279.93	2611.16
280.14	2680.79
280.36	2660.31
280.57	2848.72
280.79	2682.84
281.00	2537.43
281.22	2639.83
281.43	2801.62
281.65	2314.20
281.86	2482.14
282.08	2807.77
282.29	2990.03
282.51	2447.32
282.73	2539.48
282.94	2441.18
283.16	2867.16
283.37	2723.80
283.59	2580.44
283.80	2826.20
284.02	2711.51
284.23	2695.13
284.45	2596.82
284.66	2547.67
284.88	2562.01
285.09	2613.21
285.31	2639.83
285.52	2758.61
285.74	2478.04
285.95	2736.09
286.17	2588.63
286.38	2914.26
286.60	2590.68
286.81	2523.10
287.03	2648.02
287.24	2705.37
287.46	2809.81
287.67	2666.46
287.89	2803.67
288.10	2684.89
288.32	2693.08
288.53	2787.29
288.75	2615.26
288.96	2826.20
289.18	2686.94
289.39	2564.06
289.61	2619.35
289.82	3055.57
290.04	2969.55
290.25	2482.14
290.47	2668.50
290.68	2709.46
290.90	2944.98
291.11	2455.51
291.33	2699.22
291.54	2555.86
291.76	2555.86
291.97	2752.47
292.18	2680.79
292.40	2582.49
292.61	2645.98
292.83	2742.23
293.04	2648.02
293.26	2731.99
293.47	2695.13
293.69	2484.19
293.90	2555.86
294.12	2834.39
294.33	2721.75
294.55	2551.77
294.76	2695.13
294.97	2963.41
295.19	3002.32
295.40	2598.87
295.62	2674.65
295.83	2846.68
296.05	2662.36
296.26	2783.19
296.48	2688.98
296.69	2637.78
296.90	2731.99
297.12	2731.99
297.33	2848.72
297.55	2711.51
297.76	2770.90
297.98	2752.47
298.19	2656.22
298.41	2664.41
298.62	2588.63
298.83	2811.86
299.05	2664.41
299.26	2572.25
299.48	2529.24
299.69	2752.47
299.90	2568.15
300.12	2566.10
300.33	2744.28
300.55	2588.63
300.76	2674.65
300.98	2594.78
301.19	2744.28
301.40	2619.35
301.62	2539.48
301.83	2740.18
302.05	2719.70
302.26	2592.73
302.47	2691.03
302.69	2568.15
302.90	2793.43
303.12	2322.40
303.33	2731.99
303.54	3018.71
303.76	2693.08
303.97	2609.11
304.19	2762.71
304.40	2580.44
304.61	2799.57
304.83	2777.05
305.04	2719.70
305.26	2885.59
305.47	2650.07
305.68	2674.65
305.90	2549.72
306.11	2867.16
306.33	2641.88
306.54	2408.41
306.75	2512.86
306.97	2437.08
307.18	2594.78
307.39	2596.82
307.61	2740.18
307.82	2680.79
308.04	2752.47
308.25	2529.24
308.46	2703.32
308.68	2652.12
308.89	2654.17
309.10	2775.00
309.32	2676.70
309.53	2736.09
309.74	2764.76
309.96	2490.33
310.17	2686.94
310.39	2594.78
310.60	2824.15
310.81	2555.86
311.03	2527.19
311.24	2832.34
311.45	2707.41
311.67	2797.53
311.88	2680.79
312.09	2682.84
312.31	2686.94
312.52	2572.25
312.73	2602.97
312.95	2529.24
313.16	2592.73
313.37	2793.43
313.59	2736.09
313.80	2834.39
314.01	2979.79
314.23	2596.82
314.44	2562.01
314.65	2523.10
314.87	2615.26
315.08	2660.31
315.29	2623.45
315.51	2576.34
315.72	2508.76
315.93	2768.85
316.15	2695.13
316.36	2652.12
316.57	2725.85
316.79	2572.25
317.00	2551.77
317.21	2826.20
317.43	2605.02
317.64	2674.65
317.85	2447.32
318.07	2637.78
318.28	2617.30
318.49	2725.85
318.70	2856.92
318.92	2762.71
319.13	2826.20
319.34	2799.57
319.56	2701.27
319.77	2734.04
319.98	2822.10
320.20	2781.14
320.41	2672.60
320.62	2742.23
320.83	2615.26
321.05	2830.29
321.26	2654.17
321.47	2711.51
321.69	2797.53
321.90	2539.48
322.11	2437.08
322.32	2731.99
322.54	2967.51
322.75	2621.40
322.96	3207.12
323.18	2424.80
323.39	2394.08
323.60	2533.34
323.81	2688.98
324.03	2584.54
324.24	2660.31
324.45	2621.40
324.66	2609.11
324.88	2815.96
325.09	2877.40
325.30	2643.93
325.52	2602.97
325.73	2740.18
325.94	2670.55
326.15	2457.56
326.37	2570.20
326.58	2801.62
326.79	2992.08
327.00	2619.35
327.22	2570.20
327.43	2609.11
327.64	2576.34
327.85	2713.56
328.07	2691.03
328.28	3055.57
328.49	2615.26
328.70	2682.84
328.92	2574.30
329.13	2691.03
329.34	2744.28
329.55	2783.19
329.76	2699.22
329.98	2705.37
330.19	2981.84
330.40	2648.02
330.61	2672.60
330.83	2830.29
331.04	2596.82
331.25	2688.98
331.46	2596.82
331.68	2529.24
331.89	2822.10
332.10	2619.35
332.31	2461.66
332.52	2756.57
332.74	2813.91
332.95	2490.33
333.16	2541.53
333.37	2834.39
333.58	2695.13
333.80	2607.06
334.01	2396.12
334.22	2627.54
334.43	2619.35
334.64	2557.91
334.86	2510.81
335.07	2588.63
335.28	2934.74
335.49	2475.99
335.70	2658.26
335.92	2856.92
336.13	2963.41
336.34	2762.71
336.55	2535.39
336.76	2807.77
336.98	2471.90
337.19	2682.84
337.40	2715.61
337.61	2992.08
337.82	2682.84
338.04	2760.66
338.25	2432.99
338.46	2641.88
338.67	2703.32
338.88	2576.34
339.09	2439.13
339.31	2705.37
339.52	2521.05
339.73	2553.82
339.94	2643.93
340.15	2779.09
340.36	2699.22
340.58	2701.27
340.79	2568.15
341.00	2797.53
341.21	2564.06
341.42	2830.29
341.63	2590.68
341.85	2883.54
342.06	2746.33
342.27	2447.32
342.48	2736.09
342.69	2512.86
342.90	2762.71
343.12	2822.10
343.33	2568.15
343.54	2871.25
343.75	2893.78
343.96	2654.17
344.17	2465.75
344.38	2727.89
344.60	2633.69
344.81	2498.52
345.02	2586.58
345.23	2893.78
345.44	3071.95
345.65	2717.65
345.86	2592.73
346.07	2641.88
346.29	2645.98
346.50	2654.17
346.71	2678.74
346.92	2949.08
347.13	2969.55
347.34	2645.98
347.55	2562.01
347.76	2736.09
347.98	2527.19
348.19	2721.75
348.40	2801.62
348.61	2686.94
348.82	2916.31
349.03	2695.13
349.24	2551.77
349.45	2955.22
349.66	2467.80
349.88	2555.86
350.09	2504.67
350.30	2881.49
350.51	2807.77
350.72	2715.61
350.93	2621.40
351.14	2572.25
351.35	2840.53
351.56	2643.93
351.77	2619.35
351.99	2793.43
352.20	2899.92
352.41	2793.43
352.62	2461.66
352.83	2727.89
353.04	2678.74
353.25	2578.39
353.46	2715.61
353.67	2883.54
353.88	2340.83
354.09	2629.59
354.30	2629.59
354.52	2758.61
354.73	2617.30
354.94	2525.15
355.15	2617.30
355.36	3047.38
355.57	2609.11
355.78	2553.82
355.99	2539.48
356.20	2719.70
356.41	2881.49
356.62	2656.22
356.83	2635.74
357.04	2955.22
357.25	2453.47
357.46	2631.64
357.68	2514.91
357.89	2611.16
358.10	2691.03
358.31	2607.06
358.52	2592.73
358.73	2602.97
358.94	2564.06
359.15	2664.41
359.36	2729.94
359.57	2731.99
359.78	2691.03
359.99	2668.50
360.20	2510.81
360.41	2709.46
360.62	2738.13
360.83	2682.84
361.04	2643.93
361.25	2791.38
361.46	2975.70
361.67	2719.70
361.88	2678.74
362.09	2899.92
362.30	2775.00
362.51	2564.06
362.72	2602.97
362.93	2861.01
363.14	2740.18
363.35	2703.32
363.56	2514.91
363.78	2795.48
363.99	2904.02
364.20	2564.06
364.41	2703.32
364.62	3026.90
364.83	2746.33
365.04	2578.39
365.25	2602.97
365.46	2981.84
365.67	2637.78
365.88	2637.78
366.09	2598.87
366.30	2652.12
366.51	2705.37
366.72	2527.19
366.93	2684.89
367.14	2783.19
367.35	2990.03
367.56	2582.49
367.77	2660.31
367.98	2637.78
368.18	2801.62
368.39	2731.99
368.60	2496.47
368.81	2842.58
369.02	2699.22
369.23	2643.93
369.44	2416.60
369.65	2602.97
369.86	2688.98
370.07	2711.51
370.28	2553.82
370.49	2740.18
370.70	2852.82
370.91	2494.43
371.12	2432.99
371.33	2947.03
371.54	2633.69
371.75	2783.19
371.96	2359.26
372.17	2785.24
372.38	2652.12
372.59	2629.59
372.80	2496.47
373.01	2580.44
373.22	2688.98
373.43	2619.35
373.64	2537.43
373.85	2891.73
374.06	2953.17
374.26	2717.65
374.47	2723.80
374.68	2918.36
374.89	2777.05
375.10	2625.50
375.31	2727.89
375.52	2697.17
375.73	2744.28
375.94	2527.19
376.15	2785.24
376.36	2625.50
376.57	2645.98
376.78	2627.54
376.99	2707.41
377.20	2908.12
377.40	2791.38
377.61	2832.34
377.82	2533.34
378.03	2895.83
378.24	2928.60
378.45	2719.70
378.66	2719.70
378.87	2414.56
379.08	2490.33
379.29	2527.19
379.50	2764.76
379.71	2707.41
379.91	2797.53
380.12	2621.40
380.33	2723.80
380.54	2748.37
380.75	2680.79
380.96	2590.68
381.17	2678.74
381.38	2660.31
381.59	2678.74
381.80	2678.74
382.00	2803.67
382.21	2785.24
382.42	2975.70
382.63	2930.64
382.84	2750.42
383.05	2875.35
383.26	3004.37
383.47	2775.00
383.68	2682.84
383.88	2854.87
384.09	2731.99
384.30	2842.58
384.51	2721.75
384.72	2611.16
384.93	2498.52
385.14	2711.51
385.35	2695.13
385.55	2543.58
385.76	2901.97
385.97	2711.51
386.18	2588.63
386.39	2684.89
386.60	2666.46
386.81	2631.64
387.02	2557.91
387.22	2478.04
387.43	2840.53
387.64	2736.09
387.85	2824.15
388.06	2824.15
388.27	4052.93
388.48	7561.10
388.68	10805.08
388.89	13500.21
389.10	14380.84
389.31	13696.82
389.52	10682.20
389.73	9351.03
389.93	8597.37
390.14	7839.62
390.35	7045.01
390.56	6496.16
390.77	5304.24
390.98	4069.31
391.18	3397.58
391.39	3129.30
391.60	2758.61
391.81	2848.72
392.02	2615.26
392.23	3045.33
392.43	2727.89
392.64	2736.09
392.85	2613.21
393.06	2922.45
393.27	2684.89
393.47	2539.48
393.68	2645.98
393.89	2734.04
394.10	2871.25
394.31	2588.63
394.52	2576.34
394.72	2617.30
394.93	2926.55
395.14	2578.39
395.35	2674.65
395.56	2666.46
395.76	2731.99
395.97	2664.41
396.18	2760.66
396.39	2727.89
396.60	3215.31
396.80	2926.55
397.01	2842.58
397.22	2811.86
397.43	2842.58
397.64	2600.92
397.84	2686.94
398.05	3012.56
398.26	2662.36
398.47	2758.61
398.67	2803.67
398.88	2648.02
399.09	2869.20
399.30	2605.02
399.51	2738.13
399.71	2572.25
399.92	2777.05
400.13	2731.99
400.34	2715.61
400.54	2707.41
400.75	2928.60
400.96	2695.13
401.17	2879.44
401.37	2811.86
401.58	2775.00
401.79	2600.92
402.00	2693.08
402.21	3108.82
402.41	2934.74
402.62	2908.12
402.83	2930.64
403.04	3080.14
403.24	3327.95
403.45	2721.75
403.66	2944.98
403.87	2932.69
404.07	3006.42
404.28	2834.39
404.49	2897.88
404.70	2744.28
404.90	2799.57
405.11	2615.26
405.32	2717.65
405.52	2619.35
405.73	2588.63
405.94	2600.92
406.15	2686.94
406.35	2795.48
406.56	2834.39
406.77	2744.28
406.98	2592.73
407.18	2611.16
407.39	2918.36
407.60	2711.51
407.80	2666.46
408.01	2682.84
408.22	2803.67
408.43	2551.77
408.63	2682.84
408.84	2752.47
409.05	2813.91
409.25	2600.92
409.46	2564.06
409.67	2729.94
409.88	2592.73
410.08	2707.41
410.29	2580.44
410.50	2793.43
410.70	2783.19
410.91	2545.63
411.12	2760.66
411.32	2688.98
411.53	2582.49
411.74	2688.98
411.95	2752.47
412.15	2797.53
412.36	2822.10
412.57	2727.89
412.77	2885.59
412.98	2803.67
413.19	2717.65
413.39	2662.36
413.60	2635.74
413.81	2967.51
414.01	2580.44
414.22	2596.82
414.43	2750.42
414.63	2609.11
414.84	2856.92
415.05	2611.16
415.25	2519.00
415.46	2867.16
415.67	2678.74
415.87	2725.85
416.08	2629.59
416.29	2695.13
416.49	2736.09
416.70	2588.63
416.91	2623.45
417.11	2742.23
417.32	2850.77
417.53	2764.76
417.73	2719.70
417.94	2654.17
418.15	2678.74
418.35	2731.99
418.56	2648.02
418.77	3082.19
418.97	2738.13
419.18	2598.87
419.38	2344.92
419.59	2789.33
419.80	2957.27
420.00	2611.16
420.21	2627.54
420.42	2856.92
420.62	2725.85
420.83	2564.06
421.04	2664.41
421.24	2729.94
421.45	2783.19
421.65	2742.23
421.86	2699.22
422.07	2807.77
422.27	2756.57
422.48	2631.64
422.69	2486.23
422.89	2717.65
423.10	2650.07
423.30	2559.96
423.51	2635.74
423.72	2793.43
423.92	2809.81
424.13	2498.52
424.33	2652.12
424.54	2840.53
424.75	2719.70
424.95	2901.97
425.16	2670.55
425.36	2598.87
425.57	2949.08
425.78	2764.76
425.98	2760.66
426.19	2648.02
426.39	2643.93
426.60	2684.89
426.81	2813.91
427.01	2770.90
427.22	2654.17
427.42	2463.71
427.63	2580.44
427.83	2875.35
428.04	3014.61
428.25	2754.52
428.45	2729.94
428.66	2858.96
428.86	2758.61
429.07	2650.07
429.28	2664.41
429.48	2766.81
429.69	2623.45
429.89	2717.65
430.10	2525.15
430.30	2805.72
430.51	2906.07
430.71	2605.02
430.92	2682.84
431.13	2582.49
431.33	2775.00
431.54	2727.89
431.74	2801.62
431.95	3022.80
432.15	2590.68
432.36	2695.13
432.56	2715.61
432.77	2965.46
432.98	3002.32
433.18	2729.94
433.39	2486.23
433.59	2709.46
433.80	3080.14
434.00	2904.02
434.21	2678.74
434.41	2627.54
434.62	3059.67
434.82	2607.06
435.03	2596.82
435.23	2811.86
435.44	2514.91
435.64	2660.31
435.85	2760.66
436.06	2840.53
436.26	2842.58
436.47	2596.82
436.67	2594.78
436.88	2598.87
437.08	2887.64
437.29	2779.09
437.49	2717.65
437.70	2844.63
437.90	2711.51
438.11	2879.44
438.31	2693.08
438.52	2908.12
438.72	2940.88
438.93	2961.36
439.13	2656.22
439.34	2908.12
439.54	2731.99
439.75	2752.47
439.95	2795.48
440.16	2586.58
440.36	2715.61
440.57	2637.78
440.77	2652.12
440.98	2711.51
441.18	2744.28
441.39	2584.54
441.59	2555.86
441.80	3086.29
442.00	2793.43
442.21	2760.66
442.41	2555.86
442.62	2875.35
442.82	2588.63
443.02	2660.31
443.23	2648.02
443.43	2699.22
443.64	2881.49
443.84	2523.10
444.05	2731.99
444.25	2701.27
444.46	2650.07
444.66	2629.59
444.87	2838.48
445.07	2543.58
445.28	2662.36
445.48	2797.53
445.69	2815.96
445.89	3028.95
446.09	2688.98
446.30	2961.36
446.50	3086.29
446.71	4452.28
446.91	5556.14
447.12	6420.38
447.32	6789.02
447.53	6404.00
447.73	5388.21
447.93	4837.30
448.14	4501.44
448.34	4593.59
448.55	3772.36
448.75	3774.41
448.96	3606.47
449.16	3334.09
449.36	3256.27
449.57	2805.72
449.77	2727.89
449.98	2723.80
450.18	2846.68
450.39	2643.93
450.59	2764.76
450.79	2666.46
451.00	2639.83
451.20	2713.56
451.41	2635.74
451.61	2850.77
451.81	2639.83
452.02	2584.54
452.22	2678.74
452.43	2709.46
452.63	2566.10
