SpectraSuite Data File
++++++++++++++++++++++++++++++++++++
Date: Thu May 05 16:20:53 CEST 2016
User: root
Dark Spectrum Present: No
Reference Spectrum Present: No
Number of Sampled Component Spectra: 1
Spectrometers: USB4C02835
Integration Time (usec): 100000 (USB4C02835)
Spectra Averaged: 1 (USB4C02835)
Boxcar Smoothing: 0 (USB4C02835)
Correct for Electrical Dark: No (USB4C02835)
Strobe/Lamp Enabled: No (USB4C02835)
Correct for Detector Non-linearity: No (USB4C02835)
Correct for Stray Light: No (USB4C02835)
Number of Pixels in Processed Spectrum: 3648
>>>>>Begin Processed Spectral Data<<<<<
177.47	1990.63
177.69	1990.63
177.91	1990.63
178.13	2023.39
178.36	2029.54
178.58	2584.54
178.80	2754.52
179.02	2467.80
179.24	2590.68
179.46	2428.89
179.68	2600.92
179.90	2676.70
180.13	2787.29
180.35	2383.84
180.57	2389.98
180.79	2834.39
181.01	2656.22
181.23	2600.92
181.45	2680.79
181.67	2807.77
181.90	2828.24
182.12	2494.43
182.34	2414.56
182.56	2775.00
182.78	2748.37
183.00	2482.14
183.22	2506.71
183.44	2514.91
183.66	3053.52
183.89	2684.89
184.11	2504.67
184.33	2734.04
184.55	2887.64
184.77	2547.67
184.99	2539.48
185.21	2752.47
185.43	3053.52
185.65	2496.47
185.87	2461.66
186.10	3010.51
186.32	3016.66
186.54	2682.84
186.76	2549.72
186.98	2891.73
187.20	2799.57
187.42	2572.25
187.64	2512.86
187.86	2795.48
188.08	2906.07
188.30	2504.67
188.52	2506.71
188.75	2906.07
188.97	2912.21
189.19	2457.56
189.41	2496.47
189.63	2836.44
189.85	2666.46
190.07	2453.47
190.29	2367.45
190.51	2678.74
190.73	2545.63
190.95	2594.78
191.17	2478.04
191.39	2465.75
191.61	2674.65
191.84	2570.20
192.06	2570.20
192.28	2580.44
192.50	3194.83
192.72	2621.40
192.94	2482.14
193.16	2858.96
193.38	2717.65
193.60	2441.18
193.82	2533.34
194.04	2838.48
194.26	2758.61
194.48	2471.90
194.70	2555.86
194.92	2746.33
195.14	2711.51
195.36	2426.84
195.58	2543.58
195.80	2750.42
196.02	2574.30
196.24	2475.99
196.46	2611.16
196.69	2654.17
196.91	2949.08
197.13	2564.06
197.35	2539.48
197.57	2924.50
197.79	2801.62
198.01	2600.92
198.23	2535.39
198.45	2758.61
198.67	2543.58
198.89	2428.89
199.11	2566.10
199.33	2666.46
199.55	2461.66
199.77	2500.57
199.99	2578.39
200.21	2611.16
200.43	2826.20
200.65	2455.51
200.87	2465.75
201.09	2734.04
201.31	2605.02
201.53	2586.58
201.75	2527.19
201.97	2832.34
202.19	2660.31
202.41	2590.68
202.63	2676.70
202.85	2830.29
203.07	2768.85
203.29	2523.10
203.51	2457.56
203.73	2605.02
203.95	3000.27
204.17	2541.53
204.39	2588.63
204.61	2678.74
204.83	2686.94
205.05	2633.69
205.27	2564.06
205.49	3022.80
205.71	2658.26
205.93	2408.41
206.15	2457.56
206.37	2705.37
206.59	2721.75
206.81	2400.22
207.03	2381.79
207.25	2529.24
207.47	2818.00
207.69	2527.19
207.91	2662.36
208.13	2949.08
208.34	2607.06
208.56	2455.51
208.78	2533.34
209.00	2678.74
209.22	2682.84
209.44	2580.44
209.66	2412.51
209.88	2727.89
210.10	2625.50
210.32	2443.23
210.54	2662.36
210.76	2740.18
210.98	2949.08
211.20	2351.07
211.42	2625.50
211.64	2791.38
211.86	2727.89
212.08	2600.92
212.30	2549.72
212.52	2555.86
212.74	2709.46
212.96	2629.59
213.17	2611.16
213.39	2781.14
213.61	2924.50
213.83	2576.34
214.05	2363.36
214.27	2848.72
214.49	2535.39
214.71	2447.32
214.93	2629.59
215.15	2668.50
215.37	2811.86
215.59	2455.51
215.81	2648.02
216.03	2914.26
216.24	2783.19
216.46	2488.28
216.68	2531.29
216.90	2818.00
217.12	2854.87
217.34	2490.33
217.56	2609.11
217.78	2926.55
218.00	2891.73
218.22	2537.43
218.44	2586.58
218.66	2758.61
218.87	3002.32
219.09	2562.01
219.31	2447.32
219.53	2746.33
219.75	2664.41
219.97	2463.71
220.19	2521.05
220.41	2693.08
220.63	3030.99
220.85	2562.01
221.06	2553.82
221.28	2955.22
221.50	2811.86
221.72	2504.67
221.94	2465.75
222.16	2734.04
222.38	2873.30
222.60	2428.89
222.82	2535.39
223.03	2791.38
223.25	2619.35
223.47	2490.33
223.69	2719.70
223.91	2820.05
224.13	2805.72
224.35	2482.14
224.57	2719.70
224.78	2842.58
225.00	2486.23
225.22	2535.39
225.44	2555.86
225.66	2740.18
225.88	2641.88
226.10	2568.15
226.32	2484.19
226.53	2901.97
226.75	2684.89
226.97	2562.01
227.19	2459.61
227.41	2580.44
227.63	2650.07
227.85	2383.84
228.06	2514.91
228.28	2772.95
228.50	2906.07
228.72	2326.49
228.94	2510.81
229.16	2527.19
229.37	2562.01
229.59	2447.32
229.81	2740.18
230.03	2697.17
230.25	2590.68
230.47	2353.12
230.69	2490.33
230.90	2854.87
231.12	2598.87
231.34	2602.97
231.56	2723.80
231.78	2504.67
232.00	2725.85
232.21	2545.63
232.43	2549.72
232.65	2394.08
232.87	2797.53
233.09	2402.27
233.30	2508.76
233.52	2828.24
233.74	2682.84
233.96	2445.27
234.18	2707.41
234.40	2688.98
234.61	2985.94
234.83	2383.84
235.05	2437.08
235.27	3119.06
235.49	2920.40
235.70	2490.33
235.92	2557.91
236.14	2801.62
236.36	3182.54
236.58	2430.94
236.79	2678.74
237.01	2791.38
237.23	2717.65
237.45	2705.37
237.67	2568.15
237.88	2772.95
238.10	2961.36
238.32	2451.42
238.54	2473.95
238.76	2686.94
238.97	2596.82
239.19	2447.32
239.41	2688.98
239.63	2863.06
239.85	2721.75
240.06	2486.23
240.28	2459.61
240.50	2875.35
240.72	2758.61
240.93	2392.03
241.15	2629.59
241.37	2725.85
241.59	2961.36
241.81	2484.19
242.02	2572.25
242.24	2695.13
242.46	2820.05
242.68	2367.45
242.89	2467.80
243.11	2852.82
243.33	2697.17
243.55	2562.01
243.76	2596.82
243.98	2613.21
244.20	2666.46
244.42	2533.34
244.64	2572.25
244.85	2527.19
245.07	2590.68
245.29	2502.62
245.51	2504.67
245.72	2779.09
245.94	2826.20
246.16	2539.48
246.38	2600.92
246.59	2658.26
246.81	2639.83
247.03	2461.66
247.24	2394.08
247.46	2691.03
247.68	2709.46
247.90	2475.99
248.11	2529.24
248.33	2863.06
248.55	2629.59
248.77	2498.52
248.98	2619.35
249.20	2865.11
249.42	2736.09
249.64	2488.28
249.85	2519.00
250.07	2555.86
250.29	2875.35
250.50	2551.77
250.72	2455.51
250.94	2758.61
251.16	2965.46
251.37	2572.25
251.59	2555.86
251.81	2789.33
252.02	2904.02
252.24	2420.70
252.46	2635.74
252.68	2633.69
252.89	2611.16
253.11	2334.68
253.33	2617.30
253.54	2971.60
253.76	2543.58
253.98	2533.34
254.20	2445.27
254.41	2519.00
254.63	2756.57
254.85	2437.08
255.06	2510.81
255.28	2777.05
255.50	2693.08
255.71	2439.13
255.93	2367.45
256.15	2688.98
256.36	2801.62
256.58	2418.65
256.80	2473.95
257.02	2645.98
257.23	2670.55
257.45	2625.50
257.67	2662.36
257.88	2639.83
258.10	2781.14
258.32	2572.25
258.53	2564.06
258.75	2985.94
258.97	2631.64
259.18	2453.47
259.40	2482.14
259.62	2992.08
259.83	2918.36
260.05	2527.19
260.27	3233.74
260.48	2805.72
260.70	2449.37
260.92	2475.99
261.13	2539.48
261.35	2705.37
261.57	2725.85
261.78	2449.37
262.00	2455.51
262.22	2719.70
262.43	2627.54
262.65	2480.09
262.86	2547.67
263.08	3119.06
263.30	2731.99
263.51	2383.84
263.73	2539.48
263.95	2944.98
264.16	2564.06
264.38	2443.23
264.60	2392.03
264.81	2760.66
265.03	2834.39
265.25	2727.89
265.46	2486.23
265.68	2865.11
265.89	2813.91
266.11	2420.70
266.33	2574.30
266.54	2865.11
266.76	2813.91
266.98	2572.25
267.19	2686.94
267.41	2899.92
267.62	2777.05
267.84	2371.55
268.06	2596.82
268.27	2756.57
268.49	2838.48
268.70	2621.40
268.92	2519.00
269.14	2553.82
269.35	2514.91
269.57	2568.15
269.79	2543.58
270.00	2588.63
270.22	3035.09
270.43	2426.84
270.65	2330.59
270.87	2766.81
271.08	2785.24
271.30	2596.82
271.51	2523.10
271.73	2740.18
271.95	2877.40
272.16	2475.99
272.38	2611.16
272.59	2643.93
272.81	2854.87
273.02	2529.24
273.24	2570.20
273.46	2949.08
273.67	2564.06
273.89	2408.41
274.10	2455.51
274.32	2940.88
274.54	2744.28
274.75	2572.25
274.97	2564.06
275.18	2914.26
275.40	2867.16
275.61	2555.86
275.83	2654.17
276.05	2480.09
276.26	2729.94
276.48	2650.07
276.69	2693.08
276.91	2715.61
277.12	2897.88
277.34	2678.74
277.55	2738.13
277.77	2764.76
277.99	2621.40
278.20	2580.44
278.42	2498.52
278.63	2619.35
278.85	2607.06
279.06	2539.48
279.28	2686.94
279.49	2785.24
279.71	2871.25
279.93	2682.84
280.14	2592.73
280.36	2580.44
280.57	2908.12
280.79	2654.17
281.00	2496.47
281.22	2607.06
281.43	2893.78
281.65	2381.79
281.86	2525.15
282.08	2760.66
282.29	3043.28
282.51	2451.42
282.73	2461.66
282.94	2504.67
283.16	2852.82
283.37	2695.13
283.59	2623.45
283.80	2840.53
284.02	2734.04
284.23	2666.46
284.45	2629.59
284.66	2611.16
284.88	2564.06
285.09	2619.35
285.31	2643.93
285.52	2783.19
285.74	2562.01
285.95	2795.48
286.17	2637.78
286.38	2906.07
286.60	2664.41
286.81	2576.34
287.03	2668.50
287.24	2652.12
287.46	2826.20
287.67	2731.99
287.89	2858.96
288.10	2738.13
288.32	2713.56
288.53	2783.19
288.75	2658.26
288.96	2709.46
289.18	2617.30
289.39	2572.25
289.61	2719.70
289.82	3104.72
290.04	3047.38
290.25	2531.29
290.47	2672.60
290.68	2654.17
290.90	2928.60
291.11	2437.08
291.33	2666.46
291.54	2686.94
291.76	2617.30
291.97	2643.93
292.18	2711.51
292.40	2656.22
292.61	2639.83
292.83	2875.35
293.04	2654.17
293.26	2744.28
293.47	2742.23
293.69	2531.29
293.90	2596.82
294.12	2914.26
294.33	2760.66
294.55	2627.54
294.76	2684.89
294.97	2842.58
295.19	3004.37
295.40	2588.63
295.62	2707.41
295.83	2887.64
296.05	2641.88
296.26	2789.33
296.48	2580.44
296.69	2738.13
296.90	2768.85
297.12	2791.38
297.33	2807.77
297.55	2723.80
297.76	2791.38
297.98	2699.22
298.19	2643.93
298.41	2746.33
298.62	2555.86
298.83	2805.72
299.05	2688.98
299.26	2627.54
299.48	2564.06
299.69	2707.41
299.90	2562.01
300.12	2557.91
300.33	2836.44
300.55	2633.69
300.76	2615.26
300.98	2555.86
301.19	2852.82
301.40	2584.54
301.62	2600.92
301.83	2813.91
302.05	2785.24
302.26	2588.63
302.47	2752.47
302.69	2523.10
302.90	2676.70
303.12	2414.56
303.33	2686.94
303.54	3039.19
303.76	2672.60
303.97	2580.44
304.19	2734.04
304.40	2602.97
304.61	2748.37
304.83	2762.71
305.04	2752.47
305.26	2791.38
305.47	2684.89
305.68	2654.17
305.90	2553.82
306.11	2957.27
306.33	2639.83
306.54	2471.90
306.75	2578.39
306.97	2482.14
307.18	2557.91
307.39	2670.55
307.61	2648.02
307.82	2693.08
308.04	2783.19
308.25	2514.91
308.46	2703.32
308.68	2742.23
308.89	2715.61
309.10	2731.99
309.32	2602.97
309.53	2736.09
309.74	2744.28
309.96	2592.73
310.17	2766.81
310.39	2660.31
310.60	2840.53
310.81	2623.45
311.03	2502.62
311.24	2846.68
311.45	2731.99
311.67	2775.00
311.88	2691.03
312.09	2670.55
312.31	2609.11
312.52	2631.64
312.73	2588.63
312.95	2498.52
313.16	2607.06
313.37	2764.76
313.59	2746.33
313.80	2858.96
314.01	2965.46
314.23	2506.71
314.44	2498.52
314.65	2559.96
314.87	2645.98
315.08	2613.21
315.29	2523.10
315.51	2564.06
315.72	2529.24
315.93	2701.27
316.15	2682.84
316.36	2654.17
316.57	2629.59
316.79	2750.42
317.00	2539.48
317.21	2877.40
317.43	2594.78
317.64	2686.94
317.85	2627.54
318.07	2609.11
318.28	2656.22
318.49	2691.03
318.70	2836.44
318.92	2818.00
319.13	2832.34
319.34	2858.96
319.56	2592.73
319.77	2795.48
319.98	2883.54
320.20	2799.57
320.41	2709.46
320.62	2777.05
320.83	2637.78
321.05	2891.73
321.26	2625.50
321.47	2719.70
321.69	2887.64
321.90	2414.56
322.11	2568.15
322.32	2815.96
322.54	3000.27
322.75	2527.19
322.96	3147.73
323.18	2578.39
323.39	2478.04
323.60	2621.40
323.81	2717.65
324.03	2637.78
324.24	2695.13
324.45	2643.93
324.66	2629.59
324.88	2846.68
325.09	2936.79
325.30	2600.92
325.52	2562.01
325.73	2785.24
325.94	2564.06
326.15	2486.23
326.37	2508.76
326.58	2813.91
326.79	3071.95
327.00	2549.72
327.22	2590.68
327.43	2658.26
327.64	2471.90
327.85	2701.27
328.07	2621.40
328.28	2959.31
328.49	2600.92
328.70	2703.32
328.92	2566.10
329.13	2637.78
329.34	2777.05
329.55	2811.86
329.76	2703.32
329.98	2727.89
330.19	2979.79
330.40	2617.30
330.61	2725.85
330.83	2793.43
331.04	2553.82
331.25	2617.30
331.46	2643.93
331.68	2521.05
331.89	2863.06
332.10	2596.82
332.31	2506.71
332.52	2754.52
332.74	2873.30
332.95	2525.15
333.16	2557.91
333.37	2797.53
333.58	2594.78
333.80	2621.40
334.01	2408.41
334.22	2691.03
334.43	2629.59
334.64	2592.73
334.86	2519.00
335.07	2648.02
335.28	2924.50
335.49	2523.10
335.70	2680.79
335.92	2848.72
336.13	2977.75
336.34	2721.75
336.55	2611.16
336.76	2807.77
336.98	2500.57
337.19	2580.44
337.40	2746.33
337.61	3106.77
337.82	2652.12
338.04	2752.47
338.25	2389.98
338.46	2719.70
338.67	2627.54
338.88	2564.06
339.09	2508.76
339.31	2639.83
339.52	2582.49
339.73	2420.70
339.94	2676.70
340.15	2824.15
340.36	2668.50
340.58	2600.92
340.79	2521.05
341.00	2869.20
341.21	2519.00
341.42	2897.88
341.63	2559.96
341.85	2830.29
342.06	2686.94
342.27	2596.82
342.48	2709.46
342.69	2475.99
342.90	2779.09
343.12	2834.39
343.33	2527.19
343.54	2785.24
343.75	2975.70
343.96	2697.17
344.17	2609.11
344.38	2703.32
344.60	2584.54
344.81	2480.09
345.02	2576.34
345.23	2789.33
345.44	3131.34
345.65	2691.03
345.86	2645.98
346.07	2699.22
346.29	2637.78
346.50	2742.23
346.71	2631.64
346.92	2985.94
347.13	2983.89
347.34	2617.30
347.55	2557.91
347.76	2695.13
347.98	2443.23
348.19	2656.22
348.40	2750.42
348.61	2592.73
348.82	2930.64
349.03	2619.35
349.24	2609.11
349.45	3094.48
349.66	2432.99
349.88	2574.30
350.09	2514.91
350.30	2940.88
350.51	2920.40
350.72	2793.43
350.93	2615.26
351.14	2654.17
351.35	2738.13
351.56	2594.78
351.77	2750.42
351.99	2777.05
352.20	2893.78
352.41	2711.51
352.62	2453.47
352.83	2707.41
353.04	2703.32
353.25	2580.44
353.46	2752.47
353.67	2863.06
353.88	2498.52
354.09	2645.98
354.30	2629.59
354.52	2836.44
354.73	2654.17
354.94	2564.06
355.15	2648.02
355.36	3033.04
355.57	2682.84
355.78	2645.98
355.99	2551.77
356.20	2654.17
356.41	2918.36
356.62	2744.28
356.83	2633.69
357.04	3002.32
357.25	2521.05
357.46	2582.49
357.68	2447.32
357.89	2613.21
358.10	2734.04
358.31	2602.97
358.52	2631.64
358.73	2527.19
358.94	2596.82
359.15	2555.86
359.36	2699.22
359.57	2719.70
359.78	2701.27
359.99	2793.43
360.20	2551.77
360.41	2750.42
360.62	2840.53
360.83	2715.61
361.04	2648.02
361.25	2850.77
361.46	2992.08
361.67	2731.99
361.88	2682.84
362.09	2811.86
362.30	2678.74
362.51	2469.85
362.72	2633.69
362.93	2758.61
363.14	2719.70
363.35	2639.83
363.56	2492.38
363.78	2901.97
363.99	2852.82
364.20	2607.06
364.41	2707.41
364.62	3067.86
364.83	2742.23
365.04	2688.98
365.25	2637.78
365.46	3051.47
365.67	2539.48
365.88	2695.13
366.09	2562.01
366.30	2635.74
366.51	2652.12
366.72	2539.48
366.93	2660.31
367.14	2791.38
367.35	2854.87
367.56	2549.72
367.77	2783.19
367.98	2678.74
368.18	2783.19
368.39	2760.66
368.60	2543.58
368.81	2932.69
369.02	2725.85
369.23	2639.83
369.44	2490.33
369.65	2627.54
369.86	2832.34
370.07	2734.04
370.28	2523.10
370.49	2729.94
370.70	2775.00
370.91	2545.63
371.12	2441.18
371.33	2938.84
371.54	2703.32
371.75	2775.00
371.96	2375.64
372.17	2750.42
372.38	2703.32
372.59	2697.17
372.80	2535.39
373.01	2686.94
373.22	2684.89
373.43	2643.93
373.64	2435.03
373.85	2869.20
374.06	3006.42
374.26	2838.48
374.47	2699.22
374.68	3004.37
374.89	2818.00
375.10	2555.86
375.31	2727.89
375.52	2717.65
375.73	2783.19
375.94	2510.81
376.15	2826.20
376.36	2662.36
376.57	2652.12
376.78	2680.79
376.99	2707.41
377.20	2889.68
377.40	2627.54
377.61	2910.16
377.82	2605.02
378.03	2938.84
378.24	2797.53
378.45	2639.83
378.66	2695.13
378.87	2523.10
379.08	2471.90
379.29	2605.02
379.50	2715.61
379.71	2668.50
379.91	2891.73
380.12	2602.97
380.33	2674.65
380.54	2717.65
380.75	2691.03
380.96	2645.98
381.17	2707.41
381.38	2682.84
381.59	2727.89
381.80	2617.30
382.00	2813.91
382.21	2711.51
382.42	2949.08
382.63	2949.08
382.84	2699.22
383.05	2811.86
383.26	2930.64
383.47	2650.07
383.68	2691.03
383.88	2844.63
384.09	2787.29
384.30	2858.96
384.51	2713.56
384.72	2664.41
384.93	2523.10
385.14	2605.02
385.35	2895.83
385.55	2512.86
385.76	2899.92
385.97	2695.13
386.18	2490.33
386.39	2578.39
386.60	2631.64
386.81	2633.69
387.02	2562.01
387.22	2496.47
387.43	2815.96
387.64	2709.46
387.85	2799.57
388.06	2789.33
388.27	3973.06
388.48	7552.91
388.68	10821.47
388.89	13328.18
389.10	14534.43
389.31	13791.02
389.52	10878.81
389.73	9279.35
389.93	8501.12
390.14	7751.56
390.35	7040.92
390.56	6311.84
390.77	5167.03
390.98	4087.75
391.18	3450.83
391.39	3112.91
391.60	2744.28
391.81	2873.30
392.02	2586.58
392.23	3133.39
392.43	2785.24
392.64	2750.42
392.85	2705.37
393.06	3022.80
393.27	2719.70
393.47	2594.78
393.68	2678.74
393.89	2693.08
394.10	2924.50
394.31	2529.24
394.52	2523.10
394.72	2650.07
394.93	2936.79
395.14	2490.33
395.35	2740.18
395.56	2625.50
395.76	2752.47
395.97	2584.54
396.18	2777.05
396.39	2830.29
396.60	3284.94
396.80	2883.54
397.01	2779.09
397.22	2852.82
397.43	2912.21
397.64	2633.69
397.84	2764.76
398.05	3045.33
398.26	2729.94
398.47	2789.33
398.67	2842.58
398.88	2781.14
399.09	2871.25
399.30	2654.17
399.51	2746.33
399.71	2670.55
399.92	2660.31
400.13	2713.56
400.34	2564.06
400.54	2645.98
400.75	2967.51
400.96	2641.88
401.17	2834.39
401.37	2834.39
401.58	2691.03
401.79	2643.93
402.00	2731.99
402.21	3121.10
402.41	2897.88
402.62	2842.58
402.83	2944.98
403.04	3119.06
403.24	3420.11
403.45	2744.28
403.66	2897.88
403.87	2854.87
404.07	3008.47
404.28	2858.96
404.49	2875.35
404.70	2756.57
404.90	2844.63
405.11	2662.36
405.32	2715.61
405.52	2645.98
405.73	2627.54
405.94	2580.44
406.15	2656.22
406.35	2865.11
406.56	2801.62
406.77	2688.98
406.98	2756.57
407.18	2588.63
407.39	2990.03
407.60	2676.70
407.80	2731.99
408.01	2680.79
408.22	2828.24
408.43	2572.25
408.63	2701.27
408.84	2879.44
409.05	2836.44
409.25	2521.05
409.46	2557.91
409.67	2666.46
409.88	2645.98
410.08	2713.56
410.29	2594.78
410.50	2848.72
410.70	2697.17
410.91	2547.67
411.12	2648.02
411.32	2639.83
411.53	2607.06
411.74	2707.41
411.95	2734.04
412.15	2768.85
412.36	2824.15
412.57	2799.57
412.77	2863.06
412.98	2697.17
413.19	2629.59
413.39	2703.32
413.60	2633.69
413.81	2908.12
414.01	2521.05
414.22	2695.13
414.43	2758.61
414.63	2645.98
414.84	2828.24
415.05	2625.50
415.25	2564.06
415.46	2867.16
415.67	2650.07
415.87	2731.99
416.08	2691.03
416.29	2705.37
416.49	2813.91
416.70	2566.10
416.91	2660.31
417.11	2697.17
417.32	2850.77
417.53	2670.55
417.73	2693.08
417.94	2742.23
418.15	2734.04
418.35	2693.08
418.56	2688.98
418.77	3076.05
418.97	2793.43
419.18	2703.32
419.38	2349.02
419.59	2654.17
419.80	2944.98
420.00	2572.25
420.21	2682.84
420.42	2930.64
420.62	2695.13
420.83	2602.97
421.04	2639.83
421.24	2715.61
421.45	2811.86
421.65	2674.65
421.86	2562.01
422.07	2901.97
422.27	2797.53
422.48	2715.61
422.69	2406.36
422.89	2783.19
423.10	2670.55
423.30	2506.71
423.51	2621.40
423.72	2809.81
423.92	2826.20
424.13	2545.63
424.33	2693.08
424.54	2828.24
424.75	2703.32
424.95	2826.20
425.16	2658.26
425.36	2705.37
425.57	2883.54
425.78	2758.61
425.98	2789.33
426.19	2676.70
426.39	2615.26
426.60	2691.03
426.81	2822.10
427.01	2709.46
427.22	2613.21
427.42	2426.84
427.63	2531.29
427.83	2846.68
428.04	2891.73
428.25	2715.61
428.45	2797.53
428.66	2904.02
428.86	2637.78
429.07	2555.86
429.28	2660.31
429.48	2705.37
429.69	2629.59
429.89	2715.61
430.10	2465.75
430.30	2795.48
430.51	2875.35
430.71	2564.06
430.92	2656.22
431.13	2611.16
431.33	2883.54
431.54	2783.19
431.74	2908.12
431.95	3028.95
432.15	2652.12
432.36	2744.28
432.56	2795.48
432.77	3004.37
432.98	2959.31
433.18	2711.51
433.39	2600.92
433.59	2719.70
433.80	2959.31
434.00	2947.03
434.21	2600.92
434.41	2629.59
434.62	3018.71
434.82	2535.39
435.03	2521.05
435.23	2840.53
435.44	2432.99
435.64	2596.82
435.85	2707.41
436.06	2777.05
436.26	2838.48
436.47	2658.26
436.67	2598.87
436.88	2729.94
437.08	2793.43
437.29	2756.57
437.49	2701.27
437.70	2867.16
437.90	2734.04
438.11	2797.53
438.31	2686.94
438.52	2953.17
438.72	2955.22
438.93	2969.55
439.13	2701.27
439.34	2783.19
439.54	2736.09
439.75	2740.18
439.95	2775.00
440.16	2660.31
440.36	2662.36
440.57	2709.46
440.77	2697.17
440.98	2744.28
441.18	2768.85
441.39	2549.72
441.59	2594.78
441.80	3028.95
442.00	2711.51
442.21	2715.61
442.41	2512.86
442.62	2891.73
442.82	2693.08
443.02	2674.65
443.23	2656.22
443.43	2688.98
443.64	2916.31
443.84	2519.00
444.05	2750.42
444.25	2709.46
444.46	2629.59
444.66	2684.89
444.87	2871.25
445.07	2531.29
445.28	2637.78
445.48	2777.05
445.69	2697.17
445.89	3174.35
446.09	2711.51
446.30	2953.17
446.50	3082.19
446.71	4544.44
446.91	5654.44
447.12	6334.37
447.32	6920.09
447.53	6455.20
447.73	5322.67
447.93	4677.56
448.14	4444.09
448.34	4472.76
448.55	3817.41
448.75	3868.61
448.96	3612.62
449.16	3405.77
449.36	3350.48
449.57	2879.44
449.77	2791.38
449.98	2684.89
450.18	2822.10
450.39	2592.73
450.59	2861.01
450.79	2727.89
451.00	2727.89
451.20	2826.20
451.41	2648.02
451.61	2795.48
451.81	2686.94
452.02	2537.43
452.22	2666.46
452.43	2641.88
452.63	2625.50
