SpectraSuite Data File
++++++++++++++++++++++++++++++++++++
Date: Thu May 05 16:20:31 CEST 2016
User: root
Dark Spectrum Present: No
Reference Spectrum Present: No
Number of Sampled Component Spectra: 1
Spectrometers: USB4C02835
Integration Time (usec): 100000 (USB4C02835)
Spectra Averaged: 1 (USB4C02835)
Boxcar Smoothing: 0 (USB4C02835)
Correct for Electrical Dark: No (USB4C02835)
Strobe/Lamp Enabled: No (USB4C02835)
Correct for Detector Non-linearity: No (USB4C02835)
Correct for Stray Light: No (USB4C02835)
Number of Pixels in Processed Spectrum: 3648
>>>>>Begin Processed Spectral Data<<<<<
177.47	2119.65
177.69	2119.65
177.91	2119.65
178.13	2037.73
178.36	2031.58
178.58	2529.24
178.80	2748.37
179.02	2471.90
179.24	2516.95
179.46	2447.32
179.68	2545.63
179.90	2664.41
180.13	2842.58
180.35	2484.19
180.57	2519.00
180.79	2772.95
181.01	2729.94
181.23	2541.53
181.45	2631.64
181.67	2731.99
181.90	2752.47
182.12	2527.19
182.34	2379.74
182.56	2822.10
182.78	2711.51
183.00	2488.28
183.22	2527.19
183.44	2428.89
183.66	3055.57
183.89	2676.70
184.11	2547.67
184.33	2881.49
184.55	2987.99
184.77	2510.81
184.99	2568.15
185.21	2693.08
185.43	3067.86
185.65	2490.33
185.87	2439.13
186.10	3069.91
186.32	3090.38
186.54	2621.40
186.76	2639.83
186.98	2871.25
187.20	2738.13
187.42	2459.61
187.64	2482.14
187.86	2779.09
188.08	2906.07
188.30	2430.94
188.52	2504.67
188.75	2955.22
188.97	2901.97
189.19	2527.19
189.41	2498.52
189.63	2764.76
189.85	2660.31
190.07	2383.84
190.29	2443.23
190.51	2799.57
190.73	2588.63
190.95	2693.08
191.17	2553.82
191.39	2562.01
191.61	2688.98
191.84	2580.44
192.06	2555.86
192.28	2539.48
192.50	3176.40
192.72	2686.94
192.94	2605.02
193.16	2881.49
193.38	2809.81
193.60	2506.71
193.82	2631.64
194.04	2834.39
194.26	2742.23
194.48	2543.58
194.70	2482.14
194.92	2707.41
195.14	2858.96
195.36	2539.48
195.58	2478.04
195.80	2723.80
196.02	2531.29
196.24	2498.52
196.46	2562.01
196.69	2627.54
196.91	3114.96
197.13	2467.80
197.35	2459.61
197.57	2947.03
197.79	2791.38
198.01	2586.58
198.23	2490.33
198.45	2785.24
198.67	2570.20
198.89	2330.59
199.11	2602.97
199.33	2605.02
199.55	2389.98
199.77	2402.27
199.99	2693.08
200.21	2668.50
200.43	2740.18
200.65	2443.23
200.87	2310.11
201.09	2740.18
201.31	2711.51
201.53	2559.96
201.75	2576.34
201.97	2764.76
202.19	2697.17
202.41	2590.68
202.63	2686.94
202.85	2820.05
203.07	2781.14
203.29	2574.30
203.51	2461.66
203.73	2678.74
203.95	3092.43
204.17	2535.39
204.39	2564.06
204.61	2641.88
204.83	2643.93
205.05	2559.96
205.27	2572.25
205.49	3063.76
205.71	2719.70
205.93	2346.97
206.15	2441.18
206.37	2662.36
206.59	2695.13
206.81	2346.97
207.03	2473.95
207.25	2547.67
207.47	2854.87
207.69	2496.47
207.91	2723.80
208.13	2897.88
208.34	2664.41
208.56	2338.78
208.78	2516.95
209.00	2676.70
209.22	2596.82
209.44	2586.58
209.66	2398.17
209.88	2723.80
210.10	2699.22
210.32	2545.63
210.54	2617.30
210.76	2670.55
210.98	2768.85
211.20	2340.83
211.42	2588.63
211.64	2889.68
211.86	2865.11
212.08	2535.39
212.30	2512.86
212.52	2717.65
212.74	2867.16
212.96	2549.72
213.17	2596.82
213.39	2844.63
213.61	2932.69
213.83	2545.63
214.05	2398.17
214.27	2795.48
214.49	2555.86
214.71	2418.65
214.93	2639.83
215.15	2734.04
215.37	2885.59
215.59	2394.08
215.81	2580.44
216.03	2869.20
216.24	2742.23
216.46	2512.86
216.68	2512.86
216.90	2863.06
217.12	2877.40
217.34	2457.56
217.56	2613.21
217.78	2858.96
218.00	2760.66
218.22	2695.13
218.44	2527.19
218.66	2785.24
218.87	2916.31
219.09	2490.33
219.31	2533.34
219.53	2775.00
219.75	2670.55
219.97	2611.16
220.19	2543.58
220.41	2664.41
220.63	3006.42
220.85	2469.85
221.06	2531.29
221.28	2895.83
221.50	2793.43
221.72	2512.86
221.94	2586.58
222.16	2723.80
222.38	2940.88
222.60	2521.05
222.82	2490.33
223.03	2863.06
223.25	2547.67
223.47	2559.96
223.69	2635.74
223.91	2787.29
224.13	2772.95
224.35	2439.13
224.57	2645.98
224.78	2797.53
225.00	2494.43
225.22	2580.44
225.44	2504.67
225.66	2799.57
225.88	2633.69
226.10	2678.74
226.32	2432.99
226.53	2873.30
226.75	2727.89
226.97	2553.82
227.19	2510.81
227.41	2686.94
227.63	2645.98
227.85	2334.68
228.06	2531.29
228.28	2740.18
228.50	2768.85
228.72	2349.02
228.94	2469.85
229.16	2443.23
229.37	2613.21
229.59	2457.56
229.81	2725.85
230.03	2600.92
230.25	2531.29
230.47	2326.49
230.69	2486.23
230.90	2801.62
231.12	2633.69
231.34	2523.10
231.56	2559.96
231.78	2621.40
232.00	2715.61
232.21	2523.10
232.43	2482.14
232.65	2402.27
232.87	2772.95
233.09	2363.36
233.30	2516.95
233.52	2848.72
233.74	2711.51
233.96	2463.71
234.18	2600.92
234.40	2666.46
234.61	3069.91
234.83	2422.75
235.05	2506.71
235.27	3139.54
235.49	2883.54
235.70	2465.75
235.92	2570.20
236.14	2695.13
236.36	3096.53
236.58	2490.33
236.79	2615.26
237.01	2746.33
237.23	2670.55
237.45	2772.95
237.67	2488.28
237.88	2744.28
238.10	2985.94
238.32	2482.14
238.54	2539.48
238.76	2750.42
238.97	2668.50
239.19	2451.42
239.41	2598.87
239.63	2871.25
239.85	2596.82
240.06	2578.39
240.28	2486.23
240.50	2807.77
240.72	2723.80
240.93	2465.75
241.15	2670.55
241.37	2725.85
241.59	2840.53
241.81	2531.29
242.02	2531.29
242.24	2811.86
242.46	2803.67
242.68	2432.99
242.89	2435.03
243.11	2852.82
243.33	2645.98
243.55	2512.86
243.76	2519.00
243.98	2588.63
244.20	2723.80
244.42	2502.62
244.64	2562.01
244.85	2537.43
245.07	2572.25
245.29	2531.29
245.51	2527.19
245.72	2748.37
245.94	2883.54
246.16	2512.86
246.38	2494.43
246.59	2678.74
246.81	2648.02
247.03	2430.94
247.24	2363.36
247.46	2566.10
247.68	2664.41
247.90	2531.29
248.11	2545.63
248.33	2809.81
248.55	2695.13
248.77	2510.81
248.98	2629.59
249.20	2996.18
249.42	2721.75
249.64	2543.58
249.85	2396.12
250.07	2709.46
250.29	2842.58
250.50	2574.30
250.72	2412.51
250.94	2766.81
251.16	3004.37
251.37	2498.52
251.59	2574.30
251.81	2887.64
252.02	2996.18
252.24	2486.23
252.46	2695.13
252.68	2654.17
252.89	2584.54
253.11	2398.17
253.33	2691.03
253.54	2836.44
253.76	2578.39
253.98	2480.09
254.20	2451.42
254.41	2449.37
254.63	2586.58
254.85	2482.14
255.06	2582.49
255.28	2813.91
255.50	2760.66
255.71	2463.71
255.93	2353.12
256.15	2713.56
256.36	2809.81
256.58	2422.75
256.80	2439.13
257.02	2729.94
257.23	2709.46
257.45	2598.87
257.67	2611.16
257.88	2660.31
258.10	2906.07
258.32	2461.66
258.53	2533.34
258.75	2914.26
258.97	2596.82
259.18	2432.99
259.40	2494.43
259.62	2928.60
259.83	2863.06
260.05	2537.43
260.27	3162.06
260.48	2781.14
260.70	2553.82
260.92	2424.80
261.13	2523.10
261.35	2711.51
261.57	2795.48
261.78	2418.65
262.00	2490.33
262.22	2854.87
262.43	2643.93
262.65	2445.27
262.86	2535.39
263.08	3074.00
263.30	2768.85
263.51	2392.03
263.73	2451.42
263.95	2940.88
264.16	2588.63
264.38	2389.98
264.60	2506.71
264.81	2713.56
265.03	2836.44
265.25	2793.43
265.46	2500.57
265.68	2858.96
265.89	2809.81
266.11	2359.26
266.33	2537.43
266.54	2879.44
266.76	2910.16
266.98	2588.63
267.19	2654.17
267.41	2893.78
267.62	2705.37
267.84	2426.84
268.06	2578.39
268.27	2729.94
268.49	2838.48
268.70	2555.86
268.92	2514.91
269.14	2588.63
269.35	2490.33
269.57	2645.98
269.79	2617.30
270.00	2600.92
270.22	3071.95
270.43	2412.51
270.65	2410.46
270.87	2748.37
271.08	2811.86
271.30	2598.87
271.51	2504.67
271.73	2799.57
271.95	2914.26
272.16	2484.19
272.38	2584.54
272.59	2621.40
272.81	2836.44
273.02	2488.28
273.24	2631.64
273.46	2881.49
273.67	2490.33
273.89	2406.36
274.10	2484.19
274.32	2887.64
274.54	2627.54
274.75	2631.64
274.97	2631.64
275.18	2838.48
275.40	2846.68
275.61	2578.39
275.83	2615.26
276.05	2547.67
276.26	2734.04
276.48	2709.46
276.69	2602.97
276.91	2576.34
277.12	2830.29
277.34	2633.69
277.55	2725.85
277.77	2748.37
277.99	2676.70
278.20	2623.45
278.42	2535.39
278.63	2662.36
278.85	2531.29
279.06	2559.96
279.28	2762.71
279.49	2775.00
279.71	2764.76
279.93	2629.59
280.14	2664.41
280.36	2549.72
280.57	2965.46
280.79	2670.55
281.00	2496.47
281.22	2654.17
281.43	2805.72
281.65	2404.32
281.86	2512.86
282.08	2742.23
282.29	3051.47
282.51	2502.62
282.73	2475.99
282.94	2506.71
283.16	2772.95
283.37	2699.22
283.59	2645.98
283.80	2807.77
284.02	2746.33
284.23	2703.32
284.45	2660.31
284.66	2551.77
284.88	2605.02
285.09	2623.45
285.31	2701.27
285.52	2727.89
285.74	2529.24
285.95	2762.71
286.17	2650.07
286.38	2834.39
286.60	2650.07
286.81	2559.96
287.03	2652.12
287.24	2772.95
287.46	2770.90
287.67	2676.70
287.89	2820.05
288.10	2711.51
288.32	2791.38
288.53	2766.81
288.75	2621.40
288.96	2811.86
289.18	2662.36
289.39	2551.77
289.61	2607.06
289.82	2930.64
290.04	2996.18
290.25	2559.96
290.47	2637.78
290.68	2670.55
290.90	2852.82
291.11	2451.42
291.33	2711.51
291.54	2596.82
291.76	2584.54
291.97	2715.61
292.18	2645.98
292.40	2594.78
292.61	2670.55
292.83	2809.81
293.04	2744.28
293.26	2691.03
293.47	2650.07
293.69	2506.71
293.90	2613.21
294.12	2822.10
294.33	2668.50
294.55	2701.27
294.76	2721.75
294.97	3006.42
295.19	3024.85
295.40	2594.78
295.62	2701.27
295.83	2893.78
296.05	2602.97
296.26	2766.81
296.48	2566.10
296.69	2672.60
296.90	2738.13
297.12	2699.22
297.33	2742.23
297.55	2758.61
297.76	2785.24
297.98	2717.65
298.19	2703.32
298.41	2695.13
298.62	2627.54
298.83	2799.57
299.05	2668.50
299.26	2635.74
299.48	2580.44
299.69	2760.66
299.90	2609.11
300.12	2645.98
300.33	2770.90
300.55	2619.35
300.76	2650.07
300.98	2562.01
301.19	2818.00
301.40	2676.70
301.62	2621.40
301.83	2736.09
302.05	2635.74
302.26	2576.34
302.47	2637.78
302.69	2594.78
302.90	2705.37
303.12	2469.85
303.33	2662.36
303.54	2977.75
303.76	2648.02
303.97	2641.88
304.19	2756.57
304.40	2574.30
304.61	2869.20
304.83	2768.85
305.04	2707.41
305.26	2744.28
305.47	2623.45
305.68	2662.36
305.90	2551.77
306.11	2924.50
306.33	2729.94
306.54	2562.01
306.75	2486.23
306.97	2496.47
307.18	2576.34
307.39	2576.34
307.61	2727.89
307.82	2648.02
308.04	2801.62
308.25	2519.00
308.46	2605.02
308.68	2701.27
308.89	2742.23
309.10	2717.65
309.32	2637.78
309.53	2656.22
309.74	2801.62
309.96	2607.06
310.17	2760.66
310.39	2672.60
310.60	2822.10
310.81	2629.59
311.03	2547.67
311.24	2867.16
311.45	2709.46
311.67	2834.39
311.88	2703.32
312.09	2602.97
312.31	2670.55
312.52	2568.15
312.73	2482.14
312.95	2531.29
313.16	2635.74
313.37	2799.57
313.59	2731.99
313.80	2793.43
314.01	2924.50
314.23	2580.44
314.44	2469.85
314.65	2492.38
314.87	2654.17
315.08	2590.68
315.29	2594.78
315.51	2658.26
315.72	2557.91
315.93	2719.70
316.15	2643.93
316.36	2662.36
316.57	2602.97
316.79	2613.21
317.00	2523.10
317.21	2768.85
317.43	2633.69
317.64	2678.74
317.85	2594.78
318.07	2637.78
318.28	2715.61
318.49	2736.09
318.70	2840.53
318.92	2803.67
319.13	2799.57
319.34	2766.81
319.56	2578.39
319.77	2895.83
319.98	2828.24
320.20	2875.35
320.41	2756.57
320.62	2793.43
320.83	2588.63
321.05	2744.28
321.26	2621.40
321.47	2637.78
321.69	2881.49
321.90	2510.81
322.11	2574.30
322.32	2793.43
322.54	2904.02
322.75	2586.58
322.96	3196.88
323.18	2512.86
323.39	2502.62
323.60	2555.86
323.81	2734.04
324.03	2676.70
324.24	2674.65
324.45	2725.85
324.66	2564.06
324.88	2797.53
325.09	3022.80
325.30	2578.39
325.52	2570.20
325.73	2719.70
325.94	2555.86
326.15	2439.13
326.37	2545.63
326.58	2910.16
326.79	2938.84
327.00	2555.86
327.22	2553.82
327.43	2703.32
327.64	2553.82
327.85	2727.89
328.07	2607.06
328.28	3078.10
328.49	2705.37
328.70	2559.96
328.92	2588.63
329.13	2650.07
329.34	2762.71
329.55	2830.29
329.76	2674.65
329.98	2713.56
330.19	2928.60
330.40	2645.98
330.61	2691.03
330.83	2791.38
331.04	2572.25
331.25	2670.55
331.46	2623.45
331.68	2441.18
331.89	2830.29
332.10	2660.31
332.31	2453.47
332.52	2797.53
332.74	2809.81
332.95	2480.09
333.16	2652.12
333.37	2877.40
333.58	2678.74
333.80	2559.96
334.01	2432.99
334.22	2684.89
334.43	2639.83
334.64	2613.21
334.86	2496.47
335.07	2502.62
335.28	2871.25
335.49	2447.32
335.70	2672.60
335.92	2883.54
336.13	3024.85
336.34	2625.50
336.55	2641.88
336.76	2723.80
336.98	2490.33
337.19	2586.58
337.40	2754.52
337.61	3114.96
337.82	2686.94
338.04	2648.02
338.25	2486.23
338.46	2738.13
338.67	2738.13
338.88	2455.51
339.09	2506.71
339.31	2666.46
339.52	2539.48
339.73	2539.48
339.94	2674.65
340.15	2809.81
340.36	2674.65
340.58	2641.88
340.79	2471.90
341.00	2856.92
341.21	2596.82
341.42	2844.63
341.63	2678.74
341.85	2875.35
342.06	2754.52
342.27	2482.14
342.48	2699.22
342.69	2535.39
342.90	2770.90
343.12	2785.24
343.33	2605.02
343.54	2873.30
343.75	2916.31
343.96	2633.69
344.17	2527.19
344.38	2695.13
344.60	2633.69
344.81	2539.48
345.02	2584.54
345.23	2908.12
345.44	3082.19
345.65	2668.50
345.86	2631.64
346.07	2731.99
346.29	2545.63
346.50	2731.99
346.71	2705.37
346.92	2908.12
347.13	2963.41
347.34	2629.59
347.55	2582.49
347.76	2766.81
347.98	2559.96
348.19	2662.36
348.40	2777.05
348.61	2717.65
348.82	2938.84
349.03	2660.31
349.24	2473.95
349.45	2961.36
349.66	2422.75
349.88	2670.55
350.09	2547.67
350.30	2942.93
350.51	2895.83
350.72	2748.37
350.93	2654.17
351.14	2643.93
351.35	2785.24
351.56	2611.16
351.77	2602.97
351.99	2752.47
352.20	3026.90
352.41	2725.85
352.62	2400.22
352.83	2729.94
353.04	2731.99
353.25	2555.86
353.46	2596.82
353.67	2850.77
353.88	2453.47
354.09	2623.45
354.30	2650.07
354.52	2897.88
354.73	2660.31
354.94	2629.59
355.15	2641.88
355.36	3121.10
355.57	2674.65
355.78	2602.97
355.99	2537.43
356.20	2613.21
356.41	2904.02
356.62	2768.85
356.83	2652.12
357.04	2938.84
357.25	2453.47
357.46	2600.92
357.68	2473.95
357.89	2602.97
358.10	2641.88
358.31	2652.12
358.52	2623.45
358.73	2521.05
358.94	2629.59
359.15	2600.92
359.36	2686.94
359.57	2750.42
359.78	2668.50
359.99	2777.05
360.20	2488.28
360.41	2713.56
360.62	2830.29
360.83	2641.88
361.04	2682.84
361.25	2809.81
361.46	3020.75
361.67	2740.18
361.88	2752.47
362.09	2818.00
362.30	2793.43
362.51	2582.49
362.72	2662.36
362.93	2785.24
363.14	2760.66
363.35	2666.46
363.56	2508.76
363.78	2904.02
363.99	2881.49
364.20	2637.78
364.41	2709.46
364.62	3069.91
364.83	2695.13
365.04	2592.73
365.25	2637.78
365.46	3063.76
365.67	2568.15
365.88	2664.41
366.09	2652.12
366.30	2629.59
366.51	2752.47
366.72	2547.67
366.93	2621.40
367.14	2717.65
367.35	2922.45
367.56	2586.58
367.77	2715.61
367.98	2717.65
368.18	2910.16
368.39	2762.71
368.60	2539.48
368.81	2899.92
369.02	2686.94
369.23	2672.60
369.44	2435.03
369.65	2682.84
369.86	2746.33
370.07	2764.76
370.28	2537.43
370.49	2748.37
370.70	2836.44
370.91	2519.00
371.12	2527.19
371.33	2840.53
371.54	2605.02
371.75	2705.37
371.96	2410.46
372.17	2668.50
372.38	2742.23
372.59	2674.65
372.80	2660.31
373.01	2686.94
373.22	2736.09
373.43	2600.92
373.64	2613.21
373.85	2901.97
374.06	2887.64
374.26	2748.37
374.47	2672.60
374.68	2928.60
374.89	2785.24
375.10	2643.93
375.31	2787.29
375.52	2756.57
375.73	2777.05
375.94	2523.10
376.15	2770.90
376.36	2688.98
376.57	2631.64
376.78	2588.63
376.99	2731.99
377.20	2899.92
377.40	2711.51
377.61	2815.96
377.82	2580.44
378.03	2899.92
378.24	2797.53
378.45	2678.74
378.66	2572.25
378.87	2519.00
379.08	2490.33
379.29	2580.44
379.50	2770.90
379.71	2637.78
379.91	2783.19
380.12	2557.91
380.33	2641.88
380.54	2635.74
380.75	2729.94
380.96	2609.11
381.17	2623.45
381.38	2695.13
381.59	2676.70
381.80	2658.26
382.00	2752.47
382.21	2777.05
382.42	2895.83
382.63	2961.36
382.84	2623.45
383.05	2858.96
383.26	2957.27
383.47	2705.37
383.68	2629.59
383.88	2772.95
384.09	2697.17
384.30	2848.72
384.51	2678.74
384.72	2709.46
384.93	2555.86
385.14	2652.12
385.35	2807.77
385.55	2535.39
385.76	2809.81
385.97	2635.74
386.18	2498.52
386.39	2504.67
386.60	2670.55
386.81	2605.02
387.02	2488.28
387.22	2572.25
387.43	2777.05
387.64	2707.41
387.85	2861.01
388.06	2871.25
388.27	3940.29
388.48	7577.48
388.68	10995.54
388.89	13504.31
389.10	14438.18
389.31	13913.90
389.52	10919.77
389.73	9396.08
389.93	8646.52
390.14	7909.26
390.35	7026.58
390.56	6436.77
390.77	5150.64
390.98	4057.03
391.18	3499.98
391.39	3260.37
391.60	2760.66
391.81	2912.21
392.02	2652.12
392.23	3112.91
392.43	2719.70
392.64	2820.05
392.85	2688.98
393.06	2947.03
393.27	2748.37
393.47	2566.10
393.68	2658.26
393.89	2633.69
394.10	2883.54
394.31	2652.12
394.52	2590.68
394.72	2727.89
394.93	3002.32
395.14	2508.76
395.35	2727.89
395.56	2584.54
395.76	2740.18
395.97	2660.31
396.18	2723.80
396.39	2797.53
396.60	3231.69
396.80	2877.40
397.01	2830.29
397.22	2852.82
397.43	2875.35
397.64	2568.15
397.84	2777.05
398.05	3055.57
398.26	2666.46
398.47	2768.85
398.67	2746.33
398.88	2828.24
399.09	2852.82
399.30	2545.63
399.51	2713.56
399.71	2686.94
399.92	2740.18
400.13	2639.83
400.34	2623.45
400.54	2668.50
400.75	2879.44
400.96	2705.37
401.17	2852.82
401.37	2793.43
401.58	2660.31
401.79	2598.87
402.00	2783.19
402.21	3137.49
402.41	2938.84
402.62	2879.44
402.83	3035.09
403.04	3053.52
403.24	3278.80
403.45	2709.46
403.66	2971.60
403.87	2887.64
404.07	2961.36
404.28	2863.06
404.49	2815.96
404.70	2832.34
404.90	2914.26
405.11	2709.46
405.32	2785.24
405.52	2611.16
405.73	2662.36
405.94	2576.34
406.15	2592.73
406.35	2844.63
406.56	2805.72
406.77	2662.36
406.98	2658.26
407.18	2611.16
407.39	2848.72
407.60	2639.83
407.80	2691.03
408.01	2596.82
408.22	2768.85
408.43	2533.34
408.63	2746.33
408.84	2793.43
409.05	2809.81
409.25	2541.53
409.46	2537.43
409.67	2594.78
409.88	2635.74
410.08	2672.60
410.29	2537.43
410.50	2883.54
410.70	2748.37
410.91	2527.19
411.12	2623.45
411.32	2746.33
411.53	2521.05
411.74	2662.36
411.95	2678.74
412.15	2680.79
412.36	2832.34
412.57	2834.39
412.77	2770.90
412.98	2676.70
413.19	2613.21
413.39	2670.55
413.60	2639.83
413.81	2889.68
414.01	2547.67
414.22	2719.70
414.43	2764.76
414.63	2605.02
414.84	2842.58
415.05	2588.63
415.25	2428.89
415.46	2766.81
415.67	2691.03
415.87	2752.47
416.08	2592.73
416.29	2648.02
416.49	2777.05
416.70	2590.68
416.91	2662.36
417.11	2731.99
417.32	2940.88
417.53	2682.84
417.73	2701.27
417.94	2750.42
418.15	2691.03
418.35	2617.30
418.56	2670.55
418.77	3045.33
418.97	2785.24
419.18	2609.11
419.38	2365.40
419.59	2738.13
419.80	2967.51
420.00	2588.63
420.21	2639.83
420.42	2918.36
420.62	2764.76
420.83	2564.06
421.04	2562.01
421.24	2695.13
421.45	2875.35
421.65	2711.51
421.86	2598.87
422.07	2856.92
422.27	2785.24
422.48	2621.40
422.69	2519.00
422.89	2748.37
423.10	2703.32
423.30	2545.63
423.51	2641.88
423.72	2795.48
423.92	2787.29
424.13	2590.68
424.33	2676.70
424.54	2766.81
424.75	2725.85
424.95	2865.11
425.16	2654.17
425.36	2676.70
425.57	2854.87
425.78	2828.24
425.98	2715.61
426.19	2680.79
426.39	2578.39
426.60	2715.61
426.81	2797.53
427.01	2822.10
427.22	2576.34
427.42	2535.39
427.63	2562.01
427.83	2832.34
428.04	2992.08
428.25	2674.65
428.45	2734.04
428.66	2838.48
428.86	2674.65
429.07	2680.79
429.28	2678.74
429.48	2707.41
429.69	2629.59
429.89	2711.51
430.10	2594.78
430.30	2779.09
430.51	2920.40
430.71	2596.82
430.92	2670.55
431.13	2736.09
431.33	2787.29
431.54	2688.98
431.74	2873.30
431.95	2957.27
432.15	2580.44
432.36	2676.70
432.56	2707.41
432.77	3039.19
432.98	2957.27
433.18	2674.65
433.39	2555.86
433.59	2605.02
433.80	2992.08
434.00	2832.34
434.21	2709.46
434.41	2559.96
434.62	3020.75
434.82	2514.91
435.03	2545.63
435.23	2727.89
435.44	2455.51
435.64	2629.59
435.85	2637.78
436.06	2836.44
436.26	2891.73
436.47	2633.69
436.67	2586.58
436.88	2670.55
437.08	2944.98
437.29	2742.23
437.49	2760.66
437.70	2897.88
437.90	2682.84
438.11	2789.33
438.31	2709.46
438.52	2936.79
438.72	2910.16
438.93	3069.91
439.13	2729.94
439.34	2756.57
439.54	2715.61
439.75	2746.33
439.95	2711.51
440.16	2654.17
440.36	2703.32
440.57	2691.03
440.77	2697.17
440.98	2723.80
441.18	2867.16
441.39	2600.92
441.59	2504.67
441.80	2994.13
442.00	2725.85
442.21	2758.61
442.41	2480.09
442.62	2901.97
442.82	2691.03
443.02	2660.31
443.23	2707.41
443.43	2676.70
443.64	2936.79
443.84	2502.62
444.05	2791.38
444.25	2848.72
444.46	2598.87
444.66	2629.59
444.87	2897.88
445.07	2564.06
445.28	2721.75
445.48	2777.05
445.69	2719.70
445.89	3080.14
446.09	2723.80
446.30	2963.41
446.50	3131.34
446.71	4552.63
446.91	5603.24
447.12	6506.40
447.32	6813.59
447.53	6520.73
447.73	5547.95
447.93	4753.34
448.14	4458.43
448.34	4530.11
448.55	3762.12
448.75	3784.65
448.96	3643.34
449.16	3416.01
449.36	3164.11
449.57	2947.03
449.77	2791.38
449.98	2711.51
450.18	2879.44
450.39	2666.46
450.59	2791.38
450.79	2758.61
451.00	2633.69
451.20	2734.04
451.41	2731.99
451.61	2811.86
451.81	2736.09
452.02	2629.59
452.22	2705.37
452.43	2668.50
452.63	2607.06
