SpectraSuite Data File
++++++++++++++++++++++++++++++++++++
Date: Thu May 05 16:20:24 CEST 2016
User: root
Dark Spectrum Present: No
Reference Spectrum Present: No
Number of Sampled Component Spectra: 1
Spectrometers: USB4C02835
Integration Time (usec): 100000 (USB4C02835)
Spectra Averaged: 1 (USB4C02835)
Boxcar Smoothing: 0 (USB4C02835)
Correct for Electrical Dark: No (USB4C02835)
Strobe/Lamp Enabled: No (USB4C02835)
Correct for Detector Non-linearity: No (USB4C02835)
Correct for Stray Light: No (USB4C02835)
Number of Pixels in Processed Spectrum: 3648
>>>>>Begin Processed Spectral Data<<<<<
177.47	2000.87
177.69	2000.87
177.91	2000.87
178.13	2099.17
178.36	2058.21
178.58	2576.34
178.80	2744.28
179.02	2494.43
179.24	2627.54
179.46	2496.47
179.68	2543.58
179.90	2717.65
180.13	2762.71
180.35	2385.88
180.57	2488.28
180.79	2871.25
181.01	2693.08
181.23	2578.39
181.45	2709.46
181.67	2789.33
181.90	2824.15
182.12	2547.67
182.34	2381.79
182.56	2750.42
182.78	2818.00
183.00	2527.19
183.22	2506.71
183.44	2519.00
183.66	3200.98
183.89	2719.70
184.11	2428.89
184.33	2848.72
184.55	2916.31
184.77	2496.47
184.99	2564.06
185.21	2686.94
185.43	3026.90
185.65	2545.63
185.87	2502.62
186.10	3047.38
186.32	3043.28
186.54	2635.74
186.76	2672.60
186.98	2865.11
187.20	2756.57
187.42	2543.58
187.64	2516.95
187.86	2799.57
188.08	2897.88
188.30	2447.32
188.52	2570.20
188.75	2906.07
188.97	2824.15
189.19	2455.51
189.41	2445.27
189.63	2834.39
189.85	2725.85
190.07	2408.41
190.29	2369.50
190.51	2756.57
190.73	2506.71
190.95	2654.17
191.17	2537.43
191.39	2512.86
191.61	2697.17
191.84	2498.52
192.06	2531.29
192.28	2510.81
192.50	3217.36
192.72	2539.48
192.94	2523.10
193.16	2854.87
193.38	2809.81
193.60	2453.47
193.82	2584.54
194.04	2824.15
194.26	2760.66
194.48	2539.48
194.70	2533.34
194.92	2709.46
195.14	2787.29
195.36	2492.38
195.58	2523.10
195.80	2643.93
196.02	2668.50
196.24	2402.27
196.46	2521.05
196.69	2678.74
196.91	3045.33
197.13	2545.63
197.35	2482.14
197.57	2906.07
197.79	2772.95
198.01	2566.10
198.23	2545.63
198.45	2738.13
198.67	2535.39
198.89	2404.32
199.11	2566.10
199.33	2611.16
199.55	2392.03
199.77	2484.19
199.99	2731.99
200.21	2650.07
200.43	2801.62
200.65	2402.27
200.87	2449.37
201.09	2721.75
201.31	2674.65
201.53	2600.92
201.75	2621.40
201.97	2752.47
202.19	2693.08
202.41	2617.30
202.63	2699.22
202.85	2770.90
203.07	2742.23
203.29	2531.29
203.51	2359.26
203.73	2645.98
203.95	3071.95
204.17	2490.33
204.39	2602.97
204.61	2719.70
204.83	2645.98
205.05	2652.12
205.27	2543.58
205.49	3067.86
205.71	2666.46
205.93	2432.99
206.15	2428.89
206.37	2578.39
206.59	2664.41
206.81	2408.41
207.03	2377.69
207.25	2602.97
207.47	2820.05
207.69	2471.90
207.91	2721.75
208.13	2944.98
208.34	2621.40
208.56	2514.91
208.78	2598.87
209.00	2744.28
209.22	2746.33
209.44	2512.86
209.66	2502.62
209.88	2703.32
210.10	2658.26
210.32	2467.80
210.54	2617.30
210.76	2707.41
210.98	2918.36
211.20	2385.88
211.42	2545.63
211.64	2867.16
211.86	2842.58
212.08	2545.63
212.30	2578.39
212.52	2676.70
212.74	2736.09
212.96	2562.01
213.17	2613.21
213.39	2734.04
213.61	2981.84
213.83	2535.39
214.05	2422.75
214.27	2865.11
214.49	2594.78
214.71	2512.86
214.93	2619.35
215.15	2652.12
215.37	2932.69
215.59	2389.98
215.81	2570.20
216.03	2969.55
216.24	2686.94
216.46	2539.48
216.68	2613.21
216.90	2840.53
217.12	2863.06
217.34	2369.50
217.56	2619.35
217.78	2877.40
218.00	2787.29
218.22	2586.58
218.44	2654.17
218.66	2785.24
218.87	3012.56
219.09	2498.52
219.31	2576.34
219.53	2752.47
219.75	2643.93
219.97	2537.43
220.19	2504.67
220.41	2736.09
220.63	3119.06
220.85	2494.43
221.06	2465.75
221.28	2928.60
221.50	2754.52
221.72	2605.02
221.94	2480.09
222.16	2715.61
222.38	2910.16
222.60	2527.19
222.82	2588.63
223.03	2883.54
223.25	2555.86
223.47	2539.48
223.69	2715.61
223.91	2854.87
224.13	2752.47
224.35	2422.75
224.57	2693.08
224.78	2809.81
225.00	2662.36
225.22	2549.72
225.44	2480.09
225.66	2834.39
225.88	2656.22
226.10	2570.20
226.32	2521.05
226.53	2924.50
226.75	2650.07
226.97	2510.81
227.19	2512.86
227.41	2600.92
227.63	2670.55
227.85	2351.07
228.06	2449.37
228.28	2791.38
228.50	2846.68
228.72	2381.79
228.94	2480.09
229.16	2504.67
229.37	2576.34
229.59	2447.32
229.81	2731.99
230.03	2613.21
230.25	2527.19
230.47	2400.22
230.69	2519.00
230.90	2854.87
231.12	2631.64
231.34	2615.26
231.56	2592.73
231.78	2605.02
232.00	2650.07
232.21	2631.64
232.43	2482.14
232.65	2445.27
232.87	2793.43
233.09	2437.08
233.30	2447.32
233.52	2863.06
233.74	2693.08
233.96	2375.64
234.18	2676.70
234.40	2688.98
234.61	2936.79
234.83	2398.17
235.05	2453.47
235.27	3151.82
235.49	2834.39
235.70	2496.47
235.92	2578.39
236.14	2805.72
236.36	3174.35
236.58	2478.04
236.79	2584.54
237.01	2717.65
237.23	2746.33
237.45	2654.17
237.67	2551.77
237.88	2797.53
238.10	2977.75
238.32	2432.99
238.54	2494.43
238.76	2686.94
238.97	2586.58
239.19	2510.81
239.41	2557.91
239.63	2897.88
239.85	2615.26
240.06	2521.05
240.28	2521.05
240.50	2842.58
240.72	2709.46
240.93	2459.61
241.15	2619.35
241.37	2770.90
241.59	3049.43
241.81	2498.52
242.02	2564.06
242.24	2779.09
242.46	2848.72
242.68	2441.18
242.89	2486.23
243.11	2828.24
243.33	2670.55
243.55	2457.56
243.76	2553.82
243.98	2648.02
244.20	2746.33
244.42	2564.06
244.64	2494.43
244.85	2535.39
245.07	2566.10
245.29	2545.63
245.51	2529.24
245.72	2777.05
245.94	2891.73
246.16	2502.62
246.38	2596.82
246.59	2559.96
246.81	2598.87
247.03	2441.18
247.24	2408.41
247.46	2650.07
247.68	2684.89
247.90	2465.75
248.11	2578.39
248.33	2883.54
248.55	2631.64
248.77	2504.67
248.98	2582.49
249.20	2875.35
249.42	2703.32
249.64	2535.39
249.85	2445.27
250.07	2705.37
250.29	2818.00
250.50	2600.92
250.72	2473.95
250.94	2799.57
251.16	2981.84
251.37	2578.39
251.59	2582.49
251.81	2789.33
252.02	2908.12
252.24	2471.90
252.46	2609.11
252.68	2555.86
252.89	2666.46
253.11	2289.63
253.33	2656.22
253.54	2891.73
253.76	2535.39
253.98	2482.14
254.20	2564.06
254.41	2545.63
254.63	2666.46
254.85	2398.17
255.06	2609.11
255.28	2791.38
255.50	2711.51
255.71	2531.29
255.93	2426.84
256.15	2631.64
256.36	2756.57
256.58	2367.45
256.80	2551.77
257.02	2738.13
257.23	2656.22
257.45	2555.86
257.67	2602.97
257.88	2629.59
258.10	2729.94
258.32	2525.15
258.53	2590.68
258.75	2930.64
258.97	2629.59
259.18	2506.71
259.40	2541.53
259.62	2992.08
259.83	2949.08
260.05	2564.06
260.27	3055.57
260.48	2897.88
260.70	2570.20
260.92	2486.23
261.13	2555.86
261.35	2731.99
261.57	2795.48
261.78	2496.47
262.00	2488.28
262.22	2854.87
262.43	2600.92
262.65	2473.95
262.86	2582.49
263.08	3047.38
263.30	2676.70
263.51	2377.69
263.73	2502.62
263.95	2858.96
264.16	2596.82
264.38	2441.18
264.60	2482.14
264.81	2717.65
265.03	2885.59
265.25	2760.66
265.46	2482.14
265.68	2918.36
265.89	2785.24
266.11	2430.94
266.33	2523.10
266.54	2863.06
266.76	2793.43
266.98	2652.12
267.19	2654.17
267.41	2897.88
267.62	2754.52
267.84	2392.03
268.06	2629.59
268.27	2787.29
268.49	2889.68
268.70	2596.82
268.92	2519.00
269.14	2490.33
269.35	2490.33
269.57	2590.68
269.79	2553.82
270.00	2713.56
270.22	2998.23
270.43	2406.36
270.65	2336.73
270.87	2795.48
271.08	2883.54
271.30	2531.29
271.51	2619.35
271.73	2863.06
271.95	2897.88
272.16	2510.81
272.38	2605.02
272.59	2611.16
272.81	2740.18
273.02	2506.71
273.24	2578.39
273.46	2887.64
273.67	2635.74
273.89	2379.74
274.10	2555.86
274.32	2994.13
274.54	2729.94
274.75	2578.39
274.97	2576.34
275.18	2785.24
275.40	2828.24
275.61	2535.39
275.83	2707.41
276.05	2582.49
276.26	2670.55
276.48	2627.54
276.69	2555.86
276.91	2711.51
277.12	2959.31
277.34	2668.50
277.55	2729.94
277.77	2721.75
277.99	2570.20
278.20	2594.78
278.42	2478.04
278.63	2598.87
278.85	2691.03
279.06	2590.68
279.28	2695.13
279.49	2928.60
279.71	2738.13
279.93	2674.65
280.14	2568.15
280.36	2592.73
280.57	2904.02
280.79	2633.69
281.00	2562.01
281.22	2602.97
281.43	2854.87
281.65	2342.88
281.86	2449.37
282.08	2783.19
282.29	3028.95
282.51	2508.76
282.73	2500.57
282.94	2514.91
283.16	2824.15
283.37	2695.13
283.59	2666.46
283.80	2797.53
284.02	2725.85
284.23	2707.41
284.45	2594.78
284.66	2613.21
284.88	2615.26
285.09	2678.74
285.31	2707.41
285.52	2758.61
285.74	2539.48
285.95	2719.70
286.17	2664.41
286.38	2932.69
286.60	2596.82
286.81	2637.78
287.03	2662.36
287.24	2711.51
287.46	2740.18
287.67	2641.88
287.89	2901.97
288.10	2607.06
288.32	2752.47
288.53	2742.23
288.75	2684.89
288.96	2858.96
289.18	2586.58
289.39	2557.91
289.61	2660.31
289.82	3143.63
290.04	2975.70
290.25	2617.30
290.47	2668.50
290.68	2592.73
290.90	2863.06
291.11	2437.08
291.33	2711.51
291.54	2580.44
291.76	2682.84
291.97	2645.98
292.18	2666.46
292.40	2688.98
292.61	2623.45
292.83	2822.10
293.04	2623.45
293.26	2738.13
293.47	2637.78
293.69	2535.39
293.90	2592.73
294.12	2830.29
294.33	2631.64
294.55	2555.86
294.76	2729.94
294.97	2955.22
295.19	3014.61
295.40	2645.98
295.62	2615.26
295.83	2795.48
296.05	2658.26
296.26	2799.57
296.48	2576.34
296.69	2652.12
296.90	2703.32
297.12	2760.66
297.33	2777.05
297.55	2680.79
297.76	2852.82
297.98	2715.61
298.19	2736.09
298.41	2731.99
298.62	2625.50
298.83	2861.01
299.05	2680.79
299.26	2662.36
299.48	2625.50
299.69	2658.26
299.90	2650.07
300.12	2645.98
300.33	2863.06
300.55	2660.31
300.76	2645.98
300.98	2650.07
301.19	2785.24
301.40	2656.22
301.62	2555.86
301.83	2842.58
302.05	2762.71
302.26	2602.97
302.47	2715.61
302.69	2654.17
302.90	2711.51
303.12	2408.41
303.33	2754.52
303.54	3004.37
303.76	2678.74
303.97	2568.15
304.19	2744.28
304.40	2594.78
304.61	2719.70
304.83	2785.24
305.04	2637.78
305.26	2834.39
305.47	2648.02
305.68	2627.54
305.90	2555.86
306.11	2940.88
306.33	2697.17
306.54	2562.01
306.75	2531.29
306.97	2535.39
307.18	2529.24
307.39	2600.92
307.61	2727.89
307.82	2758.61
308.04	2795.48
308.25	2543.58
308.46	2740.18
308.68	2721.75
308.89	2660.31
309.10	2719.70
309.32	2678.74
309.53	2697.17
309.74	2760.66
309.96	2566.10
310.17	2729.94
310.39	2574.30
310.60	2852.82
310.81	2668.50
311.03	2473.95
311.24	2789.33
311.45	2695.13
311.67	2805.72
311.88	2701.27
312.09	2660.31
312.31	2598.87
312.52	2590.68
312.73	2578.39
312.95	2482.14
313.16	2674.65
313.37	2764.76
313.59	2705.37
313.80	2883.54
314.01	3028.95
314.23	2592.73
314.44	2461.66
314.65	2586.58
314.87	2660.31
315.08	2684.89
315.29	2609.11
315.51	2605.02
315.72	2510.81
315.93	2758.61
316.15	2633.69
316.36	2611.16
316.57	2742.23
316.79	2619.35
317.00	2523.10
317.21	2699.22
317.43	2607.06
317.64	2609.11
317.85	2478.04
318.07	2637.78
318.28	2637.78
318.49	2744.28
318.70	2801.62
318.92	2740.18
319.13	2840.53
319.34	2815.96
319.56	2662.36
319.77	2842.58
319.98	2844.63
320.20	2736.09
320.41	2701.27
320.62	2807.77
320.83	2584.54
321.05	2826.20
321.26	2660.31
321.47	2633.69
321.69	2850.77
321.90	2482.14
322.11	2566.10
322.32	2723.80
322.54	2926.55
322.75	2660.31
322.96	3260.37
323.18	2461.66
323.39	2461.66
323.60	2441.18
323.81	2703.32
324.03	2623.45
324.24	2656.22
324.45	2652.12
324.66	2596.82
324.88	2895.83
325.09	2971.60
325.30	2619.35
325.52	2600.92
325.73	2811.86
325.94	2631.64
326.15	2437.08
326.37	2535.39
326.58	2858.96
326.79	2901.97
327.00	2486.23
327.22	2631.64
327.43	2613.21
327.64	2602.97
327.85	2705.37
328.07	2586.58
328.28	2990.03
328.49	2672.60
328.70	2613.21
328.92	2619.35
329.13	2662.36
329.34	2758.61
329.55	2824.15
329.76	2709.46
329.98	2762.71
330.19	2944.98
330.40	2658.26
330.61	2637.78
330.83	2809.81
331.04	2594.78
331.25	2678.74
331.46	2666.46
331.68	2629.59
331.89	2840.53
332.10	2592.73
332.31	2551.77
332.52	2770.90
332.74	2959.31
332.95	2453.47
333.16	2625.50
333.37	2879.44
333.58	2639.83
333.80	2648.02
334.01	2396.12
334.22	2662.36
334.43	2654.17
334.64	2643.93
334.86	2498.52
335.07	2596.82
335.28	2944.98
335.49	2441.18
335.70	2660.31
335.92	2930.64
336.13	3041.23
336.34	2652.12
336.55	2633.69
336.76	2768.85
336.98	2447.32
337.19	2566.10
337.40	2656.22
337.61	3010.51
337.82	2598.87
338.04	2775.00
338.25	2496.47
338.46	2711.51
338.67	2734.04
338.88	2564.06
339.09	2469.85
339.31	2650.07
339.52	2514.91
339.73	2504.67
339.94	2568.15
340.15	2834.39
340.36	2680.79
340.58	2621.40
340.79	2519.00
341.00	2793.43
341.21	2514.91
341.42	2836.44
341.63	2607.06
341.85	2916.31
342.06	2711.51
342.27	2578.39
342.48	2777.05
342.69	2553.82
342.90	2815.96
343.12	2871.25
343.33	2482.14
343.54	2867.16
343.75	2973.65
343.96	2625.50
344.17	2533.34
344.38	2715.61
344.60	2643.93
344.81	2478.04
345.02	2619.35
345.23	2955.22
345.44	2996.18
345.65	2744.28
345.86	2629.59
346.07	2834.39
346.29	2676.70
346.50	2627.54
346.71	2729.94
346.92	2973.65
347.13	3033.04
347.34	2678.74
347.55	2568.15
347.76	2756.57
347.98	2555.86
348.19	2674.65
348.40	2779.09
348.61	2658.26
348.82	2920.40
349.03	2701.27
349.24	2492.38
349.45	3006.42
349.66	2578.39
349.88	2666.46
350.09	2521.05
350.30	2895.83
350.51	2799.57
350.72	2693.08
350.93	2637.78
351.14	2633.69
351.35	2818.00
351.56	2629.59
351.77	2645.98
351.99	2791.38
352.20	2912.21
352.41	2775.00
352.62	2461.66
352.83	2648.02
353.04	2660.31
353.25	2572.25
353.46	2719.70
353.67	2875.35
353.88	2514.91
354.09	2572.25
354.30	2607.06
354.52	2850.77
354.73	2736.09
354.94	2600.92
355.15	2652.12
355.36	3119.06
355.57	2678.74
355.78	2586.58
355.99	2627.54
356.20	2734.04
356.41	2977.75
356.62	2592.73
356.83	2625.50
357.04	2981.84
357.25	2504.67
357.46	2529.24
357.68	2486.23
357.89	2609.11
358.10	2701.27
358.31	2637.78
358.52	2650.07
358.73	2584.54
358.94	2547.67
359.15	2559.96
359.36	2725.85
359.57	2723.80
359.78	2750.42
359.99	2676.70
360.20	2500.57
360.41	2629.59
360.62	2736.09
360.83	2666.46
361.04	2645.98
361.25	2777.05
361.46	3000.27
361.67	2639.83
361.88	2625.50
362.09	2834.39
362.30	2846.68
362.51	2529.24
362.72	2643.93
362.93	2906.07
363.14	2854.87
363.35	2648.02
363.56	2598.87
363.78	2961.36
363.99	2840.53
364.20	2566.10
364.41	2715.61
364.62	2971.60
364.83	2813.91
365.04	2615.26
365.25	2582.49
365.46	2985.94
365.67	2631.64
365.88	2678.74
366.09	2572.25
366.30	2578.39
366.51	2785.24
366.72	2570.20
366.93	2562.01
367.14	2740.18
367.35	2834.39
367.56	2637.78
367.77	2738.13
367.98	2707.41
368.18	2777.05
368.39	2799.57
368.60	2557.91
368.81	2838.48
369.02	2742.23
369.23	2656.22
369.44	2494.43
369.65	2621.40
369.86	2746.33
370.07	2775.00
370.28	2541.53
370.49	2777.05
370.70	2854.87
370.91	2486.23
371.12	2527.19
371.33	2932.69
371.54	2742.23
371.75	2719.70
371.96	2373.60
372.17	2795.48
372.38	2750.42
372.59	2682.84
372.80	2627.54
373.01	2637.78
373.22	2715.61
373.43	2566.10
373.64	2494.43
373.85	2983.89
374.06	2912.21
374.26	2789.33
374.47	2727.89
374.68	2951.12
374.89	2727.89
375.10	2600.92
375.31	2723.80
375.52	2756.57
375.73	2766.81
375.94	2543.58
376.15	2852.82
376.36	2633.69
376.57	2637.78
376.78	2547.67
376.99	2705.37
377.20	2949.08
377.40	2731.99
377.61	2826.20
377.82	2559.96
378.03	2949.08
378.24	2815.96
378.45	2635.74
378.66	2643.93
378.87	2498.52
379.08	2531.29
379.29	2600.92
379.50	2801.62
379.71	2748.37
379.91	2783.19
380.12	2621.40
380.33	2713.56
380.54	2789.33
380.75	2701.27
380.96	2600.92
381.17	2650.07
381.38	2709.46
381.59	2750.42
381.80	2727.89
382.00	2760.66
382.21	2748.37
382.42	2906.07
382.63	2934.74
382.84	2731.99
383.05	2838.48
383.26	2957.27
383.47	2711.51
383.68	2639.83
383.88	2840.53
384.09	2701.27
384.30	2914.26
384.51	2656.22
384.72	2637.78
384.93	2580.44
385.14	2731.99
385.35	2727.89
385.55	2471.90
385.76	2877.40
385.97	2662.36
386.18	2475.99
386.39	2549.72
386.60	2662.36
386.81	2670.55
387.02	2512.86
387.22	2578.39
387.43	2818.00
387.64	2748.37
387.85	2852.82
388.06	2801.62
388.27	4001.73
388.48	7579.53
388.68	11069.27
388.89	13684.53
389.10	14612.26
389.31	13946.67
389.52	11093.85
389.73	9430.90
389.93	8609.66
390.14	7880.58
390.35	7178.13
390.56	6377.37
390.77	5357.49
390.98	4102.08
391.18	3442.64
391.39	3141.58
391.60	2772.95
391.81	2787.29
392.02	2670.55
392.23	3078.10
392.43	2750.42
392.64	2834.39
392.85	2662.36
393.06	2897.88
393.27	2719.70
393.47	2629.59
393.68	2650.07
393.89	2666.46
394.10	2920.40
394.31	2547.67
394.52	2527.19
394.72	2656.22
394.93	2908.12
395.14	2580.44
395.35	2791.38
395.56	2598.87
395.76	2715.61
395.97	2594.78
396.18	2715.61
396.39	2809.81
396.60	3250.13
396.80	2865.11
397.01	2801.62
397.22	2824.15
397.43	2932.69
397.64	2592.73
397.84	2682.84
398.05	3006.42
398.26	2752.47
398.47	2793.43
398.67	2803.67
398.88	2742.23
399.09	2764.76
399.30	2674.65
399.51	2695.13
399.71	2592.73
399.92	2664.41
400.13	2740.18
400.34	2590.68
400.54	2695.13
400.75	2854.87
400.96	2680.79
401.17	2869.20
401.37	2842.58
401.58	2736.09
401.79	2609.11
402.00	2777.05
402.21	3149.78
402.41	2924.50
402.62	2875.35
402.83	3057.62
403.04	3088.34
403.24	3332.05
403.45	2762.71
403.66	2879.44
403.87	2951.12
404.07	2906.07
404.28	2906.07
404.49	2901.97
404.70	2775.00
404.90	2820.05
405.11	2670.55
405.32	2789.33
405.52	2600.92
405.73	2691.03
405.94	2543.58
406.15	2670.55
406.35	2801.62
406.56	2834.39
406.77	2623.45
406.98	2662.36
407.18	2629.59
407.39	2887.64
407.60	2617.30
407.80	2734.04
408.01	2619.35
408.22	2820.05
408.43	2576.34
408.63	2744.28
408.84	2824.15
409.05	2799.57
409.25	2580.44
409.46	2600.92
409.67	2701.27
409.88	2592.73
410.08	2664.41
410.29	2613.21
410.50	2838.48
410.70	2758.61
410.91	2627.54
411.12	2662.36
411.32	2748.37
411.53	2586.58
411.74	2670.55
411.95	2740.18
412.15	2648.02
412.36	2879.44
412.57	2719.70
412.77	2805.72
412.98	2674.65
413.19	2621.40
413.39	2709.46
413.60	2629.59
413.81	2932.69
414.01	2549.72
414.22	2693.08
414.43	2699.22
414.63	2670.55
414.84	2908.12
415.05	2615.26
415.25	2428.89
415.46	2846.68
415.67	2592.73
415.87	2643.93
416.08	2568.15
416.29	2637.78
416.49	2809.81
416.70	2650.07
416.91	2609.11
417.11	2746.33
417.32	2912.21
417.53	2719.70
417.73	2775.00
417.94	2787.29
418.15	2805.72
418.35	2703.32
418.56	2639.83
418.77	3020.75
418.97	2725.85
419.18	2703.32
419.38	2439.13
419.59	2711.51
419.80	2959.31
420.00	2641.88
420.21	2660.31
420.42	2912.21
420.62	2691.03
420.83	2570.20
421.04	2648.02
421.24	2727.89
421.45	2756.57
421.65	2744.28
421.86	2623.45
422.07	2815.96
422.27	2793.43
422.48	2641.88
422.69	2617.30
422.89	2658.26
423.10	2680.79
423.30	2588.63
423.51	2695.13
423.72	2781.14
423.92	2826.20
424.13	2545.63
424.33	2701.27
424.54	2897.88
424.75	2721.75
424.95	2926.55
425.16	2631.64
425.36	2602.97
425.57	2856.92
425.78	2717.65
425.98	2775.00
426.19	2654.17
426.39	2621.40
426.60	2680.79
426.81	2768.85
427.01	2772.95
427.22	2617.30
427.42	2412.51
427.63	2523.10
427.83	2889.68
428.04	3030.99
428.25	2678.74
428.45	2826.20
428.66	2807.77
428.86	2684.89
429.07	2662.36
429.28	2695.13
429.48	2734.04
429.69	2631.64
429.89	2750.42
430.10	2602.97
430.30	2906.07
430.51	2871.25
430.71	2539.48
430.92	2666.46
431.13	2609.11
431.33	2834.39
431.54	2678.74
431.74	2916.31
431.95	3051.47
432.15	2607.06
432.36	2652.12
432.56	2738.13
432.77	2977.75
432.98	3039.19
433.18	2754.52
433.39	2576.34
433.59	2703.32
433.80	3022.80
434.00	2852.82
434.21	2670.55
434.41	2619.35
434.62	3028.95
434.82	2605.02
435.03	2580.44
435.23	2736.09
435.44	2510.81
435.64	2656.22
435.85	2652.12
436.06	2889.68
436.26	2785.24
436.47	2699.22
436.67	2543.58
436.88	2678.74
437.08	2875.35
437.29	2818.00
437.49	2754.52
437.70	2904.02
437.90	2715.61
438.11	2871.25
438.31	2717.65
438.52	2881.49
438.72	2920.40
438.93	2951.12
439.13	2693.08
439.34	2861.01
439.54	2660.31
439.75	2723.80
439.95	2736.09
440.16	2627.54
440.36	2684.89
440.57	2736.09
440.77	2617.30
440.98	2752.47
441.18	2813.91
441.39	2617.30
441.59	2586.58
441.80	2969.55
442.00	2758.61
442.21	2695.13
442.41	2559.96
442.62	2889.68
442.82	2635.74
443.02	2666.46
443.23	2672.60
443.43	2709.46
443.64	2906.07
443.84	2555.86
444.05	2768.85
444.25	2760.66
444.46	2697.17
444.66	2637.78
444.87	2838.48
445.07	2514.91
445.28	2770.90
445.48	2768.85
445.69	2703.32
445.89	3071.95
446.09	2709.46
446.30	3006.42
446.50	3141.58
446.71	4517.82
446.91	5724.07
447.12	6502.30
447.32	6793.11
447.53	6453.15
447.73	5380.01
447.93	4837.30
448.14	4585.40
448.34	4548.54
448.55	3887.04
448.75	3809.22
448.96	3672.01
449.16	3370.96
449.36	3330.00
449.57	2854.87
449.77	2750.42
449.98	2699.22
450.18	2754.52
450.39	2742.23
450.59	2750.42
450.79	2781.14
451.00	2670.55
451.20	2836.44
451.41	2641.88
451.61	2742.23
451.81	2707.41
452.02	2547.67
452.22	2664.41
452.43	2600.92
452.63	2643.93
