SpectraSuite Data File
++++++++++++++++++++++++++++++++++++
Date: Thu May 05 16:20:38 CEST 2016
User: root
Dark Spectrum Present: No
Reference Spectrum Present: No
Number of Sampled Component Spectra: 1
Spectrometers: USB4C02835
Integration Time (usec): 100000 (USB4C02835)
Spectra Averaged: 1 (USB4C02835)
Boxcar Smoothing: 0 (USB4C02835)
Correct for Electrical Dark: No (USB4C02835)
Strobe/Lamp Enabled: No (USB4C02835)
Correct for Detector Non-linearity: No (USB4C02835)
Correct for Stray Light: No (USB4C02835)
Number of Pixels in Processed Spectrum: 3648
>>>>>Begin Processed Spectral Data<<<<<
177.47	2009.06
177.69	2009.06
177.91	2009.06
178.13	2072.54
178.36	2064.35
178.58	2531.29
178.80	2701.27
179.02	2461.66
179.24	2527.19
179.46	2465.75
179.68	2555.86
179.90	2641.88
180.13	2695.13
180.35	2379.74
180.57	2484.19
180.79	2830.29
181.01	2727.89
181.23	2494.43
181.45	2619.35
181.67	2781.14
181.90	2879.44
182.12	2535.39
182.34	2383.84
182.56	2871.25
182.78	2736.09
183.00	2469.85
183.22	2602.97
183.44	2428.89
183.66	3207.12
183.89	2600.92
184.11	2506.71
184.33	2809.81
184.55	2904.02
184.77	2562.01
184.99	2512.86
185.21	2654.17
185.43	3071.95
185.65	2516.95
185.87	2441.18
186.10	3057.62
186.32	3084.24
186.54	2592.73
186.76	2562.01
186.98	2861.01
187.20	2652.12
187.42	2543.58
187.64	2531.29
187.86	2797.53
188.08	2879.44
188.30	2428.89
188.52	2594.78
188.75	2811.86
188.97	2930.64
189.19	2426.84
189.41	2461.66
189.63	2777.05
189.85	2688.98
190.07	2424.80
190.29	2334.68
190.51	2731.99
190.73	2537.43
190.95	2594.78
191.17	2543.58
191.39	2531.29
191.61	2670.55
191.84	2553.82
192.06	2637.78
192.28	2492.38
192.50	3239.89
192.72	2623.45
192.94	2547.67
193.16	2863.06
193.38	2783.19
193.60	2463.71
193.82	2607.06
194.04	2893.78
194.26	2787.29
194.48	2559.96
194.70	2510.81
194.92	2723.80
195.14	2822.10
195.36	2557.91
195.58	2555.86
195.80	2803.67
196.02	2586.58
196.24	2404.32
196.46	2605.02
196.69	2629.59
196.91	3071.95
197.13	2506.71
197.35	2461.66
197.57	2906.07
197.79	2781.14
198.01	2617.30
198.23	2557.91
198.45	2807.77
198.67	2506.71
198.89	2365.40
199.11	2553.82
199.33	2537.43
199.55	2416.60
199.77	2437.08
199.99	2645.98
200.21	2656.22
200.43	2809.81
200.65	2492.38
200.87	2422.75
201.09	2750.42
201.31	2693.08
201.53	2527.19
201.75	2580.44
201.97	2715.61
202.19	2643.93
202.41	2535.39
202.63	2693.08
202.85	2748.37
203.07	2723.80
203.29	2537.43
203.51	2453.47
203.73	2562.01
203.95	3071.95
204.17	2623.45
204.39	2584.54
204.61	2717.65
204.83	2615.26
205.05	2582.49
205.27	2531.29
205.49	3059.67
205.71	2779.09
205.93	2445.27
206.15	2441.18
206.37	2705.37
206.59	2717.65
206.81	2375.64
207.03	2428.89
207.25	2570.20
207.47	2807.77
207.69	2547.67
207.91	2756.57
208.13	2887.64
208.34	2531.29
208.56	2572.25
208.78	2502.62
209.00	2711.51
209.22	2678.74
209.44	2512.86
209.66	2506.71
209.88	2727.89
210.10	2758.61
210.32	2514.91
210.54	2578.39
210.76	2629.59
210.98	2873.30
211.20	2334.68
211.42	2662.36
211.64	2928.60
211.86	2758.61
212.08	2643.93
212.30	2467.80
212.52	2740.18
212.74	2748.37
212.96	2639.83
213.17	2564.06
213.39	2897.88
213.61	2963.41
213.83	2572.25
214.05	2379.74
214.27	2869.20
214.49	2602.97
214.71	2414.56
214.93	2559.96
215.15	2731.99
215.37	2789.33
215.59	2437.08
215.81	2510.81
216.03	2973.65
216.24	2725.85
216.46	2553.82
216.68	2639.83
216.90	2758.61
217.12	2897.88
217.34	2502.62
217.56	2686.94
217.78	2940.88
218.00	2824.15
218.22	2541.53
218.44	2701.27
218.66	2811.86
218.87	2942.93
219.09	2580.44
219.31	2531.29
219.53	2752.47
219.75	2703.32
219.97	2529.24
220.19	2551.77
220.41	2625.50
220.63	2961.36
220.85	2512.86
221.06	2547.67
221.28	2906.07
221.50	2895.83
221.72	2580.44
221.94	2449.37
222.16	2752.47
222.38	2813.91
222.60	2488.28
222.82	2551.77
223.03	2844.63
223.25	2613.21
223.47	2545.63
223.69	2682.84
223.91	2953.17
224.13	2744.28
224.35	2482.14
224.57	2781.14
224.78	2826.20
225.00	2557.91
225.22	2574.30
225.44	2508.76
225.66	2805.72
225.88	2650.07
226.10	2588.63
226.32	2586.58
226.53	2922.45
226.75	2627.54
226.97	2572.25
227.19	2527.19
227.41	2682.84
227.63	2756.57
227.85	2455.51
228.06	2525.15
228.28	2727.89
228.50	2832.34
228.72	2426.84
228.94	2467.80
229.16	2430.94
229.37	2588.63
229.59	2490.33
229.81	2789.33
230.03	2656.22
230.25	2525.15
230.47	2459.61
230.69	2432.99
230.90	2830.29
231.12	2621.40
231.34	2557.91
231.56	2658.26
231.78	2545.63
232.00	2678.74
232.21	2529.24
232.43	2525.15
232.65	2426.84
232.87	2727.89
233.09	2455.51
233.30	2461.66
233.52	2883.54
233.74	2756.57
233.96	2480.09
234.18	2580.44
234.40	2785.24
234.61	3065.81
234.83	2410.46
235.05	2408.41
235.27	3028.95
235.49	2881.49
235.70	2506.71
235.92	2641.88
236.14	2758.61
236.36	3078.10
236.58	2539.48
236.79	2523.10
237.01	2758.61
237.23	2717.65
237.45	2672.60
237.67	2459.61
237.88	2805.72
238.10	2955.22
238.32	2445.27
238.54	2498.52
238.76	2783.19
238.97	2621.40
239.19	2412.51
239.41	2605.02
239.63	2871.25
239.85	2658.26
240.06	2469.85
240.28	2494.43
240.50	2858.96
240.72	2731.99
240.93	2379.74
241.15	2584.54
241.37	2717.65
241.59	2906.07
241.81	2531.29
242.02	2541.53
242.24	2701.27
242.46	2830.29
242.68	2367.45
242.89	2484.19
243.11	2867.16
243.33	2592.73
243.55	2559.96
243.76	2510.81
243.98	2680.79
244.20	2717.65
244.42	2480.09
244.64	2545.63
244.85	2516.95
245.07	2541.53
245.29	2533.34
245.51	2527.19
245.72	2750.42
245.94	2887.64
246.16	2527.19
246.38	2545.63
246.59	2684.89
246.81	2629.59
247.03	2502.62
247.24	2371.55
247.46	2648.02
247.68	2752.47
247.90	2512.86
248.11	2512.86
248.33	2861.01
248.55	2715.61
248.77	2592.73
248.98	2613.21
249.20	2914.26
249.42	2740.18
249.64	2488.28
249.85	2480.09
250.07	2680.79
250.29	2824.15
250.50	2602.97
250.72	2484.19
250.94	2777.05
251.16	3078.10
251.37	2504.67
251.59	2576.34
251.81	2775.00
252.02	2891.73
252.24	2441.18
252.46	2568.15
252.68	2568.15
252.89	2711.51
253.11	2379.74
253.33	2705.37
253.54	2955.22
253.76	2566.10
253.98	2471.90
254.20	2488.28
254.41	2562.01
254.63	2711.51
254.85	2416.60
255.06	2637.78
255.28	2680.79
255.50	2682.84
255.71	2451.42
255.93	2439.13
256.15	2721.75
256.36	2838.48
256.58	2394.08
256.80	2547.67
257.02	2678.74
257.23	2672.60
257.45	2482.14
257.67	2607.06
257.88	2658.26
258.10	2811.86
258.32	2488.28
258.53	2607.06
258.75	2973.65
258.97	2609.11
259.18	2465.75
259.40	2551.77
259.62	2940.88
259.83	2891.73
260.05	2494.43
260.27	3145.68
260.48	2820.05
260.70	2625.50
260.92	2428.89
261.13	2533.34
261.35	2709.46
261.57	2895.83
261.78	2519.00
262.00	2441.18
262.22	2809.81
262.43	2547.67
262.65	2523.10
262.86	2584.54
263.08	3121.10
263.30	2770.90
263.51	2422.75
263.73	2441.18
263.95	2981.84
264.16	2592.73
264.38	2430.94
264.60	2449.37
264.81	2725.85
265.03	2850.77
265.25	2738.13
265.46	2447.32
265.68	2881.49
265.89	2854.87
266.11	2367.45
266.33	2500.57
266.54	2926.55
266.76	2760.66
266.98	2658.26
267.19	2695.13
267.41	2893.78
267.62	2648.02
267.84	2322.40
268.06	2574.30
268.27	2750.42
268.49	2899.92
268.70	2613.21
268.92	2574.30
269.14	2559.96
269.35	2527.19
269.57	2519.00
269.79	2629.59
270.00	2596.82
270.22	2961.36
270.43	2412.51
270.65	2349.02
270.87	2750.42
271.08	2766.81
271.30	2645.98
271.51	2559.96
271.73	2752.47
271.95	2932.69
272.16	2449.37
272.38	2559.96
272.59	2693.08
272.81	2768.85
273.02	2478.04
273.24	2617.30
273.46	2889.68
273.67	2588.63
273.89	2432.99
274.10	2461.66
274.32	2807.77
274.54	2785.24
274.75	2600.92
274.97	2584.54
275.18	2807.77
275.40	2740.18
275.61	2557.91
275.83	2639.83
276.05	2531.29
276.26	2760.66
276.48	2631.64
276.69	2627.54
276.91	2668.50
277.12	2889.68
277.34	2725.85
277.55	2658.26
277.77	2707.41
277.99	2664.41
278.20	2514.91
278.42	2480.09
278.63	2643.93
278.85	2605.02
279.06	2484.19
279.28	2711.51
279.49	2832.34
279.71	2783.19
279.93	2629.59
280.14	2631.64
280.36	2633.69
280.57	2809.81
280.79	2707.41
281.00	2514.91
281.22	2613.21
281.43	2885.59
281.65	2383.84
281.86	2512.86
282.08	2781.14
282.29	2990.03
282.51	2478.04
282.73	2480.09
282.94	2469.85
283.16	2836.44
283.37	2805.72
283.59	2666.46
283.80	2830.29
284.02	2719.70
284.23	2666.46
284.45	2664.41
284.66	2592.73
284.88	2650.07
285.09	2668.50
285.31	2770.90
285.52	2719.70
285.74	2490.33
285.95	2791.38
286.17	2586.58
286.38	2904.02
286.60	2695.13
286.81	2553.82
287.03	2543.58
287.24	2758.61
287.46	2838.48
287.67	2660.31
287.89	2848.72
288.10	2664.41
288.32	2789.33
288.53	2848.72
288.75	2594.78
288.96	2801.62
289.18	2678.74
289.39	2551.77
289.61	2713.56
289.82	2998.23
290.04	2918.36
290.25	2473.95
290.47	2605.02
290.68	2725.85
290.90	2883.54
291.11	2498.52
291.33	2766.81
291.54	2619.35
291.76	2621.40
291.97	2691.03
292.18	2662.36
292.40	2695.13
292.61	2559.96
292.83	2891.73
293.04	2605.02
293.26	2787.29
293.47	2686.94
293.69	2525.15
293.90	2531.29
294.12	2906.07
294.33	2701.27
294.55	2609.11
294.76	2686.94
294.97	2881.49
295.19	2998.23
295.40	2648.02
295.62	2670.55
295.83	2842.58
296.05	2621.40
296.26	2826.20
296.48	2588.63
296.69	2693.08
296.90	2699.22
297.12	2697.17
297.33	2688.98
297.55	2760.66
297.76	2813.91
297.98	2723.80
298.19	2688.98
298.41	2703.32
298.62	2598.87
298.83	2807.77
299.05	2703.32
299.26	2637.78
299.48	2602.97
299.69	2768.85
299.90	2607.06
300.12	2555.86
300.33	2850.77
300.55	2598.87
300.76	2629.59
300.98	2576.34
301.19	2822.10
301.40	2627.54
301.62	2562.01
301.83	2809.81
302.05	2711.51
302.26	2564.06
302.47	2625.50
302.69	2525.15
302.90	2754.52
303.12	2361.31
303.33	2770.90
303.54	3080.14
303.76	2750.42
303.97	2605.02
304.19	2746.33
304.40	2549.72
304.61	2805.72
304.83	2695.13
305.04	2744.28
305.26	2787.29
305.47	2674.65
305.68	2701.27
305.90	2490.33
306.11	2940.88
306.33	2717.65
306.54	2537.43
306.75	2551.77
306.97	2469.85
307.18	2596.82
307.39	2629.59
307.61	2611.16
307.82	2648.02
308.04	2715.61
308.25	2564.06
308.46	2750.42
308.68	2703.32
308.89	2744.28
309.10	2713.56
309.32	2736.09
309.53	2705.37
309.74	2760.66
309.96	2572.25
310.17	2756.57
310.39	2639.83
310.60	2840.53
310.81	2654.17
311.03	2553.82
311.24	2807.77
311.45	2703.32
311.67	2809.81
311.88	2594.78
312.09	2697.17
312.31	2674.65
312.52	2527.19
312.73	2576.34
312.95	2568.15
313.16	2570.20
313.37	2697.17
313.59	2721.75
313.80	2883.54
314.01	2906.07
314.23	2658.26
314.44	2559.96
314.65	2580.44
314.87	2533.34
315.08	2535.39
315.29	2555.86
315.51	2619.35
315.72	2541.53
315.93	2684.89
316.15	2625.50
316.36	2705.37
316.57	2711.51
316.79	2662.36
317.00	2627.54
317.21	2799.57
317.43	2607.06
317.64	2633.69
317.85	2549.72
318.07	2596.82
318.28	2656.22
318.49	2738.13
318.70	2854.87
318.92	2785.24
319.13	2871.25
319.34	2848.72
319.56	2633.69
319.77	2832.34
319.98	2797.53
320.20	2783.19
320.41	2676.70
320.62	2791.38
320.83	2572.25
321.05	2791.38
321.26	2658.26
321.47	2703.32
321.69	2897.88
321.90	2414.56
322.11	2594.78
322.32	2715.61
322.54	2906.07
322.75	2613.21
322.96	3168.21
323.18	2435.03
323.39	2484.19
323.60	2562.01
323.81	2719.70
324.03	2731.99
324.24	2715.61
324.45	2740.18
324.66	2602.97
324.88	2844.63
325.09	2934.74
325.30	2613.21
325.52	2594.78
325.73	2772.95
325.94	2553.82
326.15	2514.91
326.37	2533.34
326.58	2846.68
326.79	2916.31
327.00	2492.38
327.22	2605.02
327.43	2621.40
327.64	2543.58
327.85	2738.13
328.07	2607.06
328.28	3033.04
328.49	2703.32
328.70	2590.68
328.92	2660.31
329.13	2701.27
329.34	2727.89
329.55	2818.00
329.76	2775.00
329.98	2609.11
330.19	2922.45
330.40	2707.41
330.61	2635.74
330.83	2858.96
331.04	2510.81
331.25	2670.55
331.46	2590.68
331.68	2559.96
331.89	2852.82
332.10	2598.87
332.31	2482.14
332.52	2650.07
332.74	2936.79
332.95	2469.85
333.16	2547.67
333.37	2891.73
333.58	2588.63
333.80	2607.06
334.01	2449.37
334.22	2686.94
334.43	2623.45
334.64	2592.73
334.86	2555.86
335.07	2611.16
335.28	2865.11
335.49	2443.23
335.70	2652.12
335.92	2965.46
336.13	3043.28
336.34	2662.36
336.55	2648.02
336.76	2756.57
336.98	2447.32
337.19	2623.45
337.40	2727.89
337.61	3125.20
337.82	2637.78
338.04	2709.46
338.25	2435.03
338.46	2656.22
338.67	2746.33
338.88	2568.15
339.09	2525.15
339.31	2676.70
339.52	2586.58
339.73	2541.53
339.94	2678.74
340.15	2787.29
340.36	2621.40
340.58	2650.07
340.79	2596.82
341.00	2893.78
341.21	2637.78
341.42	2834.39
341.63	2639.83
341.85	2818.00
342.06	2693.08
342.27	2564.06
342.48	2715.61
342.69	2584.54
342.90	2805.72
343.12	2781.14
343.33	2580.44
343.54	2871.25
343.75	2908.12
343.96	2539.48
344.17	2471.90
344.38	2699.22
344.60	2623.45
344.81	2529.24
345.02	2547.67
345.23	2848.72
345.44	3135.44
345.65	2668.50
345.86	2711.51
346.07	2752.47
346.29	2654.17
346.50	2660.31
346.71	2731.99
346.92	2924.50
347.13	3047.38
347.34	2684.89
347.55	2504.67
347.76	2811.86
347.98	2430.94
348.19	2578.39
348.40	2748.37
348.61	2652.12
348.82	2969.55
349.03	2654.17
349.24	2574.30
349.45	3041.23
349.66	2371.55
349.88	2529.24
350.09	2512.86
350.30	2987.99
350.51	2969.55
350.72	2795.48
350.93	2635.74
351.14	2678.74
351.35	2711.51
351.56	2584.54
351.77	2676.70
351.99	2789.33
352.20	2973.65
352.41	2756.57
352.62	2447.32
352.83	2654.17
353.04	2781.14
353.25	2605.02
353.46	2676.70
353.67	2832.34
353.88	2435.03
354.09	2488.28
354.30	2639.83
354.52	2826.20
354.73	2695.13
354.94	2527.19
355.15	2654.17
355.36	3084.24
355.57	2654.17
355.78	2619.35
355.99	2555.86
356.20	2674.65
356.41	2861.01
356.62	2672.60
356.83	2623.45
357.04	2967.51
357.25	2519.00
357.46	2557.91
357.68	2488.28
357.89	2592.73
358.10	2731.99
358.31	2676.70
358.52	2559.96
358.73	2582.49
358.94	2629.59
359.15	2621.40
359.36	2691.03
359.57	2727.89
359.78	2600.92
359.99	2707.41
360.20	2500.57
360.41	2740.18
360.62	2772.95
360.83	2652.12
361.04	2584.54
361.25	2783.19
361.46	2912.21
361.67	2707.41
361.88	2740.18
362.09	2926.55
362.30	2852.82
362.51	2578.39
362.72	2676.70
362.93	2856.92
363.14	2772.95
363.35	2723.80
363.56	2547.67
363.78	2824.15
363.99	2832.34
364.20	2588.63
364.41	2729.94
364.62	3055.57
364.83	2748.37
365.04	2629.59
365.25	2578.39
365.46	3006.42
365.67	2570.20
365.88	2619.35
366.09	2543.58
366.30	2719.70
366.51	2711.51
366.72	2549.72
366.93	2600.92
367.14	2777.05
367.35	2932.69
367.56	2605.02
367.77	2752.47
367.98	2744.28
368.18	2801.62
368.39	2686.94
368.60	2498.52
368.81	2881.49
369.02	2713.56
369.23	2625.50
369.44	2371.55
369.65	2678.74
369.86	2850.77
370.07	2711.51
370.28	2525.15
370.49	2807.77
370.70	2783.19
370.91	2555.86
371.12	2465.75
371.33	2854.87
371.54	2615.26
371.75	2785.24
371.96	2432.99
372.17	2725.85
372.38	2680.79
372.59	2637.78
372.80	2617.30
373.01	2684.89
373.22	2721.75
373.43	2598.87
373.64	2484.19
373.85	2912.21
374.06	2932.69
374.26	2748.37
374.47	2707.41
374.68	2957.27
374.89	2807.77
375.10	2658.26
375.31	2652.12
375.52	2756.57
375.73	2729.94
375.94	2531.29
376.15	2791.38
376.36	2580.44
376.57	2639.83
376.78	2625.50
376.99	2691.03
377.20	2940.88
377.40	2676.70
377.61	2854.87
377.82	2566.10
378.03	2944.98
378.24	2838.48
378.45	2686.94
378.66	2670.55
378.87	2516.95
379.08	2494.43
379.29	2541.53
379.50	2781.14
379.71	2594.78
379.91	2901.97
380.12	2613.21
380.33	2639.83
380.54	2684.89
380.75	2611.16
380.96	2650.07
381.17	2719.70
381.38	2678.74
381.59	2707.41
381.80	2623.45
382.00	2846.68
382.21	2750.42
382.42	2944.98
382.63	3002.32
382.84	2789.33
383.05	2840.53
383.26	2924.50
383.47	2754.52
383.68	2594.78
383.88	2842.58
384.09	2789.33
384.30	2850.77
384.51	2629.59
384.72	2723.80
384.93	2463.71
385.14	2674.65
385.35	2813.91
385.55	2529.24
385.76	2807.77
385.97	2596.82
386.18	2484.19
386.39	2629.59
386.60	2656.22
386.81	2576.34
387.02	2535.39
387.22	2555.86
387.43	2842.58
387.64	2719.70
387.85	2856.92
388.06	2891.73
388.27	3917.76
388.48	7520.14
388.68	10925.91
388.89	13549.36
389.10	14352.16
389.31	13762.35
389.52	10964.82
389.73	9525.10
389.93	8607.61
390.14	7888.78
390.35	7051.16
390.56	6512.54
390.77	5294.00
390.98	4186.05
391.18	3379.15
391.39	3117.01
391.60	2783.19
391.81	2799.57
392.02	2611.16
392.23	3104.72
392.43	2736.09
392.64	2832.34
392.85	2703.32
393.06	2996.18
393.27	2662.36
393.47	2562.01
393.68	2688.98
393.89	2629.59
394.10	2856.92
394.31	2574.30
394.52	2590.68
394.72	2641.88
394.93	2934.74
395.14	2596.82
395.35	2723.80
395.56	2594.78
395.76	2674.65
395.97	2705.37
396.18	2742.23
396.39	2815.96
396.60	3248.08
396.80	2981.84
397.01	2789.33
397.22	2791.38
397.43	2867.16
397.64	2596.82
397.84	2678.74
398.05	2981.84
398.26	2701.27
398.47	2789.33
398.67	2793.43
398.88	2580.44
399.09	2887.64
399.30	2674.65
399.51	2762.71
399.71	2592.73
399.92	2783.19
400.13	2748.37
400.34	2648.02
400.54	2744.28
400.75	3018.71
400.96	2695.13
401.17	2875.35
401.37	2863.06
401.58	2713.56
401.79	2662.36
402.00	2795.48
402.21	3209.17
402.41	3098.58
402.62	2889.68
402.83	3030.99
403.04	3076.05
403.24	3301.33
403.45	2719.70
403.66	2838.48
403.87	2940.88
404.07	2938.84
404.28	2840.53
404.49	2914.26
404.70	2824.15
404.90	2891.73
405.11	2686.94
405.32	2752.47
405.52	2656.22
405.73	2631.64
405.94	2531.29
406.15	2666.46
406.35	2887.64
406.56	2840.53
406.77	2674.65
406.98	2709.46
407.18	2611.16
407.39	2942.93
407.60	2766.81
407.80	2742.23
408.01	2654.17
408.22	2715.61
408.43	2521.05
408.63	2674.65
408.84	2850.77
409.05	2779.09
409.25	2627.54
409.46	2537.43
409.67	2836.44
409.88	2654.17
410.08	2727.89
410.29	2680.79
410.50	2865.11
410.70	2789.33
410.91	2555.86
411.12	2596.82
411.32	2789.33
411.53	2596.82
411.74	2668.50
411.95	2707.41
412.15	2758.61
412.36	2848.72
412.57	2703.32
412.77	2793.43
412.98	2703.32
413.19	2719.70
413.39	2684.89
413.60	2746.33
413.81	2936.79
414.01	2543.58
414.22	2707.41
414.43	2789.33
414.63	2635.74
414.84	2940.88
415.05	2637.78
415.25	2508.76
415.46	2805.72
415.67	2670.55
415.87	2697.17
416.08	2674.65
416.29	2637.78
416.49	2754.52
416.70	2609.11
416.91	2635.74
417.11	2680.79
417.32	2768.85
417.53	2779.09
417.73	2772.95
417.94	2670.55
418.15	2729.94
418.35	2627.54
418.56	2731.99
418.77	3119.06
418.97	2721.75
419.18	2672.60
419.38	2357.21
419.59	2752.47
419.80	2996.18
420.00	2564.06
420.21	2625.50
420.42	2881.49
420.62	2760.66
420.83	2627.54
421.04	2605.02
421.24	2686.94
421.45	2727.89
421.65	2701.27
421.86	2645.98
422.07	2908.12
422.27	2830.29
422.48	2621.40
422.69	2508.76
422.89	2729.94
423.10	2772.95
423.30	2553.82
423.51	2750.42
423.72	2854.87
423.92	2904.02
424.13	2504.67
424.33	2686.94
424.54	2809.81
424.75	2742.23
424.95	2871.25
425.16	2682.84
425.36	2719.70
425.57	2820.05
425.78	2697.17
425.98	2731.99
426.19	2740.18
426.39	2570.20
426.60	2668.50
426.81	2785.24
427.01	2736.09
427.22	2576.34
427.42	2490.33
427.63	2594.78
427.83	2875.35
428.04	2924.50
428.25	2734.04
428.45	2858.96
428.66	2912.21
428.86	2691.03
429.07	2686.94
429.28	2682.84
429.48	2721.75
429.69	2699.22
429.89	2654.17
430.10	2494.43
430.30	2742.23
430.51	2977.75
430.71	2633.69
430.92	2586.58
431.13	2686.94
431.33	2846.68
431.54	2674.65
431.74	2801.62
431.95	3000.27
432.15	2580.44
432.36	2658.26
432.56	2809.81
432.77	2992.08
432.98	2971.60
433.18	2764.76
433.39	2574.30
433.59	2660.31
433.80	2975.70
434.00	2891.73
434.21	2623.45
434.41	2592.73
434.62	3065.81
434.82	2512.86
435.03	2576.34
435.23	2703.32
435.44	2527.19
435.64	2686.94
435.85	2668.50
436.06	2731.99
436.26	2828.24
436.47	2551.77
436.67	2637.78
436.88	2668.50
437.08	2971.60
437.29	2785.24
437.49	2748.37
437.70	2990.03
437.90	2736.09
438.11	2848.72
438.31	2686.94
438.52	2942.93
438.72	2877.40
438.93	2920.40
439.13	2703.32
439.34	2891.73
439.54	2691.03
439.75	2775.00
439.95	2775.00
440.16	2746.33
440.36	2697.17
440.57	2693.08
440.77	2699.22
440.98	2721.75
441.18	2772.95
441.39	2564.06
441.59	2590.68
441.80	3030.99
442.00	2707.41
442.21	2758.61
442.41	2549.72
442.62	2926.55
442.82	2588.63
443.02	2627.54
443.23	2701.27
443.43	2799.57
443.64	2975.70
443.84	2535.39
444.05	2805.72
444.25	2729.94
444.46	2717.65
444.66	2688.98
444.87	2822.10
445.07	2566.10
445.28	2670.55
445.48	2826.20
445.69	2736.09
445.89	3076.05
446.09	2725.85
446.30	2949.08
446.50	3160.02
446.71	4523.96
446.91	5730.22
447.12	6328.22
447.32	6807.45
447.53	6453.15
447.73	5484.46
447.93	4806.58
448.14	4509.63
448.34	4554.68
448.55	3825.61
448.75	3772.36
448.96	3641.29
449.16	3370.96
449.36	3207.12
449.57	2891.73
449.77	2615.26
449.98	2641.88
450.18	2811.86
450.39	2639.83
450.59	2811.86
450.79	2742.23
451.00	2684.89
451.20	2783.19
451.41	2713.56
451.61	2754.52
451.81	2668.50
452.02	2570.20
452.22	2666.46
452.43	2699.22
452.63	2650.07
