SpectraSuite Data File
++++++++++++++++++++++++++++++++++++
Date: Thu May 05 16:20:40 CEST 2016
User: root
Dark Spectrum Present: No
Reference Spectrum Present: No
Number of Sampled Component Spectra: 1
Spectrometers: USB4C02835
Integration Time (usec): 100000 (USB4C02835)
Spectra Averaged: 1 (USB4C02835)
Boxcar Smoothing: 0 (USB4C02835)
Correct for Electrical Dark: No (USB4C02835)
Strobe/Lamp Enabled: No (USB4C02835)
Correct for Detector Non-linearity: No (USB4C02835)
Correct for Stray Light: No (USB4C02835)
Number of Pixels in Processed Spectrum: 3648
>>>>>Begin Processed Spectral Data<<<<<
177.47	2021.35
177.69	2021.35
177.91	2021.35
178.13	2023.39
178.36	2043.87
178.58	2490.33
178.80	2705.37
179.02	2562.01
179.24	2547.67
179.46	2422.75
179.68	2492.38
179.90	2662.36
180.13	2762.71
180.35	2422.75
180.57	2432.99
180.79	2801.62
181.01	2746.33
181.23	2580.44
181.45	2625.50
181.67	2799.57
181.90	2867.16
182.12	2490.33
182.34	2375.64
182.56	2801.62
182.78	2799.57
183.00	2461.66
183.22	2508.76
183.44	2502.62
183.66	3145.68
183.89	2607.06
184.11	2506.71
184.33	2836.44
184.55	2947.03
184.77	2484.19
184.99	2541.53
185.21	2740.18
185.43	3117.01
185.65	2488.28
185.87	2416.60
186.10	3096.53
186.32	3203.02
186.54	2537.43
186.76	2623.45
186.98	2852.82
187.20	2729.94
187.42	2525.15
187.64	2508.76
187.86	2799.57
188.08	2881.49
188.30	2445.27
188.52	2590.68
188.75	2916.31
188.97	2932.69
189.19	2469.85
189.41	2498.52
189.63	2760.66
189.85	2652.12
190.07	2381.79
190.29	2416.60
190.51	2858.96
190.73	2592.73
190.95	2621.40
191.17	2537.43
191.39	2609.11
191.61	2727.89
191.84	2535.39
192.06	2617.30
192.28	2506.71
192.50	3155.92
192.72	2658.26
192.94	2607.06
193.16	2877.40
193.38	2779.09
193.60	2467.80
193.82	2535.39
194.04	2834.39
194.26	2731.99
194.48	2580.44
194.70	2519.00
194.92	2666.46
195.14	2899.92
195.36	2473.95
195.58	2611.16
195.80	2701.27
196.02	2635.74
196.24	2566.10
196.46	2629.59
196.69	2662.36
196.91	3153.87
197.13	2480.09
197.35	2471.90
197.57	2971.60
197.79	2861.01
198.01	2553.82
198.23	2533.34
198.45	2809.81
198.67	2590.68
198.89	2398.17
199.11	2572.25
199.33	2580.44
199.55	2437.08
199.77	2510.81
199.99	2637.78
200.21	2594.78
200.43	2822.10
200.65	2412.51
200.87	2406.36
201.09	2738.13
201.31	2662.36
201.53	2570.20
201.75	2553.82
201.97	2652.12
202.19	2715.61
202.41	2627.54
202.63	2705.37
202.85	2766.81
203.07	2779.09
203.29	2605.02
203.51	2416.60
203.73	2682.84
203.95	3135.44
204.17	2564.06
204.39	2676.70
204.61	2760.66
204.83	2648.02
205.05	2650.07
205.27	2484.19
205.49	2963.41
205.71	2695.13
205.93	2385.88
206.15	2437.08
206.37	2723.80
206.59	2744.28
206.81	2414.56
207.03	2514.91
207.25	2594.78
207.47	2795.48
207.69	2549.72
207.91	2695.13
208.13	3008.47
208.34	2635.74
208.56	2469.85
208.78	2607.06
209.00	2688.98
209.22	2674.65
209.44	2490.33
209.66	2553.82
209.88	2695.13
210.10	2664.41
210.32	2529.24
210.54	2543.58
210.76	2748.37
210.98	2889.68
211.20	2404.32
211.42	2580.44
211.64	2930.64
211.86	2719.70
212.08	2564.06
212.30	2527.19
212.52	2703.32
212.74	2750.42
212.96	2572.25
213.17	2590.68
213.39	2785.24
213.61	2848.72
213.83	2531.29
214.05	2369.50
214.27	2777.05
214.49	2625.50
214.71	2398.17
214.93	2633.69
215.15	2695.13
215.37	2826.20
215.59	2342.88
215.81	2625.50
216.03	3024.85
216.24	2682.84
216.46	2502.62
216.68	2629.59
216.90	2869.20
217.12	2895.83
217.34	2492.38
217.56	2639.83
217.78	2938.84
218.00	2885.59
218.22	2564.06
218.44	2586.58
218.66	2660.31
218.87	2992.08
219.09	2519.00
219.31	2512.86
219.53	2787.29
219.75	2750.42
219.97	2492.38
220.19	2500.57
220.41	2703.32
220.63	2957.27
220.85	2527.19
221.06	2533.34
221.28	2942.93
221.50	2797.53
221.72	2494.43
221.94	2416.60
222.16	2740.18
222.38	2807.77
222.60	2510.81
222.82	2566.10
223.03	2895.83
223.25	2605.02
223.47	2484.19
223.69	2652.12
223.91	2875.35
224.13	2729.94
224.35	2412.51
224.57	2633.69
224.78	2772.95
225.00	2613.21
225.22	2564.06
225.44	2516.95
225.66	2815.96
225.88	2654.17
226.10	2594.78
226.32	2490.33
226.53	3010.51
226.75	2719.70
226.97	2615.26
227.19	2516.95
227.41	2588.63
227.63	2611.16
227.85	2394.08
228.06	2559.96
228.28	2725.85
228.50	2842.58
228.72	2383.84
228.94	2498.52
229.16	2512.86
229.37	2609.11
229.59	2441.18
229.81	2697.17
230.03	2691.03
230.25	2543.58
230.47	2375.64
230.69	2441.18
230.90	2858.96
231.12	2609.11
231.34	2539.48
231.56	2580.44
231.78	2504.67
232.00	2729.94
232.21	2531.29
232.43	2453.47
232.65	2414.56
232.87	2865.11
233.09	2392.03
233.30	2430.94
233.52	2824.15
233.74	2729.94
233.96	2535.39
234.18	2662.36
234.40	2721.75
234.61	3053.52
234.83	2392.03
235.05	2463.71
235.27	3112.91
235.49	2805.72
235.70	2443.23
235.92	2602.97
236.14	2762.71
236.36	3123.15
236.58	2396.12
236.79	2633.69
237.01	2740.18
237.23	2740.18
237.45	2723.80
237.67	2510.81
237.88	2777.05
238.10	2983.89
238.32	2473.95
238.54	2537.43
238.76	2662.36
238.97	2611.16
239.19	2435.03
239.41	2555.86
239.63	2807.77
239.85	2627.54
240.06	2492.38
240.28	2484.19
240.50	2877.40
240.72	2654.17
240.93	2465.75
241.15	2592.73
241.37	2740.18
241.59	2904.02
241.81	2525.15
242.02	2557.91
242.24	2826.20
242.46	2832.34
242.68	2320.35
242.89	2494.43
243.11	2830.29
243.33	2738.13
243.55	2512.86
243.76	2568.15
243.98	2652.12
244.20	2715.61
244.42	2549.72
244.64	2525.15
244.85	2590.68
245.07	2631.64
245.29	2498.52
245.51	2555.86
245.72	2758.61
245.94	2861.01
246.16	2494.43
246.38	2588.63
246.59	2746.33
246.81	2693.08
247.03	2475.99
247.24	2381.79
247.46	2650.07
247.68	2725.85
247.90	2463.71
248.11	2543.58
248.33	2852.82
248.55	2625.50
248.77	2609.11
248.98	2586.58
249.20	3020.75
249.42	2715.61
249.64	2562.01
249.85	2496.47
250.07	2625.50
250.29	2820.05
250.50	2568.15
250.72	2418.65
250.94	2781.14
251.16	3045.33
251.37	2525.15
251.59	2594.78
251.81	2783.19
252.02	3000.27
252.24	2441.18
252.46	2617.30
252.68	2637.78
252.89	2629.59
253.11	2338.78
253.33	2656.22
253.54	2955.22
253.76	2527.19
253.98	2519.00
254.20	2447.32
254.41	2533.34
254.63	2686.94
254.85	2381.79
255.06	2557.91
255.28	2727.89
255.50	2660.31
255.71	2414.56
255.93	2432.99
256.15	2756.57
256.36	2809.81
256.58	2377.69
256.80	2461.66
257.02	2703.32
257.23	2650.07
257.45	2594.78
257.67	2596.82
257.88	2617.30
258.10	2838.48
258.32	2516.95
258.53	2584.54
258.75	2873.30
258.97	2707.41
259.18	2502.62
259.40	2482.14
259.62	3012.56
259.83	2987.99
260.05	2529.24
260.27	3131.34
260.48	2863.06
260.70	2641.88
260.92	2389.98
261.13	2521.05
261.35	2731.99
261.57	2744.28
261.78	2326.49
262.00	2451.42
262.22	2818.00
262.43	2648.02
262.65	2516.95
262.86	2537.43
263.08	3149.78
263.30	2740.18
263.51	2418.65
263.73	2396.12
263.95	2977.75
264.16	2691.03
264.38	2377.69
264.60	2500.57
264.81	2672.60
265.03	2922.45
265.25	2807.77
265.46	2480.09
265.68	2863.06
265.89	2893.78
266.11	2369.50
266.33	2574.30
266.54	2799.57
266.76	2842.58
266.98	2580.44
267.19	2674.65
267.41	2854.87
267.62	2643.93
267.84	2351.07
268.06	2637.78
268.27	2766.81
268.49	2861.01
268.70	2547.67
268.92	2549.72
269.14	2598.87
269.35	2531.29
269.57	2641.88
269.79	2617.30
270.00	2631.64
270.22	2965.46
270.43	2562.01
270.65	2410.46
270.87	2740.18
271.08	2820.05
271.30	2629.59
271.51	2521.05
271.73	2844.63
271.95	2953.17
272.16	2461.66
272.38	2594.78
272.59	2648.02
272.81	2746.33
273.02	2562.01
273.24	2602.97
273.46	2830.29
273.67	2459.61
273.89	2396.12
274.10	2494.43
274.32	2869.20
274.54	2756.57
274.75	2570.20
274.97	2551.77
275.18	2863.06
275.40	2791.38
275.61	2613.21
275.83	2625.50
276.05	2584.54
276.26	2719.70
276.48	2633.69
276.69	2598.87
276.91	2641.88
277.12	2889.68
277.34	2719.70
277.55	2674.65
277.77	2777.05
277.99	2652.12
278.20	2660.31
278.42	2508.76
278.63	2637.78
278.85	2514.91
279.06	2514.91
279.28	2703.32
279.49	2815.96
279.71	2801.62
279.93	2637.78
280.14	2625.50
280.36	2617.30
280.57	2897.88
280.79	2711.51
281.00	2490.33
281.22	2619.35
281.43	2873.30
281.65	2383.84
281.86	2512.86
282.08	2754.52
282.29	3030.99
282.51	2490.33
282.73	2490.33
282.94	2586.58
283.16	2801.62
283.37	2758.61
283.59	2631.64
283.80	2793.43
284.02	2746.33
284.23	2609.11
284.45	2670.55
284.66	2533.34
284.88	2543.58
285.09	2580.44
285.31	2742.23
285.52	2772.95
285.74	2463.71
285.95	2777.05
286.17	2717.65
286.38	2932.69
286.60	2691.03
286.81	2531.29
287.03	2578.39
287.24	2719.70
287.46	2721.75
287.67	2660.31
287.89	2922.45
288.10	2688.98
288.32	2746.33
288.53	2723.80
288.75	2619.35
288.96	2811.86
289.18	2621.40
289.39	2596.82
289.61	2678.74
289.82	3094.48
290.04	2959.31
290.25	2580.44
290.47	2578.39
290.68	2695.13
290.90	2756.57
291.11	2414.56
291.33	2744.28
291.54	2672.60
291.76	2615.26
291.97	2736.09
292.18	2664.41
292.40	2602.97
292.61	2695.13
292.83	2938.84
293.04	2648.02
293.26	2744.28
293.47	2699.22
293.69	2592.73
293.90	2584.54
294.12	2850.77
294.33	2650.07
294.55	2600.92
294.76	2707.41
294.97	3010.51
295.19	3055.57
295.40	2555.86
295.62	2678.74
295.83	2861.01
296.05	2674.65
296.26	2842.58
296.48	2535.39
296.69	2670.55
296.90	2766.81
297.12	2719.70
297.33	2770.90
297.55	2787.29
297.76	2805.72
297.98	2676.70
298.19	2684.89
298.41	2756.57
298.62	2650.07
298.83	2818.00
299.05	2645.98
299.26	2699.22
299.48	2582.49
299.69	2625.50
299.90	2572.25
300.12	2557.91
300.33	2873.30
300.55	2586.58
300.76	2674.65
300.98	2588.63
301.19	2729.94
301.40	2613.21
301.62	2568.15
301.83	2699.22
302.05	2715.61
302.26	2547.67
302.47	2656.22
302.69	2551.77
302.90	2721.75
303.12	2406.36
303.33	2783.19
303.54	2924.50
303.76	2594.78
303.97	2519.00
304.19	2752.47
304.40	2568.15
304.61	2779.09
304.83	2770.90
305.04	2691.03
305.26	2820.05
305.47	2719.70
305.68	2578.39
305.90	2551.77
306.11	2822.10
306.33	2719.70
306.54	2443.23
306.75	2592.73
306.97	2502.62
307.18	2584.54
307.39	2588.63
307.61	2662.36
307.82	2727.89
308.04	2754.52
308.25	2600.92
308.46	2705.37
308.68	2734.04
308.89	2686.94
309.10	2770.90
309.32	2682.84
309.53	2717.65
309.74	2803.67
309.96	2508.76
310.17	2789.33
310.39	2719.70
310.60	2795.48
310.81	2588.63
311.03	2490.33
311.24	2809.81
311.45	2754.52
311.67	2840.53
311.88	2725.85
312.09	2684.89
312.31	2707.41
312.52	2529.24
312.73	2607.06
312.95	2525.15
313.16	2650.07
313.37	2834.39
313.59	2723.80
313.80	2803.67
314.01	2908.12
314.23	2633.69
314.44	2609.11
314.65	2557.91
314.87	2703.32
315.08	2574.30
315.29	2586.58
315.51	2557.91
315.72	2510.81
315.93	2695.13
316.15	2693.08
316.36	2564.06
316.57	2731.99
316.79	2650.07
317.00	2605.02
317.21	2783.19
317.43	2631.64
317.64	2641.88
317.85	2590.68
318.07	2686.94
318.28	2654.17
318.49	2656.22
318.70	2861.01
318.92	2830.29
319.13	2809.81
319.34	2828.24
319.56	2533.34
319.77	2832.34
319.98	2731.99
320.20	2873.30
320.41	2760.66
320.62	2795.48
320.83	2502.62
321.05	2801.62
321.26	2668.50
321.47	2686.94
321.69	2861.01
321.90	2455.51
322.11	2541.53
322.32	2760.66
322.54	3010.51
322.75	2535.39
322.96	3110.86
323.18	2521.05
323.39	2535.39
323.60	2547.67
323.81	2684.89
324.03	2588.63
324.24	2654.17
324.45	2729.94
324.66	2539.48
324.88	2940.88
325.09	2863.06
325.30	2643.93
325.52	2637.78
325.73	2760.66
325.94	2631.64
326.15	2504.67
326.37	2471.90
326.58	2772.95
326.79	3061.71
327.00	2514.91
327.22	2643.93
327.43	2684.89
327.64	2514.91
327.85	2686.94
328.07	2693.08
328.28	2944.98
328.49	2637.78
328.70	2600.92
328.92	2584.54
329.13	2586.58
329.34	2779.09
329.55	2869.20
329.76	2705.37
329.98	2775.00
330.19	2975.70
330.40	2699.22
330.61	2688.98
330.83	2815.96
331.04	2580.44
331.25	2731.99
331.46	2627.54
331.68	2547.67
331.89	2799.57
332.10	2654.17
332.31	2596.82
332.52	2754.52
332.74	2893.78
332.95	2498.52
333.16	2619.35
333.37	2891.73
333.58	2654.17
333.80	2654.17
334.01	2445.27
334.22	2703.32
334.43	2588.63
334.64	2559.96
334.86	2525.15
335.07	2686.94
335.28	2848.72
335.49	2461.66
335.70	2666.46
335.92	2914.26
336.13	3078.10
336.34	2691.03
336.55	2592.73
336.76	2768.85
336.98	2408.41
337.19	2598.87
337.40	2746.33
337.61	3084.24
337.82	2629.59
338.04	2697.17
338.25	2486.23
338.46	2666.46
338.67	2686.94
338.88	2541.53
339.09	2559.96
339.31	2688.98
339.52	2549.72
339.73	2539.48
339.94	2607.06
340.15	2832.34
340.36	2596.82
340.58	2576.34
340.79	2525.15
341.00	2768.85
341.21	2602.97
341.42	2760.66
341.63	2568.15
341.85	2848.72
342.06	2717.65
342.27	2539.48
342.48	2740.18
342.69	2574.30
342.90	2799.57
343.12	2695.13
343.33	2600.92
343.54	2842.58
343.75	2885.59
343.96	2637.78
344.17	2535.39
344.38	2684.89
344.60	2643.93
344.81	2478.04
345.02	2617.30
345.23	2881.49
345.44	3090.38
345.65	2654.17
345.86	2707.41
346.07	2858.96
346.29	2555.86
346.50	2693.08
346.71	2691.03
346.92	2979.79
347.13	3084.24
347.34	2592.73
347.55	2596.82
347.76	2738.13
347.98	2553.82
348.19	2643.93
348.40	2734.04
348.61	2719.70
348.82	2918.36
349.03	2717.65
349.24	2445.27
349.45	3059.67
349.66	2400.22
349.88	2596.82
350.09	2572.25
350.30	2928.60
350.51	2889.68
350.72	2752.47
350.93	2586.58
351.14	2686.94
351.35	2766.81
351.56	2701.27
351.77	2670.55
351.99	2834.39
352.20	2951.12
352.41	2799.57
352.62	2439.13
352.83	2678.74
353.04	2654.17
353.25	2641.88
353.46	2660.31
353.67	2912.21
353.88	2533.34
354.09	2596.82
354.30	2615.26
354.52	2832.34
354.73	2674.65
354.94	2535.39
355.15	2619.35
355.36	2981.84
355.57	2625.50
355.78	2639.83
355.99	2527.19
356.20	2672.60
356.41	2901.97
356.62	2674.65
356.83	2592.73
357.04	2809.81
357.25	2494.43
357.46	2625.50
357.68	2473.95
357.89	2602.97
358.10	2750.42
358.31	2582.49
358.52	2609.11
358.73	2545.63
358.94	2631.64
359.15	2625.50
359.36	2631.64
359.57	2721.75
359.78	2725.85
359.99	2736.09
360.20	2461.66
360.41	2619.35
360.62	2766.81
360.83	2619.35
361.04	2566.10
361.25	2863.06
361.46	2914.26
361.67	2713.56
361.88	2658.26
362.09	2832.34
362.30	2723.80
362.51	2559.96
362.72	2650.07
362.93	2787.29
363.14	2826.20
363.35	2682.84
363.56	2430.94
363.78	2822.10
363.99	2914.26
364.20	2592.73
364.41	2703.32
364.62	2973.65
364.83	2641.88
365.04	2703.32
365.25	2588.63
365.46	3090.38
365.67	2701.27
365.88	2678.74
366.09	2611.16
366.30	2660.31
366.51	2760.66
366.72	2486.23
366.93	2586.58
367.14	2838.48
367.35	2914.26
367.56	2641.88
367.77	2713.56
367.98	2709.46
368.18	2781.14
368.39	2629.59
368.60	2578.39
368.81	2854.87
369.02	2840.53
369.23	2619.35
369.44	2463.71
369.65	2678.74
369.86	2779.09
370.07	2736.09
370.28	2510.81
370.49	2797.53
370.70	2772.95
370.91	2510.81
371.12	2482.14
371.33	2928.60
371.54	2592.73
371.75	2836.44
371.96	2420.70
372.17	2768.85
372.38	2678.74
372.59	2596.82
372.80	2541.53
373.01	2715.61
373.22	2686.94
373.43	2643.93
373.64	2480.09
373.85	2895.83
374.06	2967.51
374.26	2707.41
374.47	2645.98
374.68	2906.07
374.89	2797.53
375.10	2551.77
375.31	2711.51
375.52	2736.09
375.73	2736.09
375.94	2521.05
376.15	2709.46
376.36	2643.93
376.57	2549.72
376.78	2600.92
376.99	2760.66
377.20	2844.63
377.40	2627.54
377.61	2842.58
377.82	2582.49
378.03	2889.68
378.24	2783.19
378.45	2703.32
378.66	2699.22
378.87	2547.67
379.08	2494.43
379.29	2504.67
379.50	2775.00
379.71	2652.12
379.91	2785.24
380.12	2539.48
380.33	2623.45
380.54	2709.46
380.75	2684.89
380.96	2629.59
381.17	2672.60
381.38	2695.13
381.59	2715.61
381.80	2594.78
382.00	2856.92
382.21	2760.66
382.42	2955.22
382.63	2942.93
382.84	2711.51
383.05	2840.53
383.26	2904.02
383.47	2672.60
383.68	2580.44
383.88	2867.16
384.09	2678.74
384.30	2953.17
384.51	2703.32
384.72	2695.13
384.93	2568.15
385.14	2502.62
385.35	2809.81
385.55	2525.15
385.76	2897.88
385.97	2666.46
386.18	2447.32
386.39	2602.97
386.60	2607.06
386.81	2600.92
387.02	2510.81
387.22	2496.47
387.43	2826.20
387.64	2703.32
387.85	2879.44
388.06	2867.16
388.27	3979.20
388.48	7585.68
388.68	11061.08
388.89	13391.67
389.10	14352.16
389.31	13799.21
389.52	10948.44
389.73	9512.81
389.93	8619.90
390.14	7915.40
390.35	7059.35
390.56	6350.75
390.77	5148.59
390.98	4050.88
391.18	3454.92
391.39	3131.34
391.60	2797.53
391.81	2826.20
392.02	2621.40
392.23	3080.14
392.43	2809.81
392.64	2836.44
392.85	2666.46
393.06	3006.42
393.27	2723.80
393.47	2564.06
393.68	2619.35
393.89	2629.59
394.10	2928.60
394.31	2652.12
394.52	2617.30
394.72	2658.26
394.93	2949.08
395.14	2469.85
395.35	2727.89
395.56	2523.10
395.76	2676.70
395.97	2611.16
396.18	2691.03
396.39	2768.85
396.60	3260.37
396.80	2990.03
397.01	2805.72
397.22	2758.61
397.43	2813.91
397.64	2631.64
397.84	2740.18
398.05	3104.72
398.26	2727.89
398.47	2785.24
398.67	2813.91
398.88	2746.33
399.09	2799.57
399.30	2547.67
399.51	2639.83
399.71	2600.92
399.92	2734.04
400.13	2674.65
400.34	2602.97
400.54	2668.50
400.75	2940.88
400.96	2668.50
401.17	2826.20
401.37	2731.99
401.58	2709.46
401.79	2600.92
402.00	2781.14
402.21	3143.63
402.41	2834.39
402.62	2942.93
402.83	3039.19
403.04	3059.67
403.24	3407.82
403.45	2750.42
403.66	2865.11
403.87	2912.21
404.07	2965.46
404.28	2871.25
404.49	2936.79
404.70	2793.43
404.90	2801.62
405.11	2668.50
405.32	2766.81
405.52	2658.26
405.73	2596.82
405.94	2547.67
406.15	2658.26
406.35	2879.44
406.56	2838.48
406.77	2697.17
406.98	2670.55
407.18	2580.44
407.39	2912.21
407.60	2660.31
407.80	2656.22
408.01	2707.41
408.22	2844.63
408.43	2641.88
408.63	2789.33
408.84	2891.73
409.05	2867.16
409.25	2586.58
409.46	2576.34
409.67	2666.46
409.88	2670.55
410.08	2643.93
410.29	2629.59
410.50	2822.10
410.70	2850.77
410.91	2498.52
411.12	2715.61
411.32	2662.36
411.53	2627.54
411.74	2738.13
411.95	2766.81
412.15	2715.61
412.36	2848.72
412.57	2787.29
412.77	2775.00
412.98	2643.93
413.19	2590.68
413.39	2731.99
413.60	2727.89
413.81	2944.98
414.01	2559.96
414.22	2684.89
414.43	2775.00
414.63	2643.93
414.84	2856.92
415.05	2654.17
415.25	2435.03
415.46	2861.01
415.67	2684.89
415.87	2670.55
416.08	2625.50
416.29	2676.70
416.49	2844.63
416.70	2676.70
416.91	2578.39
417.11	2701.27
417.32	2836.44
417.53	2777.05
417.73	2793.43
417.94	2639.83
418.15	2742.23
418.35	2645.98
418.56	2662.36
418.77	3022.80
418.97	2781.14
419.18	2650.07
419.38	2437.08
419.59	2709.46
419.80	2910.16
420.00	2570.20
420.21	2668.50
420.42	2895.83
420.62	2805.72
420.83	2586.58
421.04	2633.69
421.24	2641.88
421.45	2840.53
421.65	2676.70
421.86	2592.73
422.07	2797.53
422.27	2785.24
422.48	2545.63
422.69	2523.10
422.89	2686.94
423.10	2684.89
423.30	2631.64
423.51	2709.46
423.72	2842.58
423.92	2797.53
424.13	2525.15
424.33	2738.13
424.54	2897.88
424.75	2715.61
424.95	2891.73
425.16	2686.94
425.36	2707.41
425.57	2893.78
425.78	2811.86
425.98	2668.50
426.19	2654.17
426.39	2686.94
426.60	2719.70
426.81	2758.61
427.01	2777.05
427.22	2584.54
427.42	2432.99
427.63	2543.58
427.83	2963.41
428.04	2914.26
428.25	2672.60
428.45	2807.77
428.66	2863.06
428.86	2756.57
429.07	2656.22
429.28	2719.70
429.48	2766.81
429.69	2570.20
429.89	2703.32
430.10	2643.93
430.30	2850.77
430.51	2820.05
430.71	2594.78
430.92	2574.30
431.13	2754.52
431.33	2758.61
431.54	2785.24
431.74	2918.36
431.95	3108.82
432.15	2623.45
432.36	2684.89
432.56	2717.65
432.77	3006.42
432.98	2990.03
433.18	2711.51
433.39	2629.59
433.59	2668.50
433.80	2996.18
434.00	2871.25
434.21	2707.41
434.41	2627.54
434.62	3131.34
434.82	2488.28
435.03	2594.78
435.23	2856.92
435.44	2502.62
435.64	2631.64
435.85	2756.57
436.06	2797.53
436.26	2912.21
436.47	2650.07
436.67	2652.12
436.88	2719.70
437.08	2885.59
437.29	2746.33
437.49	2744.28
437.70	2971.60
437.90	2785.24
438.11	2818.00
438.31	2682.84
438.52	2969.55
438.72	2885.59
438.93	2996.18
439.13	2744.28
439.34	2901.97
439.54	2662.36
439.75	2766.81
439.95	2748.37
440.16	2637.78
440.36	2723.80
440.57	2686.94
440.77	2742.23
440.98	2793.43
441.18	2756.57
441.39	2521.05
441.59	2510.81
441.80	2934.74
442.00	2781.14
442.21	2854.87
442.41	2549.72
442.62	2932.69
442.82	2686.94
443.02	2713.56
443.23	2662.36
443.43	2658.26
443.64	2883.54
443.84	2551.77
444.05	2756.57
444.25	2750.42
444.46	2695.13
444.66	2682.84
444.87	2826.20
445.07	2486.23
445.28	2648.02
445.48	2791.38
445.69	2719.70
445.89	3065.81
446.09	2744.28
446.30	2942.93
446.50	3033.04
446.71	4634.55
446.91	5689.26
447.12	6520.73
447.32	6846.36
447.53	6416.29
447.73	5410.73
447.93	4827.06
448.14	4554.68
448.34	4403.13
448.55	3852.23
448.75	3901.38
448.96	3696.58
449.16	3370.96
449.36	3293.13
449.57	2869.20
449.77	2740.18
449.98	2637.78
450.18	2826.20
450.39	2658.26
450.59	2834.39
450.79	2809.81
451.00	2572.25
451.20	2815.96
451.41	2703.32
451.61	2906.07
451.81	2717.65
452.02	2615.26
452.22	2697.17
452.43	2660.31
452.63	2588.63
