SpectraSuite Data File
++++++++++++++++++++++++++++++++++++
Date: Thu May 05 16:20:47 CEST 2016
User: root
Dark Spectrum Present: No
Reference Spectrum Present: No
Number of Sampled Component Spectra: 1
Spectrometers: USB4C02835
Integration Time (usec): 100000 (USB4C02835)
Spectra Averaged: 1 (USB4C02835)
Boxcar Smoothing: 0 (USB4C02835)
Correct for Electrical Dark: No (USB4C02835)
Strobe/Lamp Enabled: No (USB4C02835)
Correct for Detector Non-linearity: No (USB4C02835)
Correct for Stray Light: No (USB4C02835)
Number of Pixels in Processed Spectrum: 3648
>>>>>Begin Processed Spectral Data<<<<<
177.47	2074.59
177.69	2074.59
177.91	2074.59
178.13	2029.54
178.36	1961.95
178.58	2498.52
178.80	2693.08
179.02	2543.58
179.24	2607.06
179.46	2394.08
179.68	2504.67
179.90	2688.98
180.13	2742.23
180.35	2402.27
180.57	2500.57
180.79	2854.87
181.01	2643.93
181.23	2549.72
181.45	2643.93
181.67	2791.38
181.90	2828.24
182.12	2529.24
182.34	2379.74
182.56	2838.48
182.78	2760.66
183.00	2437.08
183.22	2555.86
183.44	2394.08
183.66	3092.43
183.89	2686.94
184.11	2527.19
184.33	2850.77
184.55	2883.54
184.77	2525.15
184.99	2498.52
185.21	2674.65
185.43	3057.62
185.65	2535.39
185.87	2523.10
186.10	3045.33
186.32	3018.71
186.54	2607.06
186.76	2627.54
186.98	2940.88
187.20	2748.37
187.42	2584.54
187.64	2482.14
187.86	2822.10
188.08	2846.68
188.30	2426.84
188.52	2588.63
188.75	2912.21
188.97	2899.92
189.19	2490.33
189.41	2490.33
189.63	2740.18
189.85	2619.35
190.07	2439.13
190.29	2449.37
190.51	2738.13
190.73	2486.23
190.95	2678.74
191.17	2574.30
191.39	2490.33
191.61	2707.41
191.84	2607.06
192.06	2625.50
192.28	2465.75
192.50	3215.31
192.72	2674.65
192.94	2568.15
193.16	2922.45
193.38	2758.61
193.60	2342.88
193.82	2570.20
194.04	2863.06
194.26	2766.81
194.48	2490.33
194.70	2478.04
194.92	2641.88
195.14	2781.14
195.36	2447.32
195.58	2549.72
195.80	2723.80
196.02	2639.83
196.24	2490.33
196.46	2564.06
196.69	2588.63
196.91	3059.67
197.13	2447.32
197.35	2557.91
197.57	2934.74
197.79	2787.29
198.01	2584.54
198.23	2525.15
198.45	2854.87
198.67	2568.15
198.89	2408.41
199.11	2557.91
199.33	2625.50
199.55	2441.18
199.77	2480.09
199.99	2701.27
200.21	2613.21
200.43	2877.40
200.65	2426.84
200.87	2426.84
201.09	2684.89
201.31	2682.84
201.53	2525.15
201.75	2580.44
201.97	2688.98
202.19	2648.02
202.41	2609.11
202.63	2621.40
202.85	2791.38
203.07	2805.72
203.29	2506.71
203.51	2408.41
203.73	2600.92
203.95	3178.45
204.17	2564.06
204.39	2578.39
204.61	2678.74
204.83	2705.37
205.05	2664.41
205.27	2488.28
205.49	3051.47
205.71	2727.89
205.93	2340.83
206.15	2428.89
206.37	2783.19
206.59	2662.36
206.81	2406.36
207.03	2432.99
207.25	2613.21
207.47	2791.38
207.69	2539.48
207.91	2711.51
208.13	2955.22
208.34	2709.46
208.56	2459.61
208.78	2521.05
209.00	2586.58
209.22	2631.64
209.44	2574.30
209.66	2461.66
209.88	2731.99
210.10	2664.41
210.32	2557.91
210.54	2643.93
210.76	2719.70
210.98	2856.92
211.20	2406.36
211.42	2568.15
211.64	2922.45
211.86	2744.28
212.08	2580.44
212.30	2543.58
212.52	2664.41
212.74	2762.71
212.96	2623.45
213.17	2541.53
213.39	2797.53
213.61	2930.64
213.83	2535.39
214.05	2381.79
214.27	2815.96
214.49	2605.02
214.71	2521.05
214.93	2609.11
215.15	2766.81
215.37	2854.87
215.59	2465.75
215.81	2510.81
216.03	2873.30
216.24	2752.47
216.46	2523.10
216.68	2605.02
216.90	2854.87
217.12	2875.35
217.34	2531.29
217.56	2650.07
217.78	2891.73
218.00	2824.15
218.22	2549.72
218.44	2664.41
218.66	2754.52
218.87	3039.19
219.09	2504.67
219.31	2592.73
219.53	2727.89
219.75	2697.17
219.97	2553.82
220.19	2539.48
220.41	2686.94
220.63	2963.41
220.85	2588.63
221.06	2580.44
221.28	2895.83
221.50	2822.10
221.72	2545.63
221.94	2398.17
222.16	2629.59
222.38	2838.48
222.60	2570.20
222.82	2576.34
223.03	2889.68
223.25	2537.43
223.47	2514.91
223.69	2705.37
223.91	2840.53
224.13	2777.05
224.35	2469.85
224.57	2666.46
224.78	2867.16
225.00	2549.72
225.22	2576.34
225.44	2531.29
225.66	2717.65
225.88	2725.85
226.10	2619.35
226.32	2572.25
226.53	2965.46
226.75	2621.40
226.97	2572.25
227.19	2562.01
227.41	2621.40
227.63	2654.17
227.85	2432.99
228.06	2527.19
228.28	2729.94
228.50	2850.77
228.72	2418.65
228.94	2463.71
229.16	2408.41
229.37	2629.59
229.59	2490.33
229.81	2709.46
230.03	2658.26
230.25	2506.71
230.47	2400.22
230.69	2469.85
230.90	2820.05
231.12	2672.60
231.34	2598.87
231.56	2621.40
231.78	2586.58
232.00	2670.55
232.21	2547.67
232.43	2580.44
232.65	2410.46
232.87	2758.61
233.09	2398.17
233.30	2445.27
233.52	2885.59
233.74	2658.26
233.96	2447.32
234.18	2635.74
234.40	2674.65
234.61	3022.80
234.83	2430.94
235.05	2482.14
235.27	3084.24
235.49	2992.08
235.70	2387.93
235.92	2645.98
236.14	2785.24
236.36	3053.52
236.58	2430.94
236.79	2580.44
237.01	2729.94
237.23	2717.65
237.45	2711.51
237.67	2545.63
237.88	2731.99
238.10	3002.32
238.32	2453.47
238.54	2494.43
238.76	2789.33
238.97	2527.19
239.19	2426.84
239.41	2566.10
239.63	2871.25
239.85	2697.17
240.06	2543.58
240.28	2502.62
240.50	2906.07
240.72	2674.65
240.93	2396.12
241.15	2584.54
241.37	2760.66
241.59	2881.49
241.81	2441.18
242.02	2574.30
242.24	2760.66
242.46	2813.91
242.68	2344.92
242.89	2478.04
243.11	2820.05
243.33	2705.37
243.55	2463.71
243.76	2500.57
243.98	2650.07
244.20	2777.05
244.42	2514.91
244.64	2529.24
244.85	2484.19
245.07	2580.44
245.29	2619.35
245.51	2543.58
245.72	2762.71
245.94	2938.84
246.16	2523.10
246.38	2500.57
246.59	2611.16
246.81	2596.82
247.03	2416.60
247.24	2408.41
247.46	2660.31
247.68	2746.33
247.90	2441.18
248.11	2533.34
248.33	2850.77
248.55	2768.85
248.77	2596.82
248.98	2609.11
249.20	3024.85
249.42	2723.80
249.64	2568.15
249.85	2531.29
250.07	2613.21
250.29	2854.87
250.50	2619.35
250.72	2353.12
250.94	2740.18
251.16	2992.08
251.37	2473.95
251.59	2631.64
251.81	2815.96
252.02	2916.31
252.24	2494.43
252.46	2643.93
252.68	2621.40
252.89	2678.74
253.11	2361.31
253.33	2664.41
253.54	3000.27
253.76	2506.71
253.98	2529.24
254.20	2506.71
254.41	2580.44
254.63	2703.32
254.85	2377.69
255.06	2623.45
255.28	2750.42
255.50	2684.89
255.71	2543.58
255.93	2357.21
256.15	2623.45
256.36	2736.09
256.58	2416.60
256.80	2494.43
257.02	2760.66
257.23	2715.61
257.45	2504.67
257.67	2598.87
257.88	2553.82
258.10	2775.00
258.32	2500.57
258.53	2543.58
258.75	2922.45
258.97	2686.94
259.18	2547.67
259.40	2500.57
259.62	2953.17
259.83	2856.92
260.05	2547.67
260.27	3227.60
260.48	2830.29
260.70	2594.78
260.92	2383.84
261.13	2506.71
261.35	2738.13
261.57	2801.62
261.78	2392.03
262.00	2492.38
262.22	2850.77
262.43	2613.21
262.65	2576.34
262.86	2502.62
263.08	3143.63
263.30	2820.05
263.51	2420.70
263.73	2471.90
263.95	2990.03
264.16	2664.41
264.38	2404.32
264.60	2469.85
264.81	2756.57
265.03	2838.48
265.25	2801.62
265.46	2508.76
265.68	2971.60
265.89	2762.71
266.11	2414.56
266.33	2500.57
266.54	2877.40
266.76	2785.24
266.98	2537.43
267.19	2731.99
267.41	2873.30
267.62	2654.17
267.84	2416.60
268.06	2576.34
268.27	2662.36
268.49	2926.55
268.70	2566.10
268.92	2531.29
269.14	2549.72
269.35	2547.67
269.57	2535.39
269.79	2602.97
270.00	2701.27
270.22	3022.80
270.43	2410.46
270.65	2377.69
270.87	2789.33
271.08	2764.76
271.30	2598.87
271.51	2537.43
271.73	2832.34
271.95	2877.40
272.16	2586.58
272.38	2639.83
272.59	2605.02
272.81	2822.10
273.02	2506.71
273.24	2512.86
273.46	2928.60
273.67	2600.92
273.89	2445.27
274.10	2471.90
274.32	2875.35
274.54	2746.33
274.75	2600.92
274.97	2564.06
275.18	2805.72
275.40	2811.86
275.61	2553.82
275.83	2666.46
276.05	2605.02
276.26	2688.98
276.48	2607.06
276.69	2512.86
276.91	2672.60
277.12	2889.68
277.34	2721.75
277.55	2740.18
277.77	2748.37
277.99	2660.31
278.20	2588.63
278.42	2473.95
278.63	2643.93
278.85	2602.97
279.06	2537.43
279.28	2607.06
279.49	2875.35
279.71	2820.05
279.93	2654.17
280.14	2600.92
280.36	2699.22
280.57	2834.39
280.79	2734.04
281.00	2555.86
281.22	2639.83
281.43	2875.35
281.65	2430.94
281.86	2402.27
282.08	2809.81
282.29	2998.23
282.51	2461.66
282.73	2377.69
282.94	2486.23
283.16	2858.96
283.37	2693.08
283.59	2629.59
283.80	2811.86
284.02	2678.74
284.23	2588.63
284.45	2580.44
284.66	2594.78
284.88	2645.98
285.09	2596.82
285.31	2725.85
285.52	2764.76
285.74	2537.43
285.95	2736.09
286.17	2609.11
286.38	2848.72
286.60	2582.49
286.81	2641.88
287.03	2564.06
287.24	2691.03
287.46	2811.86
287.67	2719.70
287.89	2822.10
288.10	2738.13
288.32	2752.47
288.53	2824.15
288.75	2736.09
288.96	2797.53
289.18	2598.87
289.39	2582.49
289.61	2662.36
289.82	3012.56
290.04	2990.03
290.25	2498.52
290.47	2691.03
290.68	2701.27
290.90	2828.24
291.11	2512.86
291.33	2775.00
291.54	2578.39
291.76	2598.87
291.97	2645.98
292.18	2709.46
292.40	2631.64
292.61	2637.78
292.83	2850.77
293.04	2643.93
293.26	2760.66
293.47	2658.26
293.69	2562.01
293.90	2484.19
294.12	2924.50
294.33	2693.08
294.55	2578.39
294.76	2719.70
294.97	2944.98
295.19	3016.66
295.40	2656.22
295.62	2682.84
295.83	2815.96
296.05	2637.78
296.26	2691.03
296.48	2615.26
296.69	2729.94
296.90	2635.74
297.12	2711.51
297.33	2775.00
297.55	2779.09
297.76	2854.87
297.98	2605.02
298.19	2717.65
298.41	2691.03
298.62	2627.54
298.83	2785.24
299.05	2680.79
299.26	2555.86
299.48	2637.78
299.69	2670.55
299.90	2564.06
300.12	2582.49
300.33	2793.43
300.55	2678.74
300.76	2686.94
300.98	2613.21
301.19	2832.34
301.40	2529.24
301.62	2625.50
301.83	2861.01
302.05	2650.07
302.26	2609.11
302.47	2627.54
302.69	2514.91
302.90	2748.37
303.12	2369.50
303.33	2684.89
303.54	3020.75
303.76	2600.92
303.97	2627.54
304.19	2756.57
304.40	2619.35
304.61	2789.33
304.83	2777.05
305.04	2643.93
305.26	2897.88
305.47	2731.99
305.68	2598.87
305.90	2494.43
306.11	2881.49
306.33	2707.41
306.54	2504.67
306.75	2551.77
306.97	2523.10
307.18	2562.01
307.39	2580.44
307.61	2691.03
307.82	2621.40
308.04	2799.57
308.25	2512.86
308.46	2721.75
308.68	2619.35
308.89	2781.14
309.10	2688.98
309.32	2684.89
309.53	2654.17
309.74	2811.86
309.96	2514.91
310.17	2731.99
310.39	2682.84
310.60	2764.76
310.81	2652.12
311.03	2406.36
311.24	2832.34
311.45	2707.41
311.67	2867.16
311.88	2670.55
312.09	2678.74
312.31	2576.34
312.52	2611.16
312.73	2566.10
312.95	2439.13
313.16	2553.82
313.37	2861.01
313.59	2723.80
313.80	2877.40
314.01	2863.06
314.23	2576.34
314.44	2588.63
314.65	2494.43
314.87	2619.35
315.08	2662.36
315.29	2568.15
315.51	2623.45
315.72	2551.77
315.93	2709.46
316.15	2658.26
316.36	2660.31
316.57	2707.41
316.79	2695.13
317.00	2562.01
317.21	2850.77
317.43	2607.06
317.64	2572.25
317.85	2506.71
318.07	2652.12
318.28	2613.21
318.49	2721.75
318.70	2912.21
318.92	2760.66
319.13	2766.81
319.34	2793.43
319.56	2621.40
319.77	2719.70
319.98	2869.20
320.20	2803.67
320.41	2713.56
320.62	2820.05
320.83	2586.58
321.05	2834.39
321.26	2582.49
321.47	2709.46
321.69	2977.75
321.90	2525.15
322.11	2539.48
322.32	2772.95
322.54	2981.84
322.75	2586.58
322.96	3194.83
323.18	2504.67
323.39	2498.52
323.60	2564.06
323.81	2688.98
324.03	2621.40
324.24	2654.17
324.45	2617.30
324.66	2607.06
324.88	2920.40
325.09	3004.37
325.30	2680.79
325.52	2580.44
325.73	2828.24
325.94	2527.19
326.15	2467.80
326.37	2465.75
326.58	2742.23
326.79	2949.08
327.00	2535.39
327.22	2588.63
327.43	2682.84
327.64	2633.69
327.85	2617.30
328.07	2637.78
328.28	2938.84
328.49	2654.17
328.70	2588.63
328.92	2678.74
329.13	2676.70
329.34	2746.33
329.55	2772.95
329.76	2770.90
329.98	2654.17
330.19	2908.12
330.40	2668.50
330.61	2676.70
330.83	2865.11
331.04	2605.02
331.25	2674.65
331.46	2611.16
331.68	2578.39
331.89	2920.40
332.10	2701.27
332.31	2441.18
332.52	2686.94
332.74	2897.88
332.95	2404.32
333.16	2562.01
333.37	2809.81
333.58	2621.40
333.80	2715.61
334.01	2404.32
334.22	2711.51
334.43	2598.87
334.64	2570.20
334.86	2625.50
335.07	2615.26
335.28	2852.82
335.49	2496.47
335.70	2758.61
335.92	2891.73
336.13	3026.90
336.34	2703.32
336.55	2695.13
336.76	2818.00
336.98	2418.65
337.19	2627.54
337.40	2785.24
337.61	3082.19
337.82	2781.14
338.04	2717.65
338.25	2492.38
338.46	2793.43
338.67	2666.46
338.88	2494.43
339.09	2475.99
339.31	2693.08
339.52	2578.39
339.73	2529.24
339.94	2627.54
340.15	2842.58
340.36	2631.64
340.58	2709.46
340.79	2537.43
341.00	2844.63
341.21	2596.82
341.42	2830.29
341.63	2570.20
341.85	2885.59
342.06	2799.57
342.27	2576.34
342.48	2662.36
342.69	2506.71
342.90	2734.04
343.12	2850.77
343.33	2490.33
343.54	2899.92
343.75	2830.29
343.96	2594.78
344.17	2512.86
344.38	2641.88
344.60	2562.01
344.81	2494.43
345.02	2576.34
345.23	2891.73
345.44	3004.37
345.65	2662.36
345.86	2731.99
346.07	2760.66
346.29	2594.78
346.50	2768.85
346.71	2711.51
346.92	2883.54
347.13	2969.55
347.34	2629.59
347.55	2529.24
347.76	2736.09
347.98	2445.27
348.19	2602.97
348.40	2764.76
348.61	2658.26
348.82	2920.40
349.03	2639.83
349.24	2519.00
349.45	3020.75
349.66	2457.56
349.88	2666.46
350.09	2570.20
350.30	2944.98
350.51	3006.42
350.72	2742.23
350.93	2566.10
351.14	2717.65
351.35	2832.34
351.56	2643.93
351.77	2641.88
351.99	2848.72
352.20	2953.17
352.41	2572.25
352.62	2422.75
352.83	2637.78
353.04	2674.65
353.25	2611.16
353.46	2705.37
353.67	2842.58
353.88	2461.66
354.09	2635.74
354.30	2582.49
354.52	2916.31
354.73	2697.17
354.94	2551.77
355.15	2627.54
355.36	3090.38
355.57	2592.73
355.78	2498.52
355.99	2611.16
356.20	2668.50
356.41	2977.75
356.62	2654.17
356.83	2580.44
357.04	2938.84
357.25	2443.23
357.46	2492.38
357.68	2437.08
357.89	2586.58
358.10	2766.81
358.31	2658.26
358.52	2602.97
358.73	2586.58
358.94	2557.91
359.15	2508.76
359.36	2641.88
359.57	2713.56
359.78	2637.78
359.99	2850.77
360.20	2559.96
360.41	2719.70
360.62	2793.43
360.83	2688.98
361.04	2676.70
361.25	2783.19
361.46	2922.45
361.67	2691.03
361.88	2658.26
362.09	2858.96
362.30	2799.57
362.51	2498.52
362.72	2715.61
362.93	2840.53
363.14	2856.92
363.35	2680.79
363.56	2541.53
363.78	2785.24
363.99	2910.16
364.20	2562.01
364.41	2740.18
364.62	3028.95
364.83	2742.23
365.04	2662.36
365.25	2662.36
365.46	3028.95
365.67	2566.10
365.88	2777.05
366.09	2670.55
366.30	2670.55
366.51	2723.80
366.72	2539.48
366.93	2623.45
367.14	2648.02
367.35	2949.08
367.56	2562.01
367.77	2760.66
367.98	2738.13
368.18	2799.57
368.39	2744.28
368.60	2527.19
368.81	2883.54
369.02	2738.13
369.23	2557.91
369.44	2453.47
369.65	2615.26
369.86	2783.19
370.07	2678.74
370.28	2625.50
370.49	2797.53
370.70	2887.64
370.91	2506.71
371.12	2408.41
371.33	2850.77
371.54	2637.78
371.75	2727.89
371.96	2422.75
372.17	2652.12
372.38	2684.89
372.59	2664.41
372.80	2531.29
373.01	2709.46
373.22	2725.85
373.43	2562.01
373.64	2543.58
373.85	2924.50
374.06	3000.27
374.26	2762.71
374.47	2709.46
374.68	2936.79
374.89	2756.57
375.10	2641.88
375.31	2713.56
375.52	2637.78
375.73	2787.29
375.94	2510.81
376.15	2785.24
376.36	2643.93
376.57	2643.93
376.78	2590.68
376.99	2695.13
377.20	2934.74
377.40	2688.98
377.61	2881.49
377.82	2617.30
378.03	2930.64
378.24	2836.44
378.45	2738.13
378.66	2686.94
378.87	2504.67
379.08	2531.29
379.29	2615.26
379.50	2770.90
379.71	2818.00
379.91	2789.33
380.12	2547.67
380.33	2650.07
380.54	2664.41
380.75	2777.05
380.96	2527.19
381.17	2731.99
381.38	2803.67
381.59	2666.46
381.80	2633.69
382.00	2797.53
382.21	2764.76
382.42	2932.69
382.63	2912.21
382.84	2760.66
383.05	2811.86
383.26	2979.79
383.47	2658.26
383.68	2664.41
383.88	2897.88
384.09	2707.41
384.30	2830.29
384.51	2727.89
384.72	2691.03
384.93	2547.67
385.14	2656.22
385.35	2895.83
385.55	2494.43
385.76	2969.55
385.97	2713.56
386.18	2478.04
386.39	2639.83
386.60	2623.45
386.81	2643.93
387.02	2480.09
387.22	2541.53
387.43	2768.85
387.64	2713.56
387.85	2854.87
388.06	2881.49
388.27	3962.82
388.48	7532.43
388.68	10911.58
388.89	13410.10
389.10	14464.80
389.31	13713.20
389.52	10927.96
389.73	9461.62
389.93	8552.32
390.14	7976.84
390.35	7112.60
390.56	6414.24
390.77	5259.18
390.98	4140.99
391.18	3407.82
391.39	3092.43
391.60	2717.65
391.81	2785.24
392.02	2641.88
392.23	2951.12
392.43	2705.37
392.64	2791.38
392.85	2645.98
393.06	2979.79
393.27	2830.29
393.47	2611.16
393.68	2617.30
393.89	2664.41
394.10	2875.35
394.31	2586.58
394.52	2613.21
394.72	2650.07
394.93	2963.41
395.14	2498.52
395.35	2707.41
395.56	2572.25
395.76	2736.09
395.97	2613.21
396.18	2803.67
396.39	2744.28
396.60	3252.17
396.80	2912.21
397.01	2795.48
397.22	2840.53
397.43	2861.01
397.64	2602.97
397.84	2678.74
398.05	3088.34
398.26	2742.23
398.47	2754.52
398.67	2836.44
398.88	2695.13
399.09	2865.11
399.30	2631.64
399.51	2697.17
399.71	2605.02
399.92	2719.70
400.13	2725.85
400.34	2676.70
400.54	2744.28
400.75	2920.40
400.96	2619.35
401.17	2897.88
401.37	2824.15
401.58	2715.61
401.79	2627.54
402.00	2850.77
402.21	3129.30
402.41	2979.79
402.62	2914.26
402.83	3035.09
403.04	3063.76
403.24	3307.47
403.45	2715.61
403.66	2944.98
403.87	2904.02
404.07	3010.51
404.28	2822.10
404.49	2918.36
404.70	2783.19
404.90	2830.29
405.11	2631.64
405.32	2779.09
405.52	2617.30
405.73	2635.74
405.94	2613.21
406.15	2637.78
406.35	2772.95
406.56	2883.54
406.77	2705.37
406.98	2723.80
407.18	2602.97
407.39	2971.60
407.60	2631.64
407.80	2713.56
408.01	2637.78
408.22	2707.41
408.43	2605.02
408.63	2691.03
408.84	2858.96
409.05	2844.63
409.25	2617.30
409.46	2602.97
409.67	2691.03
409.88	2596.82
410.08	2736.09
410.29	2588.63
410.50	2850.77
410.70	2783.19
410.91	2545.63
411.12	2682.84
411.32	2766.81
411.53	2635.74
411.74	2666.46
411.95	2719.70
412.15	2736.09
412.36	2762.71
412.57	2758.61
412.77	2764.76
412.98	2723.80
413.19	2641.88
413.39	2748.37
413.60	2695.13
413.81	2983.89
414.01	2547.67
414.22	2580.44
414.43	2721.75
414.63	2705.37
414.84	2799.57
415.05	2654.17
415.25	2576.34
415.46	2762.71
415.67	2613.21
415.87	2725.85
416.08	2666.46
416.29	2670.55
416.49	2834.39
416.70	2588.63
416.91	2629.59
417.11	2775.00
417.32	2893.78
417.53	2826.20
417.73	2731.99
417.94	2701.27
418.15	2785.24
418.35	2668.50
418.56	2703.32
418.77	3098.58
418.97	2818.00
419.18	2631.64
419.38	2402.27
419.59	2731.99
419.80	2953.17
420.00	2594.78
420.21	2680.79
420.42	2928.60
420.62	2793.43
420.83	2566.10
421.04	2572.25
421.24	2701.27
421.45	2861.01
421.65	2648.02
421.86	2570.20
422.07	2934.74
422.27	2828.24
422.48	2586.58
422.69	2492.38
422.89	2666.46
423.10	2701.27
423.30	2564.06
423.51	2688.98
423.72	2842.58
423.92	2811.86
424.13	2562.01
424.33	2682.84
424.54	2899.92
424.75	2756.57
424.95	2865.11
425.16	2662.36
425.36	2719.70
425.57	2731.99
425.78	2787.29
425.98	2775.00
426.19	2768.85
426.39	2564.06
426.60	2736.09
426.81	2777.05
427.01	2713.56
427.22	2629.59
427.42	2459.61
427.63	2584.54
427.83	2875.35
428.04	2985.94
428.25	2723.80
428.45	2723.80
428.66	2848.72
428.86	2758.61
429.07	2672.60
429.28	2590.68
429.48	2686.94
429.69	2650.07
429.89	2662.36
430.10	2568.15
430.30	2766.81
430.51	2879.44
430.71	2588.63
430.92	2664.41
431.13	2686.94
431.33	2863.06
431.54	2736.09
431.74	2873.30
431.95	3071.95
432.15	2586.58
432.36	2731.99
432.56	2691.03
432.77	3071.95
432.98	3028.95
433.18	2766.81
433.39	2572.25
433.59	2772.95
433.80	3012.56
434.00	2842.58
434.21	2682.84
434.41	2533.34
434.62	3071.95
434.82	2510.81
435.03	2553.82
435.23	2684.89
435.44	2514.91
435.64	2615.26
435.85	2736.09
436.06	2772.95
436.26	2920.40
436.47	2594.78
436.67	2613.21
436.88	2654.17
437.08	2895.83
437.29	2801.62
437.49	2715.61
437.70	2895.83
437.90	2670.55
438.11	2838.48
438.31	2783.19
438.52	2901.97
438.72	2848.72
438.93	2899.92
439.13	2707.41
439.34	2899.92
439.54	2682.84
439.75	2813.91
439.95	2750.42
440.16	2562.01
440.36	2631.64
440.57	2697.17
440.77	2686.94
440.98	2652.12
441.18	2777.05
441.39	2559.96
441.59	2596.82
441.80	3053.52
442.00	2799.57
442.21	2691.03
442.41	2576.34
442.62	2969.55
442.82	2588.63
443.02	2580.44
443.23	2703.32
443.43	2723.80
443.64	2895.83
443.84	2461.66
444.05	2731.99
444.25	2742.23
444.46	2717.65
444.66	2682.84
444.87	2842.58
445.07	2482.14
445.28	2686.94
445.48	2809.81
445.69	2801.62
445.89	3160.02
446.09	2777.05
446.30	3022.80
446.50	3065.81
446.71	4628.41
446.91	5664.68
447.12	6422.43
447.32	6803.35
447.53	6604.70
447.73	5435.31
447.93	4704.18
448.14	4528.06
448.34	4483.00
448.55	3934.15
448.75	3798.98
448.96	3618.76
449.16	3424.20
449.36	3370.96
449.57	2908.12
449.77	2742.23
449.98	2705.37
450.18	2777.05
450.39	2766.81
450.59	2760.66
450.79	2760.66
451.00	2637.78
451.20	2805.72
451.41	2621.40
451.61	2764.76
451.81	2658.26
452.02	2670.55
452.22	2695.13
452.43	2658.26
452.63	2566.10
