SpectraSuite Data File
++++++++++++++++++++++++++++++++++++
Date: Thu May 05 16:20:27 CEST 2016
User: root
Dark Spectrum Present: No
Reference Spectrum Present: No
Number of Sampled Component Spectra: 1
Spectrometers: USB4C02835
Integration Time (usec): 100000 (USB4C02835)
Spectra Averaged: 1 (USB4C02835)
Boxcar Smoothing: 0 (USB4C02835)
Correct for Electrical Dark: No (USB4C02835)
Strobe/Lamp Enabled: No (USB4C02835)
Correct for Detector Non-linearity: No (USB4C02835)
Correct for Stray Light: No (USB4C02835)
Number of Pixels in Processed Spectrum: 3648
>>>>>Begin Processed Spectral Data<<<<<
177.47	2023.39
177.69	2023.39
177.91	2023.39
178.13	2088.93
178.36	2041.82
178.58	2564.06
178.80	2691.03
179.02	2418.65
179.24	2525.15
179.46	2469.85
179.68	2551.77
179.90	2643.93
180.13	2766.81
180.35	2398.17
180.57	2490.33
180.79	2865.11
181.01	2664.41
181.23	2549.72
181.45	2609.11
181.67	2777.05
181.90	2766.81
182.12	2568.15
182.34	2435.03
182.56	2795.48
182.78	2777.05
183.00	2500.57
183.22	2582.49
183.44	2428.89
183.66	3106.77
183.89	2658.26
184.11	2535.39
184.33	2863.06
184.55	2834.39
184.77	2514.91
184.99	2531.29
185.21	2645.98
185.43	3094.48
185.65	2457.56
185.87	2453.47
186.10	3082.19
186.32	3035.09
186.54	2656.22
186.76	2586.58
186.98	2885.59
187.20	2713.56
187.42	2541.53
187.64	2488.28
187.86	2762.71
188.08	2916.31
188.30	2500.57
188.52	2598.87
188.75	2949.08
188.97	2981.84
189.19	2430.94
189.41	2428.89
189.63	2801.62
189.85	2605.02
190.07	2422.75
190.29	2406.36
190.51	2775.00
190.73	2461.66
190.95	2709.46
191.17	2547.67
191.39	2519.00
191.61	2674.65
191.84	2553.82
192.06	2650.07
192.28	2471.90
192.50	3127.25
192.72	2648.02
192.94	2588.63
193.16	2904.02
193.38	2803.67
193.60	2455.51
193.82	2580.44
194.04	2908.12
194.26	2711.51
194.48	2553.82
194.70	2555.86
194.92	2584.54
195.14	2836.44
195.36	2461.66
195.58	2564.06
195.80	2674.65
196.02	2596.82
196.24	2420.70
196.46	2637.78
196.69	2609.11
196.91	3102.67
197.13	2574.30
197.35	2463.71
197.57	2861.01
197.79	2852.82
198.01	2559.96
198.23	2516.95
198.45	2807.77
198.67	2549.72
198.89	2396.12
199.11	2641.88
199.33	2596.82
199.55	2371.55
199.77	2494.43
199.99	2605.02
200.21	2668.50
200.43	2666.46
200.65	2422.75
200.87	2375.64
201.09	2674.65
201.31	2691.03
201.53	2568.15
201.75	2598.87
201.97	2734.04
202.19	2682.84
202.41	2596.82
202.63	2670.55
202.85	2801.62
203.07	2803.67
203.29	2629.59
203.51	2502.62
203.73	2639.83
203.95	3131.34
204.17	2482.14
204.39	2621.40
204.61	2674.65
204.83	2688.98
205.05	2590.68
205.27	2611.16
205.49	3086.29
205.71	2658.26
205.93	2410.46
206.15	2445.27
206.37	2752.47
206.59	2760.66
206.81	2375.64
207.03	2396.12
207.25	2719.70
207.47	2766.81
207.69	2564.06
207.91	2746.33
208.13	2953.17
208.34	2609.11
208.56	2443.23
208.78	2455.51
209.00	2662.36
209.22	2629.59
209.44	2445.27
209.66	2457.56
209.88	2676.70
210.10	2656.22
210.32	2592.73
210.54	2590.68
210.76	2684.89
210.98	2861.01
211.20	2379.74
211.42	2705.37
211.64	2901.97
211.86	2770.90
212.08	2621.40
212.30	2549.72
212.52	2670.55
212.74	2762.71
212.96	2600.92
213.17	2617.30
213.39	2725.85
213.61	3051.47
213.83	2498.52
214.05	2389.98
214.27	2965.46
214.49	2611.16
214.71	2426.84
214.93	2596.82
215.15	2650.07
215.37	2852.82
215.59	2412.51
215.81	2539.48
216.03	2953.17
216.24	2754.52
216.46	2521.05
216.68	2471.90
216.90	2760.66
217.12	2785.24
217.34	2482.14
217.56	2660.31
217.78	2930.64
218.00	2758.61
218.22	2625.50
218.44	2584.54
218.66	2758.61
218.87	2910.16
219.09	2605.02
219.31	2578.39
219.53	2779.09
219.75	2615.26
219.97	2482.14
220.19	2570.20
220.41	2684.89
220.63	2926.55
220.85	2523.10
221.06	2607.06
221.28	2969.55
221.50	2848.72
221.72	2525.15
221.94	2408.41
222.16	2717.65
222.38	2828.24
222.60	2504.67
222.82	2594.78
223.03	2865.11
223.25	2521.05
223.47	2533.34
223.69	2670.55
223.91	2799.57
224.13	2652.12
224.35	2432.99
224.57	2666.46
224.78	2834.39
225.00	2668.50
225.22	2543.58
225.44	2473.95
225.66	2731.99
225.88	2619.35
226.10	2619.35
226.32	2566.10
226.53	2990.03
226.75	2637.78
226.97	2621.40
227.19	2521.05
227.41	2605.02
227.63	2617.30
227.85	2344.92
228.06	2459.61
228.28	2660.31
228.50	2873.30
228.72	2432.99
228.94	2389.98
229.16	2459.61
229.37	2592.73
229.59	2512.86
229.81	2676.70
230.03	2660.31
230.25	2547.67
230.47	2430.94
230.69	2551.77
230.90	2867.16
231.12	2639.83
231.34	2602.97
231.56	2551.77
231.78	2576.34
232.00	2691.03
232.21	2510.81
232.43	2600.92
232.65	2459.61
232.87	2727.89
233.09	2480.09
233.30	2555.86
233.52	2826.20
233.74	2705.37
233.96	2506.71
234.18	2602.97
234.40	2641.88
234.61	3028.95
234.83	2435.03
235.05	2482.14
235.27	3198.93
235.49	2908.12
235.70	2451.42
235.92	2586.58
236.14	2854.87
236.36	3141.58
236.58	2353.12
236.79	2627.54
237.01	2693.08
237.23	2752.47
237.45	2729.94
237.67	2539.48
237.88	2850.77
238.10	3071.95
238.32	2459.61
238.54	2463.71
238.76	2678.74
238.97	2600.92
239.19	2420.70
239.41	2500.57
239.63	2883.54
239.85	2623.45
240.06	2611.16
240.28	2504.67
240.50	2885.59
240.72	2727.89
240.93	2478.04
241.15	2621.40
241.37	2787.29
241.59	2916.31
241.81	2506.71
242.02	2562.01
242.24	2756.57
242.46	2785.24
242.68	2363.36
242.89	2494.43
243.11	2822.10
243.33	2668.50
243.55	2570.20
243.76	2555.86
243.98	2615.26
244.20	2715.61
244.42	2555.86
244.64	2514.91
244.85	2523.10
245.07	2598.87
245.29	2521.05
245.51	2512.86
245.72	2709.46
245.94	2856.92
246.16	2490.33
246.38	2521.05
246.59	2676.70
246.81	2605.02
247.03	2473.95
247.24	2439.13
247.46	2660.31
247.68	2736.09
247.90	2498.52
248.11	2504.67
248.33	2815.96
248.55	2672.60
248.77	2512.86
248.98	2594.78
249.20	2961.36
249.42	2813.91
249.64	2523.10
249.85	2496.47
250.07	2672.60
250.29	2826.20
250.50	2639.83
250.72	2478.04
250.94	2729.94
251.16	2930.64
251.37	2496.47
251.59	2564.06
251.81	2801.62
252.02	2971.60
252.24	2467.80
252.46	2680.79
252.68	2537.43
252.89	2609.11
253.11	2420.70
253.33	2715.61
253.54	2953.17
253.76	2449.37
253.98	2510.81
254.20	2488.28
254.41	2506.71
254.63	2738.13
254.85	2351.07
255.06	2621.40
255.28	2746.33
255.50	2695.13
255.71	2428.89
255.93	2396.12
256.15	2641.88
256.36	2674.65
256.58	2441.18
256.80	2521.05
257.02	2768.85
257.23	2547.67
257.45	2527.19
257.67	2629.59
257.88	2660.31
258.10	2801.62
258.32	2594.78
258.53	2502.62
258.75	2928.60
258.97	2545.63
259.18	2453.47
259.40	2475.99
259.62	2963.41
259.83	2856.92
260.05	2598.87
260.27	3184.59
260.48	2830.29
260.70	2553.82
260.92	2383.84
261.13	2605.02
261.35	2805.72
261.57	2691.03
261.78	2316.25
262.00	2486.23
262.22	2809.81
262.43	2592.73
262.65	2531.29
262.86	2559.96
263.08	3041.23
263.30	2750.42
263.51	2416.60
263.73	2502.62
263.95	2979.79
264.16	2650.07
264.38	2428.89
264.60	2455.51
264.81	2686.94
265.03	2848.72
265.25	2791.38
265.46	2496.47
265.68	2879.44
265.89	2822.10
266.11	2412.51
266.33	2500.57
266.54	2883.54
266.76	2723.80
266.98	2549.72
267.19	2629.59
267.41	2895.83
267.62	2654.17
267.84	2381.79
268.06	2658.26
268.27	2742.23
268.49	2793.43
268.70	2539.48
268.92	2488.28
269.14	2613.21
269.35	2488.28
269.57	2572.25
269.79	2619.35
270.00	2613.21
270.22	3022.80
270.43	2408.41
270.65	2396.12
270.87	2768.85
271.08	2920.40
271.30	2596.82
271.51	2545.63
271.73	2867.16
271.95	2914.26
272.16	2496.47
272.38	2637.78
272.59	2641.88
272.81	2793.43
273.02	2494.43
273.24	2465.75
273.46	2914.26
273.67	2523.10
273.89	2430.94
274.10	2457.56
274.32	2963.41
274.54	2715.61
274.75	2611.16
274.97	2555.86
275.18	2750.42
275.40	2756.57
275.61	2564.06
275.83	2650.07
276.05	2572.25
276.26	2699.22
276.48	2510.81
276.69	2617.30
276.91	2652.12
277.12	2914.26
277.34	2697.17
277.55	2738.13
277.77	2756.57
277.99	2605.02
278.20	2621.40
278.42	2467.80
278.63	2629.59
278.85	2580.44
279.06	2502.62
279.28	2711.51
279.49	2858.96
279.71	2867.16
279.93	2615.26
280.14	2639.83
280.36	2639.83
280.57	2789.33
280.79	2670.55
281.00	2447.32
281.22	2559.96
281.43	2838.48
281.65	2418.65
281.86	2551.77
282.08	2787.29
282.29	3065.81
282.51	2555.86
282.73	2566.10
282.94	2539.48
283.16	2775.00
283.37	2684.89
283.59	2611.16
283.80	2731.99
284.02	2711.51
284.23	2625.50
284.45	2600.92
284.66	2523.10
284.88	2672.60
285.09	2553.82
285.31	2674.65
285.52	2760.66
285.74	2564.06
285.95	2736.09
286.17	2654.17
286.38	2852.82
286.60	2654.17
286.81	2484.19
287.03	2674.65
287.24	2711.51
287.46	2746.33
287.67	2668.50
287.89	2863.06
288.10	2729.94
288.32	2736.09
288.53	2822.10
288.75	2684.89
288.96	2777.05
289.18	2627.54
289.39	2527.19
289.61	2684.89
289.82	2973.65
290.04	2916.31
290.25	2494.43
290.47	2695.13
290.68	2727.89
290.90	2803.67
291.11	2457.56
291.33	2699.22
291.54	2578.39
291.76	2645.98
291.97	2740.18
292.18	2600.92
292.40	2686.94
292.61	2615.26
292.83	2938.84
293.04	2648.02
293.26	2750.42
293.47	2703.32
293.69	2578.39
293.90	2584.54
294.12	2936.79
294.33	2756.57
294.55	2602.97
294.76	2758.61
294.97	2963.41
295.19	2957.27
295.40	2521.05
295.62	2719.70
295.83	2891.73
296.05	2596.82
296.26	2783.19
296.48	2584.54
296.69	2699.22
296.90	2709.46
297.12	2699.22
297.33	2715.61
297.55	2666.46
297.76	2789.33
297.98	2699.22
298.19	2607.06
298.41	2660.31
298.62	2611.16
298.83	2723.80
299.05	2660.31
299.26	2637.78
299.48	2588.63
299.69	2639.83
299.90	2588.63
300.12	2613.21
300.33	2869.20
300.55	2670.55
300.76	2656.22
300.98	2576.34
301.19	2793.43
301.40	2582.49
301.62	2592.73
301.83	2801.62
302.05	2734.04
302.26	2617.30
302.47	2621.40
302.69	2508.76
302.90	2764.76
303.12	2420.70
303.33	2723.80
303.54	3018.71
303.76	2697.17
303.97	2643.93
304.19	2680.79
304.40	2652.12
304.61	2777.05
304.83	2740.18
305.04	2682.84
305.26	2787.29
305.47	2688.98
305.68	2643.93
305.90	2410.46
306.11	2969.55
306.33	2748.37
306.54	2506.71
306.75	2555.86
306.97	2484.19
307.18	2660.31
307.39	2543.58
307.61	2693.08
307.82	2693.08
308.04	2791.38
308.25	2498.52
308.46	2707.41
308.68	2711.51
308.89	2652.12
309.10	2705.37
309.32	2625.50
309.53	2731.99
309.74	2846.68
309.96	2564.06
310.17	2723.80
310.39	2619.35
310.60	2834.39
310.81	2633.69
311.03	2559.96
311.24	2801.62
311.45	2758.61
311.67	2871.25
311.88	2699.22
312.09	2656.22
312.31	2592.73
312.52	2514.91
312.73	2553.82
312.95	2572.25
313.16	2645.98
313.37	2803.67
313.59	2772.95
313.80	2809.81
314.01	2906.07
314.23	2562.01
314.44	2500.57
314.65	2547.67
314.87	2629.59
315.08	2635.74
315.29	2666.46
315.51	2578.39
315.72	2502.62
315.93	2680.79
316.15	2660.31
316.36	2666.46
316.57	2684.89
316.79	2691.03
317.00	2539.48
317.21	2707.41
317.43	2600.92
317.64	2670.55
317.85	2519.00
318.07	2586.58
318.28	2596.82
318.49	2717.65
318.70	2875.35
318.92	2791.38
319.13	2838.48
319.34	2791.38
319.56	2617.30
319.77	2846.68
319.98	2789.33
320.20	2758.61
320.41	2719.70
320.62	2856.92
320.83	2555.86
321.05	2734.04
321.26	2635.74
321.47	2762.71
321.69	2760.66
321.90	2525.15
322.11	2551.77
322.32	2709.46
322.54	2955.22
322.75	2623.45
322.96	3192.78
323.18	2441.18
323.39	2490.33
323.60	2545.63
323.81	2742.23
324.03	2680.79
324.24	2766.81
324.45	2627.54
324.66	2535.39
324.88	2908.12
325.09	2924.50
325.30	2564.06
325.52	2609.11
325.73	2729.94
325.94	2592.73
326.15	2408.41
326.37	2521.05
326.58	2852.82
326.79	2994.13
327.00	2596.82
327.22	2648.02
327.43	2703.32
327.64	2674.65
327.85	2736.09
328.07	2605.02
328.28	2967.51
328.49	2627.54
328.70	2600.92
328.92	2627.54
329.13	2729.94
329.34	2764.76
329.55	2815.96
329.76	2707.41
329.98	2725.85
330.19	2818.00
330.40	2697.17
330.61	2668.50
330.83	2797.53
331.04	2627.54
331.25	2621.40
331.46	2625.50
331.68	2568.15
331.89	2830.29
332.10	2594.78
332.31	2545.63
332.52	2719.70
332.74	2883.54
332.95	2451.42
333.16	2637.78
333.37	2844.63
333.58	2588.63
333.80	2645.98
334.01	2453.47
334.22	2744.28
334.43	2654.17
334.64	2488.28
334.86	2535.39
335.07	2650.07
335.28	2944.98
335.49	2525.15
335.70	2762.71
335.92	2901.97
336.13	2992.08
336.34	2670.55
336.55	2674.65
336.76	2779.09
336.98	2379.74
337.19	2555.86
337.40	2705.37
337.61	3086.29
337.82	2719.70
338.04	2703.32
338.25	2461.66
338.46	2627.54
338.67	2590.68
338.88	2539.48
339.09	2545.63
339.31	2627.54
339.52	2541.53
339.73	2523.10
339.94	2670.55
340.15	2858.96
340.36	2598.87
340.58	2566.10
340.79	2551.77
341.00	2795.48
341.21	2480.09
341.42	2795.48
341.63	2625.50
341.85	2824.15
342.06	2848.72
342.27	2543.58
342.48	2705.37
342.69	2539.48
342.90	2777.05
343.12	2858.96
343.33	2512.86
343.54	2863.06
343.75	2899.92
343.96	2648.02
344.17	2539.48
344.38	2734.04
344.60	2605.02
344.81	2525.15
345.02	2537.43
345.23	2891.73
345.44	3055.57
345.65	2605.02
345.86	2666.46
346.07	2770.90
346.29	2643.93
346.50	2686.94
346.71	2643.93
346.92	2865.11
347.13	3076.05
347.34	2619.35
347.55	2590.68
347.76	2797.53
347.98	2537.43
348.19	2635.74
348.40	2719.70
348.61	2637.78
348.82	2926.55
349.03	2725.85
349.24	2535.39
349.45	3112.91
349.66	2414.56
349.88	2645.98
350.09	2660.31
350.30	2990.03
350.51	2887.64
350.72	2701.27
350.93	2639.83
351.14	2660.31
351.35	2828.24
351.56	2625.50
351.77	2584.54
351.99	2836.44
352.20	2973.65
352.41	2809.81
352.62	2394.08
352.83	2752.47
353.04	2678.74
353.25	2590.68
353.46	2635.74
353.67	2918.36
353.88	2416.60
354.09	2631.64
354.30	2672.60
354.52	2785.24
354.73	2719.70
354.94	2533.34
355.15	2697.17
355.36	2949.08
355.57	2637.78
355.78	2607.06
355.99	2545.63
356.20	2641.88
356.41	2846.68
356.62	2672.60
356.83	2543.58
357.04	2908.12
357.25	2514.91
357.46	2582.49
357.68	2439.13
357.89	2643.93
358.10	2650.07
358.31	2662.36
358.52	2602.97
358.73	2537.43
358.94	2584.54
359.15	2623.45
359.36	2803.67
359.57	2770.90
359.78	2725.85
359.99	2848.72
360.20	2508.76
360.41	2670.55
360.62	2777.05
360.83	2682.84
361.04	2668.50
361.25	2760.66
361.46	2971.60
361.67	2758.61
361.88	2684.89
362.09	2869.20
362.30	2801.62
362.51	2549.72
362.72	2670.55
362.93	2887.64
363.14	2719.70
363.35	2721.75
363.56	2539.48
363.78	2838.48
363.99	2861.01
364.20	2508.76
364.41	2680.79
364.62	3004.37
364.83	2744.28
365.04	2588.63
365.25	2609.11
365.46	3047.38
365.67	2539.48
365.88	2672.60
366.09	2596.82
366.30	2645.98
366.51	2748.37
366.72	2576.34
366.93	2568.15
367.14	2725.85
367.35	2963.41
367.56	2607.06
367.77	2731.99
367.98	2752.47
368.18	2719.70
368.39	2707.41
368.60	2592.73
368.81	2826.20
369.02	2807.77
369.23	2586.58
369.44	2494.43
369.65	2621.40
369.86	2734.04
370.07	2727.89
370.28	2496.47
370.49	2783.19
370.70	2752.47
370.91	2539.48
371.12	2496.47
371.33	2793.43
371.54	2623.45
371.75	2807.77
371.96	2394.08
372.17	2723.80
372.38	2682.84
372.59	2627.54
372.80	2611.16
373.01	2701.27
373.22	2641.88
373.43	2557.91
373.64	2578.39
373.85	2875.35
374.06	2916.31
374.26	2734.04
374.47	2738.13
374.68	2977.75
374.89	2713.56
375.10	2609.11
375.31	2643.93
375.52	2734.04
375.73	2781.14
375.94	2455.51
376.15	2830.29
376.36	2652.12
376.57	2635.74
376.78	2578.39
376.99	2648.02
377.20	3000.27
377.40	2693.08
377.61	2877.40
377.82	2475.99
378.03	2883.54
378.24	2834.39
378.45	2633.69
378.66	2693.08
378.87	2480.09
379.08	2535.39
379.29	2641.88
379.50	2795.48
379.71	2637.78
379.91	2840.53
380.12	2586.58
380.33	2678.74
380.54	2662.36
380.75	2744.28
380.96	2621.40
381.17	2756.57
381.38	2684.89
381.59	2770.90
381.80	2582.49
382.00	2789.33
382.21	2772.95
382.42	2936.79
382.63	2867.16
382.84	2721.75
383.05	2801.62
383.26	2965.46
383.47	2676.70
383.68	2676.70
383.88	2734.04
384.09	2684.89
384.30	2799.57
384.51	2691.03
384.72	2645.98
384.93	2566.10
385.14	2650.07
385.35	2836.44
385.55	2596.82
385.76	2826.20
385.97	2627.54
386.18	2516.95
386.39	2664.41
386.60	2660.31
386.81	2613.21
387.02	2574.30
387.22	2527.19
387.43	2824.15
387.64	2699.22
387.85	2842.58
388.06	2867.16
388.27	4067.27
388.48	7520.14
388.68	10968.92
388.89	13588.27
389.10	14477.09
389.31	13639.47
389.52	10899.29
389.73	9465.71
389.93	8607.61
390.14	7858.06
390.35	7139.22
390.56	6397.85
390.77	5337.01
390.98	4075.46
391.18	3428.30
391.39	3207.12
391.60	2809.81
391.81	2815.96
392.02	2605.02
392.23	3078.10
392.43	2693.08
392.64	2803.67
392.85	2654.17
393.06	2971.60
393.27	2762.71
393.47	2564.06
393.68	2637.78
393.89	2684.89
394.10	2959.31
394.31	2719.70
394.52	2539.48
394.72	2621.40
394.93	2979.79
395.14	2514.91
395.35	2719.70
395.56	2611.16
395.76	2768.85
395.97	2633.69
396.18	2744.28
396.39	2758.61
396.60	3227.60
396.80	3035.09
397.01	2834.39
397.22	2965.46
397.43	2977.75
397.64	2725.85
397.84	2699.22
398.05	3012.56
398.26	2684.89
398.47	2693.08
398.67	2822.10
398.88	2691.03
399.09	2897.88
399.30	2600.92
399.51	2717.65
399.71	2588.63
399.92	2717.65
400.13	2637.78
400.34	2617.30
400.54	2678.74
400.75	2959.31
400.96	2633.69
401.17	2846.68
401.37	2750.42
401.58	2697.17
401.79	2600.92
402.00	2787.29
402.21	3252.17
402.41	2934.74
402.62	2893.78
402.83	3018.71
403.04	3098.58
403.24	3299.28
403.45	2760.66
403.66	2916.31
403.87	2912.21
404.07	3026.90
404.28	2963.41
404.49	2906.07
404.70	2793.43
404.90	2824.15
405.11	2686.94
405.32	2766.81
405.52	2600.92
405.73	2625.50
405.94	2549.72
406.15	2686.94
406.35	2797.53
406.56	2752.47
406.77	2785.24
406.98	2670.55
407.18	2592.73
407.39	2936.79
407.60	2584.54
407.80	2723.80
408.01	2633.69
408.22	2723.80
408.43	2631.64
408.63	2703.32
408.84	2889.68
409.05	2869.20
409.25	2555.86
409.46	2568.15
409.67	2654.17
409.88	2590.68
410.08	2682.84
410.29	2602.97
410.50	2858.96
410.70	2811.86
410.91	2578.39
411.12	2678.74
411.32	2705.37
411.53	2512.86
411.74	2658.26
411.95	2693.08
412.15	2850.77
412.36	2760.66
412.57	2727.89
412.77	2818.00
412.98	2725.85
413.19	2605.02
413.39	2691.03
413.60	2641.88
413.81	2973.65
414.01	2576.34
414.22	2691.03
414.43	2805.72
414.63	2680.79
414.84	2871.25
415.05	2631.64
415.25	2533.34
415.46	2830.29
415.67	2594.78
415.87	2670.55
416.08	2652.12
416.29	2676.70
416.49	2793.43
416.70	2652.12
416.91	2596.82
417.11	2736.09
417.32	2799.57
417.53	2719.70
417.73	2725.85
417.94	2713.56
418.15	2762.71
418.35	2654.17
418.56	2580.44
418.77	2994.13
418.97	2740.18
419.18	2717.65
419.38	2271.20
419.59	2736.09
419.80	2949.08
420.00	2668.50
420.21	2725.85
420.42	3057.62
420.62	2750.42
420.83	2547.67
421.04	2668.50
421.24	2670.55
421.45	2867.16
421.65	2664.41
421.86	2568.15
422.07	2842.58
422.27	2711.51
422.48	2596.82
422.69	2430.94
422.89	2752.47
423.10	2693.08
423.30	2578.39
423.51	2775.00
423.72	2748.37
423.92	2824.15
424.13	2514.91
424.33	2656.22
424.54	2887.64
424.75	2709.46
424.95	2875.35
425.16	2678.74
425.36	2727.89
425.57	2861.01
425.78	2758.61
425.98	2807.77
426.19	2693.08
426.39	2586.58
426.60	2703.32
426.81	2736.09
427.01	2764.76
427.22	2693.08
427.42	2527.19
427.63	2643.93
427.83	2844.63
428.04	3006.42
428.25	2748.37
428.45	2848.72
428.66	2877.40
428.86	2656.22
429.07	2670.55
429.28	2660.31
429.48	2742.23
429.69	2533.34
429.89	2656.22
430.10	2500.57
430.30	2803.67
430.51	2881.49
430.71	2611.16
430.92	2682.84
431.13	2658.26
431.33	2750.42
431.54	2686.94
431.74	2834.39
431.95	3078.10
432.15	2617.30
432.36	2635.74
432.56	2703.32
432.77	3022.80
432.98	3026.90
433.18	2695.13
433.39	2643.93
433.59	2727.89
433.80	2971.60
434.00	2856.92
434.21	2559.96
434.41	2555.86
434.62	3045.33
434.82	2537.43
435.03	2613.21
435.23	2797.53
435.44	2523.10
435.64	2572.25
435.85	2707.41
436.06	2852.82
436.26	2871.25
436.47	2584.54
436.67	2607.06
436.88	2766.81
437.08	2895.83
437.29	2850.77
437.49	2760.66
437.70	2897.88
437.90	2727.89
438.11	2820.05
438.31	2701.27
438.52	2877.40
438.72	2932.69
438.93	2944.98
439.13	2617.30
439.34	2877.40
439.54	2736.09
439.75	2725.85
439.95	2742.23
440.16	2580.44
440.36	2777.05
440.57	2703.32
440.77	2623.45
440.98	2787.29
441.18	2891.73
441.39	2584.54
441.59	2510.81
441.80	2977.75
442.00	2746.33
442.21	2756.57
442.41	2584.54
442.62	2834.39
442.82	2645.98
443.02	2662.36
443.23	2641.88
443.43	2693.08
443.64	2875.35
443.84	2510.81
444.05	2830.29
444.25	2666.46
444.46	2686.94
444.66	2670.55
444.87	2838.48
445.07	2506.71
445.28	2650.07
445.48	2801.62
445.69	2768.85
445.89	3192.78
446.09	2697.17
446.30	2973.65
446.50	3102.67
446.71	4583.35
446.91	5599.15
447.12	6422.43
447.32	6616.99
447.53	6498.20
447.73	5425.07
447.93	4845.49
448.14	4548.54
448.34	4407.23
448.55	3776.45
448.75	3882.95
448.96	3659.72
449.16	3389.39
449.36	3274.70
449.57	2906.07
449.77	2674.65
449.98	2711.51
450.18	2826.20
450.39	2680.79
450.59	2711.51
450.79	2709.46
451.00	2631.64
451.20	2813.91
451.41	2699.22
451.61	2766.81
451.81	2756.57
452.02	2564.06
452.22	2697.17
452.43	2637.78
452.63	2574.30
