SpectraSuite Data File
++++++++++++++++++++++++++++++++++++
Date: Thu May 05 16:20:23 CEST 2016
User: root
Dark Spectrum Present: No
Reference Spectrum Present: No
Number of Sampled Component Spectra: 1
Spectrometers: USB4C02835
Integration Time (usec): 100000 (USB4C02835)
Spectra Averaged: 1 (USB4C02835)
Boxcar Smoothing: 0 (USB4C02835)
Correct for Electrical Dark: No (USB4C02835)
Strobe/Lamp Enabled: No (USB4C02835)
Correct for Detector Non-linearity: No (USB4C02835)
Correct for Stray Light: No (USB4C02835)
Number of Pixels in Processed Spectrum: 3648
>>>>>Begin Processed Spectral Data<<<<<
177.47	1996.77
177.69	1996.77
177.91	1996.77
178.13	1947.62
178.36	2043.87
178.58	2523.10
178.80	2678.74
179.02	2512.86
179.24	2514.91
179.46	2475.99
179.68	2551.77
179.90	2684.89
180.13	2719.70
180.35	2383.84
180.57	2516.95
180.79	2834.39
181.01	2664.41
181.23	2600.92
181.45	2637.78
181.67	2815.96
181.90	2865.11
182.12	2521.05
182.34	2408.41
182.56	2793.43
182.78	2772.95
183.00	2414.56
183.22	2531.29
183.44	2469.85
183.66	3188.69
183.89	2619.35
184.11	2457.56
184.33	2766.81
184.55	2881.49
184.77	2568.15
184.99	2506.71
185.21	2684.89
185.43	3010.51
185.65	2463.71
185.87	2469.85
186.10	3092.43
186.32	3022.80
186.54	2562.01
186.76	2607.06
186.98	2879.44
187.20	2680.79
187.42	2576.34
187.64	2506.71
187.86	2738.13
188.08	2957.27
188.30	2480.09
188.52	2510.81
188.75	2865.11
188.97	2914.26
189.19	2519.00
189.41	2529.24
189.63	2744.28
189.85	2693.08
190.07	2379.74
190.29	2328.54
190.51	2725.85
190.73	2547.67
190.95	2705.37
191.17	2514.91
191.39	2461.66
191.61	2666.46
191.84	2519.00
192.06	2625.50
192.28	2428.89
192.50	3237.84
192.72	2510.81
192.94	2582.49
193.16	2879.44
193.38	2731.99
193.60	2482.14
193.82	2584.54
194.04	2840.53
194.26	2748.37
194.48	2539.48
194.70	2484.19
194.92	2686.94
195.14	2805.72
195.36	2555.86
195.58	2570.20
195.80	2682.84
196.02	2615.26
196.24	2478.04
196.46	2584.54
196.69	2586.58
196.91	3041.23
197.13	2488.28
197.35	2475.99
197.57	3004.37
197.79	2799.57
198.01	2566.10
198.23	2498.52
198.45	2824.15
198.67	2578.39
198.89	2330.59
199.11	2607.06
199.33	2621.40
199.55	2435.03
199.77	2428.89
199.99	2615.26
200.21	2631.64
200.43	2824.15
200.65	2435.03
200.87	2346.97
201.09	2731.99
201.31	2648.02
201.53	2547.67
201.75	2609.11
201.97	2736.09
202.19	2645.98
202.41	2535.39
202.63	2662.36
202.85	2883.54
203.07	2727.89
203.29	2566.10
203.51	2463.71
203.73	2617.30
203.95	3063.76
204.17	2502.62
204.39	2639.83
204.61	2766.81
204.83	2729.94
205.05	2707.41
205.27	2592.73
205.49	3096.53
205.71	2635.74
205.93	2406.36
206.15	2465.75
206.37	2766.81
206.59	2686.94
206.81	2430.94
207.03	2422.75
207.25	2582.49
207.47	2785.24
207.69	2527.19
207.91	2695.13
208.13	2990.03
208.34	2572.25
208.56	2459.61
208.78	2539.48
209.00	2652.12
209.22	2725.85
209.44	2547.67
209.66	2547.67
209.88	2783.19
210.10	2707.41
210.32	2529.24
210.54	2617.30
210.76	2674.65
210.98	2822.10
211.20	2439.13
211.42	2594.78
211.64	2856.92
211.86	2777.05
212.08	2580.44
212.30	2486.23
212.52	2678.74
212.74	2772.95
212.96	2562.01
213.17	2611.16
213.39	2897.88
213.61	2883.54
213.83	2455.51
214.05	2467.80
214.27	2908.12
214.49	2547.67
214.71	2449.37
214.93	2584.54
215.15	2738.13
215.37	2854.87
215.59	2342.88
215.81	2621.40
216.03	2899.92
216.24	2668.50
216.46	2582.49
216.68	2537.43
216.90	2777.05
217.12	2885.59
217.34	2512.86
217.56	2588.63
217.78	2942.93
218.00	2799.57
218.22	2543.58
218.44	2584.54
218.66	2797.53
218.87	3004.37
219.09	2541.53
219.31	2566.10
219.53	2760.66
219.75	2633.69
219.97	2598.87
220.19	2504.67
220.41	2662.36
220.63	2987.99
220.85	2584.54
221.06	2545.63
221.28	2899.92
221.50	2813.91
221.72	2547.67
221.94	2473.95
222.16	2731.99
222.38	2797.53
222.60	2465.75
222.82	2510.81
223.03	2807.77
223.25	2541.53
223.47	2490.33
223.69	2703.32
223.91	2861.01
224.13	2791.38
224.35	2416.60
224.57	2695.13
224.78	2820.05
225.00	2600.92
225.22	2598.87
225.44	2461.66
225.66	2836.44
225.88	2641.88
226.10	2576.34
226.32	2566.10
226.53	2885.59
226.75	2680.79
226.97	2598.87
227.19	2539.48
227.41	2514.91
227.63	2658.26
227.85	2422.75
228.06	2553.82
228.28	2770.90
228.50	2936.79
228.72	2426.84
228.94	2480.09
229.16	2461.66
229.37	2533.34
229.59	2375.64
229.81	2736.09
230.03	2686.94
230.25	2533.34
230.47	2416.60
230.69	2521.05
230.90	2789.33
231.12	2576.34
231.34	2619.35
231.56	2705.37
231.78	2592.73
232.00	2768.85
232.21	2533.34
232.43	2541.53
232.65	2371.55
232.87	2799.57
233.09	2494.43
233.30	2506.71
233.52	2891.73
233.74	2652.12
233.96	2514.91
234.18	2580.44
234.40	2723.80
234.61	3022.80
234.83	2420.70
235.05	2471.90
235.27	3094.48
235.49	2904.02
235.70	2465.75
235.92	2566.10
236.14	2762.71
236.36	3067.86
236.58	2445.27
236.79	2523.10
237.01	2775.00
237.23	2727.89
237.45	2676.70
237.67	2549.72
237.88	2813.91
238.10	3035.09
238.32	2482.14
238.54	2428.89
238.76	2723.80
238.97	2584.54
239.19	2445.27
239.41	2635.74
239.63	2824.15
239.85	2635.74
240.06	2555.86
240.28	2420.70
240.50	2922.45
240.72	2691.03
240.93	2498.52
241.15	2611.16
241.37	2650.07
241.59	2803.67
241.81	2547.67
242.02	2555.86
242.24	2695.13
242.46	2840.53
242.68	2379.74
242.89	2512.86
243.11	2908.12
243.33	2674.65
243.55	2529.24
243.76	2602.97
243.98	2656.22
244.20	2748.37
244.42	2564.06
244.64	2539.48
244.85	2576.34
245.07	2584.54
245.29	2566.10
245.51	2498.52
245.72	2805.72
245.94	2863.06
246.16	2564.06
246.38	2527.19
246.59	2676.70
246.81	2625.50
247.03	2402.27
247.24	2410.46
247.46	2609.11
247.68	2756.57
247.90	2455.51
248.11	2494.43
248.33	2854.87
248.55	2670.55
248.77	2570.20
248.98	2666.46
249.20	2951.12
249.42	2820.05
249.64	2598.87
249.85	2469.85
250.07	2707.41
250.29	2838.48
250.50	2564.06
250.72	2437.08
250.94	2766.81
251.16	3059.67
251.37	2529.24
251.59	2621.40
251.81	2818.00
252.02	3020.75
252.24	2478.04
252.46	2619.35
252.68	2641.88
252.89	2682.84
253.11	2430.94
253.33	2637.78
253.54	2947.03
253.76	2625.50
253.98	2441.18
254.20	2478.04
254.41	2588.63
254.63	2592.73
254.85	2404.32
255.06	2615.26
255.28	2777.05
255.50	2617.30
255.71	2494.43
255.93	2414.56
256.15	2592.73
256.36	2746.33
256.58	2398.17
256.80	2484.19
257.02	2678.74
257.23	2605.02
257.45	2484.19
257.67	2600.92
257.88	2566.10
258.10	2871.25
258.32	2494.43
258.53	2564.06
258.75	2961.36
258.97	2639.83
259.18	2490.33
259.40	2539.48
259.62	2981.84
259.83	2951.12
260.05	2594.78
260.27	3209.17
260.48	2787.29
260.70	2525.15
260.92	2484.19
261.13	2490.33
261.35	2744.28
261.57	2791.38
261.78	2379.74
262.00	2480.09
262.22	2865.11
262.43	2566.10
262.65	2516.95
262.86	2473.95
263.08	3137.49
263.30	2721.75
263.51	2375.64
263.73	2465.75
263.95	2854.87
264.16	2602.97
264.38	2383.84
264.60	2545.63
264.81	2709.46
265.03	2822.10
265.25	2736.09
265.46	2435.03
265.68	3049.43
265.89	2867.16
266.11	2340.83
266.33	2484.19
266.54	2912.21
266.76	2826.20
266.98	2652.12
267.19	2686.94
267.41	2789.33
267.62	2695.13
267.84	2285.53
268.06	2613.21
268.27	2748.37
268.49	2912.21
268.70	2596.82
268.92	2543.58
269.14	2584.54
269.35	2555.86
269.57	2553.82
269.79	2566.10
270.00	2578.39
270.22	2979.79
270.43	2437.08
270.65	2359.26
270.87	2719.70
271.08	2807.77
271.30	2598.87
271.51	2502.62
271.73	2701.27
271.95	2867.16
272.16	2445.27
272.38	2615.26
272.59	2621.40
272.81	2813.91
273.02	2463.71
273.24	2553.82
273.46	2979.79
273.67	2469.85
273.89	2424.80
274.10	2475.99
274.32	2824.15
274.54	2654.17
274.75	2568.15
274.97	2586.58
275.18	2889.68
275.40	2815.96
275.61	2586.58
275.83	2633.69
276.05	2594.78
276.26	2656.22
276.48	2525.15
276.69	2615.26
276.91	2629.59
277.12	2924.50
277.34	2752.47
277.55	2678.74
277.77	2803.67
277.99	2670.55
278.20	2557.91
278.42	2498.52
278.63	2564.06
278.85	2541.53
279.06	2482.14
279.28	2648.02
279.49	2918.36
279.71	2863.06
279.93	2676.70
280.14	2635.74
280.36	2553.82
280.57	2820.05
280.79	2613.21
281.00	2527.19
281.22	2600.92
281.43	2899.92
281.65	2420.70
281.86	2439.13
282.08	2793.43
282.29	2971.60
282.51	2492.38
282.73	2416.60
282.94	2531.29
283.16	2766.81
283.37	2707.41
283.59	2611.16
283.80	2734.04
284.02	2637.78
284.23	2666.46
284.45	2639.83
284.66	2660.31
284.88	2588.63
285.09	2586.58
285.31	2775.00
285.52	2779.09
285.74	2512.86
285.95	2705.37
286.17	2672.60
286.38	2846.68
286.60	2643.93
286.81	2668.50
287.03	2531.29
287.24	2678.74
287.46	2711.51
287.67	2695.13
287.89	2856.92
288.10	2799.57
288.32	2713.56
288.53	2731.99
288.75	2754.52
288.96	2873.30
289.18	2695.13
289.39	2564.06
289.61	2715.61
289.82	2998.23
290.04	2973.65
290.25	2461.66
290.47	2670.55
290.68	2703.32
290.90	2826.20
291.11	2385.88
291.33	2715.61
291.54	2559.96
291.76	2650.07
291.97	2623.45
292.18	2756.57
292.40	2662.36
292.61	2686.94
292.83	2910.16
293.04	2654.17
293.26	2713.56
293.47	2752.47
293.69	2527.19
293.90	2590.68
294.12	2951.12
294.33	2674.65
294.55	2607.06
294.76	2793.43
294.97	2967.51
295.19	3035.09
295.40	2566.10
295.62	2752.47
295.83	2877.40
296.05	2557.91
296.26	2781.14
296.48	2519.00
296.69	2682.84
296.90	2652.12
297.12	2750.42
297.33	2658.26
297.55	2729.94
297.76	2818.00
297.98	2635.74
298.19	2697.17
298.41	2727.89
298.62	2576.34
298.83	2727.89
299.05	2602.97
299.26	2582.49
299.48	2605.02
299.69	2750.42
299.90	2576.34
300.12	2588.63
300.33	2760.66
300.55	2617.30
300.76	2627.54
300.98	2605.02
301.19	2861.01
301.40	2564.06
301.62	2555.86
301.83	2717.65
302.05	2824.15
302.26	2674.65
302.47	2701.27
302.69	2596.82
302.90	2766.81
303.12	2435.03
303.33	2729.94
303.54	2961.36
303.76	2734.04
303.97	2586.58
304.19	2756.57
304.40	2619.35
304.61	2793.43
304.83	2828.24
305.04	2754.52
305.26	2781.14
305.47	2697.17
305.68	2580.44
305.90	2457.56
306.11	2826.20
306.33	2729.94
306.54	2568.15
306.75	2574.30
306.97	2500.57
307.18	2492.38
307.39	2633.69
307.61	2631.64
307.82	2707.41
308.04	2807.77
308.25	2531.29
308.46	2744.28
308.68	2734.04
308.89	2734.04
309.10	2766.81
309.32	2668.50
309.53	2729.94
309.74	2797.53
309.96	2602.97
310.17	2766.81
310.39	2658.26
310.60	2791.38
310.81	2676.70
311.03	2512.86
311.24	2869.20
311.45	2723.80
311.67	2830.29
311.88	2686.94
312.09	2627.54
312.31	2545.63
312.52	2568.15
312.73	2656.22
312.95	2537.43
313.16	2574.30
313.37	2740.18
313.59	2789.33
313.80	2830.29
314.01	2977.75
314.23	2584.54
314.44	2539.48
314.65	2519.00
314.87	2625.50
315.08	2598.87
315.29	2578.39
315.51	2605.02
315.72	2500.57
315.93	2711.51
316.15	2693.08
316.36	2641.88
316.57	2748.37
316.79	2670.55
317.00	2488.28
317.21	2785.24
317.43	2629.59
317.64	2594.78
317.85	2568.15
318.07	2537.43
318.28	2709.46
318.49	2684.89
318.70	2879.44
318.92	2830.29
319.13	2729.94
319.34	2852.82
319.56	2641.88
319.77	2766.81
319.98	2842.58
320.20	2645.98
320.41	2734.04
320.62	2830.29
320.83	2596.82
321.05	2783.19
321.26	2674.65
321.47	2781.14
321.69	2867.16
321.90	2506.71
322.11	2607.06
322.32	2801.62
322.54	2957.27
322.75	2617.30
322.96	3256.27
323.18	2512.86
323.39	2482.14
323.60	2531.29
323.81	2721.75
324.03	2637.78
324.24	2703.32
324.45	2682.84
324.66	2570.20
324.88	2928.60
325.09	2932.69
325.30	2600.92
325.52	2555.86
325.73	2762.71
325.94	2545.63
326.15	2463.71
326.37	2498.52
326.58	2785.24
326.79	2934.74
327.00	2527.19
327.22	2580.44
327.43	2629.59
327.64	2658.26
327.85	2723.80
328.07	2674.65
328.28	2975.70
328.49	2607.06
328.70	2555.86
328.92	2660.31
329.13	2701.27
329.34	2775.00
329.55	2801.62
329.76	2707.41
329.98	2617.30
330.19	2930.64
330.40	2666.46
330.61	2670.55
330.83	2932.69
331.04	2578.39
331.25	2703.32
331.46	2637.78
331.68	2535.39
331.89	2820.05
332.10	2658.26
332.31	2519.00
332.52	2768.85
332.74	2916.31
332.95	2482.14
333.16	2559.96
333.37	2846.68
333.58	2705.37
333.80	2627.54
334.01	2426.84
334.22	2662.36
334.43	2641.88
334.64	2633.69
334.86	2478.04
335.07	2695.13
335.28	2899.92
335.49	2488.28
335.70	2719.70
335.92	2920.40
336.13	2955.22
336.34	2699.22
336.55	2697.17
336.76	2789.33
336.98	2432.99
337.19	2613.21
337.40	2721.75
337.61	3096.53
337.82	2830.29
338.04	2645.98
338.25	2437.08
338.46	2731.99
338.67	2686.94
338.88	2496.47
339.09	2482.14
339.31	2645.98
339.52	2568.15
339.73	2576.34
339.94	2600.92
340.15	2826.20
340.36	2744.28
340.58	2637.78
340.79	2574.30
341.00	2740.18
341.21	2576.34
341.42	2803.67
341.63	2619.35
341.85	2920.40
342.06	2693.08
342.27	2547.67
342.48	2686.94
342.69	2553.82
342.90	2809.81
343.12	2820.05
343.33	2559.96
343.54	2912.21
343.75	2924.50
343.96	2652.12
344.17	2492.38
344.38	2633.69
344.60	2598.87
344.81	2502.62
345.02	2592.73
345.23	2854.87
345.44	3076.05
345.65	2674.65
345.86	2611.16
346.07	2772.95
346.29	2672.60
346.50	2754.52
346.71	2654.17
346.92	2877.40
347.13	3016.66
347.34	2652.12
347.55	2588.63
347.76	2768.85
347.98	2453.47
348.19	2598.87
348.40	2758.61
348.61	2633.69
348.82	2883.54
349.03	2699.22
349.24	2527.19
349.45	2996.18
349.66	2408.41
349.88	2531.29
350.09	2553.82
350.30	2965.46
350.51	2942.93
350.72	2674.65
350.93	2652.12
351.14	2645.98
351.35	2764.76
351.56	2703.32
351.77	2588.63
351.99	2795.48
352.20	2901.97
352.41	2715.61
352.62	2383.84
352.83	2731.99
353.04	2721.75
353.25	2580.44
353.46	2662.36
353.67	2858.96
353.88	2500.57
354.09	2553.82
354.30	2686.94
354.52	2789.33
354.73	2752.47
354.94	2574.30
355.15	2660.31
355.36	3018.71
355.57	2641.88
355.78	2576.34
355.99	2582.49
356.20	2656.22
356.41	2928.60
356.62	2682.84
356.83	2703.32
357.04	2942.93
357.25	2453.47
357.46	2621.40
357.68	2457.56
357.89	2516.95
358.10	2713.56
358.31	2596.82
358.52	2611.16
358.73	2478.04
358.94	2588.63
359.15	2629.59
359.36	2627.54
359.57	2791.38
359.78	2731.99
359.99	2688.98
360.20	2465.75
360.41	2686.94
360.62	2727.89
360.83	2684.89
361.04	2578.39
361.25	2770.90
361.46	2990.03
361.67	2701.27
361.88	2643.93
362.09	2834.39
362.30	2695.13
362.51	2590.68
362.72	2635.74
362.93	2811.86
363.14	2787.29
363.35	2684.89
363.56	2480.09
363.78	2842.58
363.99	2861.01
364.20	2617.30
364.41	2584.54
364.62	2981.84
364.83	2846.68
365.04	2551.77
365.25	2648.02
365.46	3139.54
365.67	2570.20
365.88	2711.51
366.09	2578.39
366.30	2707.41
366.51	2713.56
366.72	2519.00
366.93	2570.20
367.14	2684.89
367.35	2930.64
367.56	2570.20
367.77	2781.14
367.98	2748.37
368.18	2764.76
368.39	2662.36
368.60	2535.39
368.81	2904.02
369.02	2809.81
369.23	2656.22
369.44	2422.75
369.65	2701.27
369.86	2760.66
370.07	2766.81
370.28	2523.10
370.49	2801.62
370.70	2840.53
370.91	2525.15
371.12	2496.47
371.33	2867.16
371.54	2697.17
371.75	2777.05
371.96	2361.31
372.17	2695.13
372.38	2688.98
372.59	2678.74
372.80	2551.77
373.01	2660.31
373.22	2752.47
373.43	2613.21
373.64	2441.18
373.85	2895.83
374.06	3000.27
374.26	2793.43
374.47	2695.13
374.68	3012.56
374.89	2717.65
375.10	2623.45
375.31	2742.23
375.52	2748.37
375.73	2711.51
375.94	2508.76
376.15	2772.95
376.36	2580.44
376.57	2660.31
376.78	2662.36
376.99	2633.69
377.20	2840.53
377.40	2695.13
377.61	2807.77
377.82	2512.86
378.03	2963.41
378.24	2756.57
378.45	2783.19
378.66	2615.26
378.87	2400.22
379.08	2521.05
379.29	2600.92
379.50	2719.70
379.71	2721.75
379.91	2838.48
380.12	2641.88
380.33	2727.89
380.54	2709.46
380.75	2693.08
380.96	2615.26
381.17	2713.56
381.38	2695.13
381.59	2682.84
381.80	2654.17
382.00	2770.90
382.21	2742.23
382.42	2877.40
382.63	2850.77
382.84	2715.61
383.05	2793.43
383.26	2938.84
383.47	2627.54
383.68	2654.17
383.88	2799.57
384.09	2693.08
384.30	2867.16
384.51	2719.70
384.72	2711.51
384.93	2527.19
385.14	2662.36
385.35	2746.33
385.55	2519.00
385.76	2877.40
385.97	2582.49
386.18	2398.17
386.39	2590.68
386.60	2613.21
386.81	2578.39
387.02	2445.27
387.22	2488.28
387.43	2832.34
387.64	2684.89
387.85	2785.24
388.06	2879.44
388.27	3968.96
388.48	7417.74
388.68	11052.89
388.89	13516.59
389.10	14485.28
389.31	13713.20
389.52	10852.19
389.73	9566.06
389.93	8595.32
390.14	7909.26
390.35	7194.51
390.56	6447.01
390.77	5312.43
390.98	4061.12
391.18	3493.83
391.39	3198.93
391.60	2754.52
391.81	2844.63
392.02	2576.34
392.23	3190.74
392.43	2838.48
392.64	2789.33
392.85	2674.65
393.06	2940.88
393.27	2740.18
393.47	2588.63
393.68	2740.18
393.89	2725.85
394.10	2856.92
394.31	2654.17
394.52	2539.48
394.72	2609.11
394.93	2965.46
395.14	2531.29
395.35	2705.37
395.56	2625.50
395.76	2623.45
395.97	2686.94
396.18	2807.77
396.39	2734.04
396.60	3291.09
396.80	2916.31
397.01	2785.24
397.22	2809.81
397.43	2856.92
397.64	2578.39
397.84	2762.71
398.05	3137.49
398.26	2721.75
398.47	2772.95
398.67	2891.73
398.88	2701.27
399.09	2865.11
399.30	2543.58
399.51	2727.89
399.71	2602.97
399.92	2762.71
400.13	2670.55
400.34	2637.78
400.54	2740.18
400.75	2904.02
400.96	2617.30
401.17	2928.60
401.37	2852.82
401.58	2770.90
401.79	2637.78
402.00	2775.00
402.21	3215.31
402.41	2906.07
402.62	3024.85
402.83	3002.32
403.04	3143.63
403.24	3393.48
403.45	2691.03
403.66	2944.98
403.87	2936.79
404.07	2961.36
404.28	2861.01
404.49	2881.49
404.70	2746.33
404.90	2818.00
405.11	2654.17
405.32	2754.52
405.52	2707.41
405.73	2613.21
405.94	2568.15
406.15	2719.70
406.35	2848.72
406.56	2818.00
406.77	2705.37
406.98	2727.89
407.18	2564.06
407.39	2944.98
407.60	2666.46
407.80	2727.89
408.01	2584.54
408.22	2783.19
408.43	2562.01
408.63	2779.09
408.84	2752.47
409.05	2875.35
409.25	2519.00
409.46	2551.77
409.67	2688.98
409.88	2570.20
410.08	2654.17
410.29	2592.73
410.50	2762.71
410.70	2756.57
410.91	2562.01
411.12	2672.60
411.32	2731.99
411.53	2562.01
411.74	2758.61
411.95	2631.64
412.15	2668.50
412.36	2850.77
412.57	2740.18
412.77	2809.81
412.98	2736.09
413.19	2635.74
413.39	2707.41
413.60	2643.93
413.81	2889.68
414.01	2650.07
414.22	2652.12
414.43	2779.09
414.63	2727.89
414.84	2822.10
415.05	2662.36
415.25	2473.95
415.46	2848.72
415.67	2613.21
415.87	2637.78
416.08	2609.11
416.29	2691.03
416.49	2895.83
416.70	2586.58
416.91	2619.35
417.11	2742.23
417.32	2850.77
417.53	2688.98
417.73	2676.70
417.94	2699.22
418.15	2772.95
418.35	2674.65
418.56	2607.06
418.77	3106.77
418.97	2756.57
419.18	2691.03
419.38	2381.79
419.59	2688.98
419.80	3004.37
420.00	2619.35
420.21	2611.16
420.42	2932.69
420.62	2822.10
420.83	2596.82
421.04	2658.26
421.24	2750.42
421.45	2854.87
421.65	2678.74
421.86	2574.30
422.07	2863.06
422.27	2834.39
422.48	2572.25
422.69	2512.86
422.89	2691.03
423.10	2695.13
423.30	2619.35
423.51	2715.61
423.72	2848.72
423.92	2791.38
424.13	2496.47
424.33	2715.61
424.54	2838.48
424.75	2699.22
424.95	2885.59
425.16	2674.65
425.36	2736.09
425.57	2916.31
425.78	2729.94
425.98	2754.52
426.19	2660.31
426.39	2545.63
426.60	2648.02
426.81	2762.71
427.01	2729.94
427.22	2506.71
427.42	2496.47
427.63	2523.10
427.83	2885.59
428.04	3012.56
428.25	2731.99
428.45	2711.51
428.66	2904.02
428.86	2721.75
429.07	2660.31
429.28	2639.83
429.48	2645.98
429.69	2598.87
429.89	2670.55
430.10	2539.48
430.30	2873.30
430.51	2947.03
430.71	2523.10
430.92	2695.13
431.13	2652.12
431.33	2785.24
431.54	2674.65
431.74	2879.44
431.95	3053.52
432.15	2613.21
432.36	2672.60
432.56	2699.22
432.77	2998.23
432.98	2953.17
433.18	2736.09
433.39	2596.82
433.59	2727.89
433.80	3006.42
434.00	2826.20
434.21	2623.45
434.41	2656.22
434.62	3014.61
434.82	2629.59
435.03	2529.24
435.23	2736.09
435.44	2490.33
435.64	2654.17
435.85	2727.89
436.06	2824.15
436.26	2932.69
436.47	2650.07
436.67	2566.10
436.88	2691.03
437.08	2871.25
437.29	2811.86
437.49	2750.42
437.70	2873.30
437.90	2707.41
438.11	2863.06
438.31	2674.65
438.52	2965.46
438.72	2883.54
438.93	2967.51
439.13	2662.36
439.34	2842.58
439.54	2717.65
439.75	2779.09
439.95	2719.70
440.16	2539.48
440.36	2807.77
440.57	2695.13
440.77	2633.69
440.98	2711.51
441.18	2752.47
441.39	2574.30
441.59	2543.58
441.80	3053.52
442.00	2691.03
442.21	2781.14
442.41	2473.95
442.62	2881.49
442.82	2551.77
443.02	2590.68
443.23	2699.22
443.43	2697.17
443.64	2850.77
443.84	2586.58
444.05	2736.09
444.25	2803.67
444.46	2688.98
444.66	2643.93
444.87	2899.92
445.07	2490.33
445.28	2662.36
445.48	2777.05
445.69	2713.56
445.89	3125.20
446.09	2680.79
446.30	2885.59
446.50	3084.24
446.71	4648.89
446.91	5541.80
447.12	6565.79
447.32	6840.22
447.53	6571.93
447.73	5529.52
447.93	4734.90
448.14	4497.34
448.34	4401.08
448.55	3868.61
448.75	3737.54
448.96	3581.90
449.16	3456.97
449.36	3299.28
449.57	2785.24
449.77	2785.24
449.98	2684.89
450.18	2797.53
450.39	2707.41
450.59	2770.90
450.79	2768.85
451.00	2580.44
451.20	2768.85
451.41	2650.07
451.61	2760.66
451.81	2731.99
452.02	2555.86
452.22	2580.44
452.43	2674.65
452.63	2539.48
