SpectraSuite Data File
++++++++++++++++++++++++++++++++++++
Date: Thu May 05 16:20:37 CEST 2016
User: root
Dark Spectrum Present: No
Reference Spectrum Present: No
Number of Sampled Component Spectra: 1
Spectrometers: USB4C02835
Integration Time (usec): 100000 (USB4C02835)
Spectra Averaged: 1 (USB4C02835)
Boxcar Smoothing: 0 (USB4C02835)
Correct for Electrical Dark: No (USB4C02835)
Strobe/Lamp Enabled: No (USB4C02835)
Correct for Detector Non-linearity: No (USB4C02835)
Correct for Stray Light: No (USB4C02835)
Number of Pixels in Processed Spectrum: 3648
>>>>>Begin Processed Spectral Data<<<<<
177.47	2033.63
177.69	2033.63
177.91	2033.63
178.13	2017.25
178.36	2084.83
178.58	2553.82
178.80	2738.13
179.02	2482.14
179.24	2615.26
179.46	2508.76
179.68	2426.84
179.90	2627.54
180.13	2795.48
180.35	2373.60
180.57	2506.71
180.79	2818.00
181.01	2777.05
181.23	2521.05
181.45	2688.98
181.67	2744.28
181.90	2777.05
182.12	2598.87
182.34	2301.92
182.56	2674.65
182.78	2787.29
183.00	2467.80
183.22	2611.16
183.44	2523.10
183.66	3084.24
183.89	2619.35
184.11	2574.30
184.33	2889.68
184.55	2889.68
184.77	2478.04
184.99	2523.10
185.21	2711.51
185.43	2990.03
185.65	2504.67
185.87	2478.04
186.10	3051.47
186.32	3080.14
186.54	2527.19
186.76	2641.88
186.98	2904.02
187.20	2670.55
187.42	2504.67
187.64	2525.15
187.86	2779.09
188.08	2891.73
188.30	2432.99
188.52	2631.64
188.75	2881.49
188.97	2895.83
189.19	2473.95
189.41	2432.99
189.63	2842.58
189.85	2645.98
190.07	2428.89
190.29	2396.12
190.51	2676.70
190.73	2484.19
190.95	2568.15
191.17	2562.01
191.39	2619.35
191.61	2648.02
191.84	2537.43
192.06	2572.25
192.28	2506.71
192.50	3182.54
192.72	2674.65
192.94	2613.21
193.16	2879.44
193.38	2738.13
193.60	2471.90
193.82	2619.35
194.04	2895.83
194.26	2873.30
194.48	2502.62
194.70	2490.33
194.92	2652.12
195.14	2805.72
195.36	2553.82
195.58	2551.77
195.80	2697.17
196.02	2549.72
196.24	2529.24
196.46	2578.39
196.69	2654.17
196.91	3123.15
197.13	2588.63
197.35	2539.48
197.57	2918.36
197.79	2811.86
198.01	2553.82
198.23	2568.15
198.45	2807.77
198.67	2521.05
198.89	2334.68
199.11	2623.45
199.33	2578.39
199.55	2363.36
199.77	2480.09
199.99	2617.30
200.21	2609.11
200.43	2750.42
200.65	2406.36
200.87	2351.07
201.09	2650.07
201.31	2684.89
201.53	2566.10
201.75	2576.34
201.97	2715.61
202.19	2662.36
202.41	2543.58
202.63	2672.60
202.85	2805.72
203.07	2752.47
203.29	2574.30
203.51	2377.69
203.73	2553.82
203.95	3055.57
204.17	2588.63
204.39	2637.78
204.61	2607.06
204.83	2641.88
205.05	2637.78
205.27	2609.11
205.49	3006.42
205.71	2721.75
205.93	2506.71
206.15	2412.51
206.37	2680.79
206.59	2693.08
206.81	2351.07
207.03	2445.27
207.25	2635.74
207.47	2922.45
207.69	2549.72
207.91	2725.85
208.13	2906.07
208.34	2629.59
208.56	2410.46
208.78	2547.67
209.00	2672.60
209.22	2621.40
209.44	2531.29
209.66	2486.23
209.88	2686.94
210.10	2598.87
210.32	2490.33
210.54	2611.16
210.76	2742.23
210.98	2822.10
211.20	2410.46
211.42	2586.58
211.64	2926.55
211.86	2799.57
212.08	2557.91
212.30	2535.39
212.52	2686.94
212.74	2836.44
212.96	2584.54
213.17	2592.73
213.39	2793.43
213.61	2936.79
213.83	2557.91
214.05	2435.03
214.27	2893.78
214.49	2584.54
214.71	2496.47
214.93	2602.97
215.15	2785.24
215.37	2818.00
215.59	2414.56
215.81	2549.72
216.03	2940.88
216.24	2709.46
216.46	2531.29
216.68	2600.92
216.90	2852.82
217.12	2893.78
217.34	2428.89
217.56	2635.74
217.78	2969.55
218.00	2834.39
218.22	2666.46
218.44	2621.40
218.66	2744.28
218.87	2951.12
219.09	2512.86
219.31	2519.00
219.53	2736.09
219.75	2691.03
219.97	2521.05
220.19	2514.91
220.41	2672.60
220.63	3028.95
220.85	2523.10
221.06	2594.78
221.28	2883.54
221.50	2813.91
221.72	2506.71
221.94	2488.28
222.16	2715.61
222.38	2836.44
222.60	2506.71
222.82	2519.00
223.03	2865.11
223.25	2592.73
223.47	2478.04
223.69	2662.36
223.91	2826.20
224.13	2752.47
224.35	2461.66
224.57	2775.00
224.78	2883.54
225.00	2637.78
225.22	2555.86
225.44	2430.94
225.66	2775.00
225.88	2664.41
226.10	2598.87
226.32	2551.77
226.53	2928.60
226.75	2727.89
226.97	2531.29
227.19	2566.10
227.41	2643.93
227.63	2658.26
227.85	2379.74
228.06	2539.48
228.28	2818.00
228.50	2852.82
228.72	2416.60
228.94	2469.85
229.16	2441.18
229.37	2549.72
229.59	2455.51
229.81	2748.37
230.03	2684.89
230.25	2500.57
230.47	2402.27
230.69	2383.84
230.90	2883.54
231.12	2656.22
231.34	2611.16
231.56	2574.30
231.78	2527.19
232.00	2828.24
232.21	2637.78
232.43	2473.95
232.65	2455.51
232.87	2815.96
233.09	2424.80
233.30	2457.56
233.52	2834.39
233.74	2709.46
233.96	2506.71
234.18	2658.26
234.40	2758.61
234.61	2996.18
234.83	2398.17
235.05	2480.09
235.27	3117.01
235.49	2918.36
235.70	2441.18
235.92	2602.97
236.14	2744.28
236.36	3112.91
236.58	2365.40
236.79	2584.54
237.01	2785.24
237.23	2768.85
237.45	2699.22
237.67	2551.77
237.88	2801.62
238.10	2965.46
238.32	2404.32
238.54	2465.75
238.76	2633.69
238.97	2566.10
239.19	2408.41
239.41	2566.10
239.63	2938.84
239.85	2658.26
240.06	2424.80
240.28	2510.81
240.50	2828.24
240.72	2709.46
240.93	2422.75
241.15	2662.36
241.37	2723.80
241.59	2951.12
241.81	2543.58
242.02	2629.59
242.24	2731.99
242.46	2797.53
242.68	2435.03
242.89	2449.37
243.11	2820.05
243.33	2719.70
243.55	2562.01
243.76	2564.06
243.98	2600.92
244.20	2729.94
244.42	2457.56
244.64	2580.44
244.85	2596.82
245.07	2623.45
245.29	2502.62
245.51	2605.02
245.72	2754.52
245.94	2901.97
246.16	2514.91
246.38	2625.50
246.59	2648.02
246.81	2658.26
247.03	2494.43
247.24	2451.42
247.46	2662.36
247.68	2715.61
247.90	2490.33
248.11	2426.84
248.33	2881.49
248.55	2775.00
248.77	2572.25
248.98	2590.68
249.20	2920.40
249.42	2736.09
249.64	2541.53
249.85	2504.67
250.07	2703.32
250.29	2858.96
250.50	2564.06
250.72	2471.90
250.94	2809.81
251.16	3041.23
251.37	2564.06
251.59	2576.34
251.81	2824.15
252.02	2969.55
252.24	2426.84
252.46	2680.79
252.68	2629.59
252.89	2613.21
253.11	2392.03
253.33	2670.55
253.54	2944.98
253.76	2547.67
253.98	2473.95
254.20	2494.43
254.41	2572.25
254.63	2731.99
254.85	2392.03
255.06	2529.24
255.28	2848.72
255.50	2731.99
255.71	2422.75
255.93	2383.84
256.15	2656.22
256.36	2809.81
256.58	2373.60
256.80	2494.43
257.02	2666.46
257.23	2682.84
257.45	2617.30
257.67	2639.83
257.88	2678.74
258.10	2826.20
258.32	2486.23
258.53	2607.06
258.75	2912.21
258.97	2586.58
259.18	2463.71
259.40	2480.09
259.62	3024.85
259.83	2899.92
260.05	2555.86
260.27	3168.21
260.48	2846.68
260.70	2600.92
260.92	2430.94
261.13	2521.05
261.35	2654.17
261.57	2756.57
261.78	2473.95
262.00	2392.03
262.22	2766.81
262.43	2656.22
262.65	2498.52
262.86	2516.95
263.08	3055.57
263.30	2760.66
263.51	2312.16
263.73	2484.19
263.95	2867.16
264.16	2662.36
264.38	2432.99
264.60	2533.34
264.81	2652.12
265.03	2838.48
265.25	2793.43
265.46	2486.23
265.68	2938.84
265.89	2768.85
266.11	2408.41
266.33	2598.87
266.54	2885.59
266.76	2803.67
266.98	2650.07
267.19	2715.61
267.41	2867.16
267.62	2678.74
267.84	2351.07
268.06	2500.57
268.27	2793.43
268.49	2854.87
268.70	2629.59
268.92	2529.24
269.14	2555.86
269.35	2531.29
269.57	2635.74
269.79	2551.77
270.00	2670.55
270.22	2942.93
270.43	2359.26
270.65	2369.50
270.87	2740.18
271.08	2965.46
271.30	2502.62
271.51	2512.86
271.73	2820.05
271.95	2926.55
272.16	2533.34
272.38	2633.69
272.59	2719.70
272.81	2805.72
273.02	2465.75
273.24	2566.10
273.46	2883.54
273.67	2562.01
273.89	2400.22
274.10	2539.48
274.32	2879.44
274.54	2705.37
274.75	2643.93
274.97	2564.06
275.18	2840.53
275.40	2799.57
275.61	2531.29
275.83	2686.94
276.05	2580.44
276.26	2701.27
276.48	2643.93
276.69	2553.82
276.91	2654.17
277.12	2840.53
277.34	2625.50
277.55	2719.70
277.77	2750.42
277.99	2686.94
278.20	2547.67
278.42	2475.99
278.63	2592.73
278.85	2625.50
279.06	2523.10
279.28	2766.81
279.49	2863.06
279.71	2912.21
279.93	2600.92
280.14	2635.74
280.36	2574.30
280.57	2969.55
280.79	2648.02
281.00	2527.19
281.22	2680.79
281.43	2940.88
281.65	2435.03
281.86	2514.91
282.08	2725.85
282.29	3045.33
282.51	2414.56
282.73	2523.10
282.94	2543.58
283.16	2889.68
283.37	2766.81
283.59	2633.69
283.80	2742.23
284.02	2684.89
284.23	2631.64
284.45	2594.78
284.66	2621.40
284.88	2650.07
285.09	2607.06
285.31	2641.88
285.52	2805.72
285.74	2529.24
285.95	2748.37
286.17	2650.07
286.38	2897.88
286.60	2559.96
286.81	2557.91
287.03	2529.24
287.24	2803.67
287.46	2797.53
287.67	2674.65
287.89	2832.34
288.10	2648.02
288.32	2709.46
288.53	2760.66
288.75	2613.21
288.96	2830.29
289.18	2615.26
289.39	2658.26
289.61	2627.54
289.82	3008.47
290.04	2951.12
290.25	2592.73
290.47	2662.36
290.68	2738.13
290.90	2883.54
291.11	2383.84
291.33	2746.33
291.54	2580.44
291.76	2633.69
291.97	2666.46
292.18	2715.61
292.40	2650.07
292.61	2719.70
292.83	2824.15
293.04	2564.06
293.26	2746.33
293.47	2715.61
293.69	2494.43
293.90	2521.05
294.12	2914.26
294.33	2734.04
294.55	2695.13
294.76	2703.32
294.97	2848.72
295.19	3065.81
295.40	2617.30
295.62	2701.27
295.83	2897.88
296.05	2564.06
296.26	2842.58
296.48	2607.06
296.69	2697.17
296.90	2684.89
297.12	2723.80
297.33	2789.33
297.55	2840.53
297.76	2731.99
297.98	2693.08
298.19	2684.89
298.41	2699.22
298.62	2629.59
298.83	2811.86
299.05	2586.58
299.26	2652.12
299.48	2600.92
299.69	2691.03
299.90	2641.88
300.12	2594.78
300.33	2738.13
300.55	2600.92
300.76	2650.07
300.98	2613.21
301.19	2826.20
301.40	2533.34
301.62	2514.91
301.83	2809.81
302.05	2758.61
302.26	2543.58
302.47	2662.36
302.69	2506.71
302.90	2717.65
303.12	2346.97
303.33	2721.75
303.54	3033.04
303.76	2682.84
303.97	2580.44
304.19	2779.09
304.40	2623.45
304.61	2797.53
304.83	2834.39
305.04	2719.70
305.26	2799.57
305.47	2705.37
305.68	2600.92
305.90	2480.09
306.11	2834.39
306.33	2705.37
306.54	2447.32
306.75	2576.34
306.97	2490.33
307.18	2516.95
307.39	2613.21
307.61	2697.17
307.82	2664.41
308.04	2858.96
308.25	2551.77
308.46	2656.22
308.68	2760.66
308.89	2703.32
309.10	2709.46
309.32	2682.84
309.53	2783.19
309.74	2740.18
309.96	2559.96
310.17	2748.37
310.39	2613.21
310.60	2740.18
310.81	2596.82
311.03	2566.10
311.24	2795.48
311.45	2738.13
311.67	2869.20
311.88	2682.84
312.09	2635.74
312.31	2686.94
312.52	2506.71
312.73	2586.58
312.95	2631.64
313.16	2643.93
313.37	2760.66
313.59	2711.51
313.80	2779.09
314.01	2977.75
314.23	2605.02
314.44	2584.54
314.65	2580.44
314.87	2576.34
315.08	2572.25
315.29	2668.50
315.51	2584.54
315.72	2551.77
315.93	2793.43
316.15	2738.13
316.36	2627.54
316.57	2652.12
316.79	2654.17
317.00	2533.34
317.21	2762.71
317.43	2527.19
317.64	2676.70
317.85	2555.86
318.07	2643.93
318.28	2734.04
318.49	2738.13
318.70	2824.15
318.92	2795.48
319.13	2797.53
319.34	2822.10
319.56	2719.70
319.77	2777.05
319.98	2865.11
320.20	2781.14
320.41	2772.95
320.62	2783.19
320.83	2523.10
321.05	2764.76
321.26	2717.65
321.47	2670.55
321.69	2932.69
321.90	2516.95
322.11	2527.19
322.32	2777.05
322.54	2867.16
322.75	2572.25
322.96	3184.59
323.18	2590.68
323.39	2441.18
323.60	2504.67
323.81	2701.27
324.03	2588.63
324.24	2764.76
324.45	2777.05
324.66	2531.29
324.88	2904.02
325.09	2965.46
325.30	2596.82
325.52	2594.78
325.73	2801.62
325.94	2596.82
326.15	2435.03
326.37	2545.63
326.58	2754.52
326.79	2957.27
327.00	2496.47
327.22	2615.26
327.43	2686.94
327.64	2523.10
327.85	2631.64
328.07	2578.39
328.28	3022.80
328.49	2635.74
328.70	2625.50
328.92	2602.97
329.13	2713.56
329.34	2762.71
329.55	2801.62
329.76	2799.57
329.98	2715.61
330.19	2920.40
330.40	2654.17
330.61	2748.37
330.83	2830.29
331.04	2609.11
331.25	2633.69
331.46	2623.45
331.68	2545.63
331.89	2826.20
332.10	2662.36
332.31	2496.47
332.52	2680.79
332.74	2904.02
332.95	2484.19
333.16	2607.06
333.37	2775.00
333.58	2641.88
333.80	2652.12
334.01	2451.42
334.22	2756.57
334.43	2621.40
334.64	2547.67
334.86	2523.10
335.07	2498.52
335.28	2967.51
335.49	2572.25
335.70	2648.02
335.92	2893.78
336.13	3041.23
336.34	2719.70
336.55	2621.40
336.76	2738.13
336.98	2504.67
337.19	2629.59
337.40	2752.47
337.61	3098.58
337.82	2643.93
338.04	2746.33
338.25	2521.05
338.46	2717.65
338.67	2654.17
338.88	2459.61
339.09	2529.24
339.31	2662.36
339.52	2588.63
339.73	2535.39
339.94	2586.58
340.15	2752.47
340.36	2605.02
340.58	2645.98
340.79	2510.81
341.00	2703.32
341.21	2564.06
341.42	2775.00
341.63	2596.82
341.85	2879.44
342.06	2734.04
342.27	2543.58
342.48	2731.99
342.69	2478.04
342.90	2809.81
343.12	2838.48
343.33	2480.09
343.54	2820.05
343.75	2973.65
343.96	2678.74
344.17	2516.95
344.38	2752.47
344.60	2580.44
344.81	2547.67
345.02	2611.16
345.23	2793.43
345.44	3106.77
345.65	2697.17
345.86	2641.88
346.07	2781.14
346.29	2623.45
346.50	2705.37
346.71	2736.09
346.92	2899.92
347.13	2959.31
347.34	2648.02
347.55	2496.47
347.76	2809.81
347.98	2537.43
348.19	2572.25
348.40	2762.71
348.61	2658.26
348.82	2934.74
349.03	2695.13
349.24	2519.00
349.45	2969.55
349.66	2396.12
349.88	2641.88
350.09	2467.80
350.30	2971.60
350.51	2858.96
350.72	2676.70
350.93	2658.26
351.14	2650.07
351.35	2869.20
351.56	2664.41
351.77	2580.44
351.99	2834.39
352.20	2971.60
352.41	2721.75
352.62	2469.85
352.83	2805.72
353.04	2744.28
353.25	2590.68
353.46	2752.47
353.67	2801.62
353.88	2430.94
354.09	2600.92
354.30	2650.07
354.52	2875.35
354.73	2711.51
354.94	2658.26
355.15	2652.12
355.36	3022.80
355.57	2693.08
355.78	2586.58
355.99	2609.11
356.20	2709.46
356.41	2901.97
356.62	2756.57
356.83	2598.87
357.04	2899.92
357.25	2492.38
357.46	2600.92
357.68	2480.09
357.89	2637.78
358.10	2719.70
358.31	2559.96
358.52	2682.84
358.73	2521.05
358.94	2576.34
359.15	2625.50
359.36	2691.03
359.57	2729.94
359.78	2701.27
359.99	2744.28
360.20	2496.47
360.41	2701.27
360.62	2854.87
360.83	2645.98
361.04	2633.69
361.25	2758.61
361.46	2928.60
361.67	2668.50
361.88	2615.26
362.09	2891.73
362.30	2740.18
362.51	2545.63
362.72	2719.70
362.93	2842.58
363.14	2785.24
363.35	2578.39
363.56	2574.30
363.78	2772.95
363.99	2865.11
364.20	2576.34
364.41	2701.27
364.62	2920.40
364.83	2818.00
365.04	2596.82
365.25	2615.26
365.46	3061.71
365.67	2592.73
365.88	2697.17
366.09	2586.58
366.30	2656.22
366.51	2713.56
366.72	2535.39
366.93	2490.33
367.14	2772.95
367.35	2908.12
367.56	2590.68
367.77	2752.47
367.98	2660.31
368.18	2781.14
368.39	2695.13
368.60	2516.95
368.81	2924.50
369.02	2736.09
369.23	2611.16
369.44	2504.67
369.65	2650.07
369.86	2777.05
370.07	2725.85
370.28	2553.82
370.49	2781.14
370.70	2701.27
370.91	2516.95
371.12	2410.46
371.33	2922.45
371.54	2654.17
371.75	2750.42
371.96	2420.70
372.17	2797.53
372.38	2719.70
372.59	2666.46
372.80	2570.20
373.01	2717.65
373.22	2727.89
373.43	2674.65
373.64	2457.56
373.85	2897.88
374.06	3037.14
374.26	2740.18
374.47	2805.72
374.68	2883.54
374.89	2734.04
375.10	2605.02
375.31	2779.09
375.52	2756.57
375.73	2768.85
375.94	2500.57
376.15	2768.85
376.36	2666.46
376.57	2568.15
376.78	2664.41
376.99	2660.31
377.20	2953.17
377.40	2627.54
377.61	2906.07
377.82	2545.63
378.03	2922.45
378.24	2758.61
378.45	2664.41
378.66	2652.12
378.87	2500.57
379.08	2559.96
379.29	2637.78
379.50	2752.47
379.71	2682.84
379.91	2844.63
380.12	2596.82
380.33	2633.69
380.54	2668.50
380.75	2770.90
380.96	2629.59
381.17	2697.17
381.38	2684.89
381.59	2629.59
381.80	2652.12
382.00	2795.48
382.21	2731.99
382.42	2975.70
382.63	2944.98
382.84	2678.74
383.05	2826.20
383.26	2944.98
383.47	2684.89
383.68	2666.46
383.88	2801.62
384.09	2736.09
384.30	2824.15
384.51	2707.41
384.72	2658.26
384.93	2568.15
385.14	2670.55
385.35	2707.41
385.55	2488.28
385.76	2936.79
385.97	2594.78
386.18	2539.48
386.39	2566.10
386.60	2641.88
386.81	2596.82
387.02	2537.43
387.22	2621.40
387.43	2858.96
387.64	2711.51
387.85	2867.16
388.06	2717.65
388.27	3938.24
388.48	7456.65
388.68	10981.21
388.89	13545.27
389.10	14401.32
389.31	13817.65
389.52	10944.34
389.73	9277.30
389.93	8572.80
390.14	7683.98
390.35	7208.85
390.56	6301.60
390.77	5271.47
390.98	4177.86
391.18	3456.97
391.39	3198.93
391.60	2807.77
391.81	2805.72
392.02	2621.40
392.23	3100.62
392.43	2734.04
392.64	2826.20
392.85	2711.51
393.06	2918.36
393.27	2695.13
393.47	2553.82
393.68	2668.50
393.89	2639.83
394.10	2973.65
394.31	2494.43
394.52	2588.63
394.72	2643.93
394.93	2899.92
395.14	2588.63
395.35	2701.27
395.56	2643.93
395.76	2754.52
395.97	2662.36
396.18	2856.92
396.39	2775.00
396.60	3231.69
396.80	2861.01
397.01	2836.44
397.22	2846.68
397.43	2983.89
397.64	2576.34
397.84	2744.28
398.05	3033.04
398.26	2795.48
398.47	2711.51
398.67	2809.81
398.88	2750.42
399.09	2854.87
399.30	2635.74
399.51	2736.09
399.71	2607.06
399.92	2699.22
400.13	2697.17
400.34	2623.45
400.54	2688.98
400.75	2947.03
400.96	2684.89
401.17	2850.77
401.37	2785.24
401.58	2697.17
401.79	2609.11
402.00	2738.13
402.21	3141.58
402.41	2940.88
402.62	2930.64
402.83	2981.84
403.04	3059.67
403.24	3301.33
403.45	2746.33
403.66	2879.44
403.87	2951.12
404.07	2963.41
404.28	2863.06
404.49	2869.20
404.70	2826.20
404.90	2875.35
405.11	2654.17
405.32	2734.04
405.52	2623.45
405.73	2656.22
405.94	2613.21
406.15	2625.50
406.35	2760.66
406.56	2846.68
406.77	2633.69
406.98	2662.36
407.18	2641.88
407.39	2928.60
407.60	2600.92
407.80	2746.33
408.01	2666.46
408.22	2791.38
408.43	2545.63
408.63	2691.03
408.84	2897.88
409.05	2834.39
409.25	2549.72
409.46	2562.01
409.67	2666.46
409.88	2652.12
410.08	2688.98
410.29	2648.02
410.50	2815.96
410.70	2723.80
410.91	2607.06
411.12	2695.13
411.32	2772.95
411.53	2465.75
411.74	2654.17
411.95	2684.89
412.15	2740.18
412.36	2897.88
412.57	2768.85
412.77	2858.96
412.98	2682.84
413.19	2629.59
413.39	2662.36
413.60	2693.08
413.81	2910.16
414.01	2555.86
414.22	2654.17
414.43	2693.08
414.63	2668.50
414.84	2850.77
415.05	2727.89
415.25	2488.28
415.46	2797.53
415.67	2617.30
415.87	2701.27
416.08	2627.54
416.29	2719.70
416.49	2834.39
416.70	2586.58
416.91	2539.48
417.11	2731.99
417.32	2840.53
417.53	2707.41
417.73	2648.02
417.94	2699.22
418.15	2719.70
418.35	2772.95
418.56	2641.88
418.77	3088.34
418.97	2750.42
419.18	2615.26
419.38	2353.12
419.59	2738.13
419.80	2928.60
420.00	2654.17
420.21	2656.22
420.42	2918.36
420.62	2734.04
420.83	2613.21
421.04	2699.22
421.24	2832.34
421.45	2830.29
421.65	2740.18
421.86	2652.12
422.07	2850.77
422.27	2789.33
422.48	2596.82
422.69	2484.19
422.89	2709.46
423.10	2676.70
423.30	2498.52
423.51	2664.41
423.72	2801.62
423.92	2836.44
424.13	2586.58
424.33	2594.78
424.54	2875.35
424.75	2752.47
424.95	2858.96
425.16	2738.13
425.36	2693.08
425.57	2932.69
425.78	2709.46
425.98	2770.90
426.19	2678.74
426.39	2576.34
426.60	2668.50
426.81	2770.90
427.01	2725.85
427.22	2578.39
427.42	2490.33
427.63	2635.74
427.83	2949.08
428.04	2944.98
428.25	2707.41
428.45	2715.61
428.66	2867.16
428.86	2752.47
429.07	2543.58
429.28	2672.60
429.48	2770.90
429.69	2672.60
429.89	2643.93
430.10	2539.48
430.30	2772.95
430.51	2797.53
430.71	2596.82
430.92	2648.02
431.13	2701.27
431.33	2875.35
431.54	2734.04
431.74	2791.38
431.95	3135.44
432.15	2572.25
432.36	2633.69
432.56	2688.98
432.77	2983.89
432.98	3006.42
433.18	2676.70
433.39	2512.86
433.59	2695.13
433.80	3026.90
434.00	2822.10
434.21	2641.88
434.41	2645.98
434.62	3090.38
434.82	2631.64
435.03	2580.44
435.23	2766.81
435.44	2498.52
435.64	2631.64
435.85	2709.46
436.06	2871.25
436.26	2932.69
436.47	2666.46
436.67	2611.16
436.88	2676.70
437.08	2846.68
437.29	2797.53
437.49	2705.37
437.70	2906.07
437.90	2764.76
438.11	2940.88
438.31	2766.81
438.52	2961.36
438.72	2846.68
438.93	2938.84
439.13	2680.79
439.34	2840.53
439.54	2652.12
439.75	2766.81
439.95	2709.46
440.16	2609.11
440.36	2775.00
440.57	2666.46
440.77	2562.01
440.98	2693.08
441.18	2701.27
441.39	2566.10
441.59	2578.39
441.80	3063.76
442.00	2719.70
442.21	2772.95
442.41	2478.04
442.62	2873.30
442.82	2656.22
443.02	2652.12
443.23	2652.12
443.43	2723.80
443.64	2899.92
443.84	2564.06
444.05	2697.17
444.25	2777.05
444.46	2650.07
444.66	2627.54
444.87	2891.73
445.07	2523.10
445.28	2715.61
445.48	2828.24
445.69	2777.05
445.89	3092.43
446.09	2668.50
446.30	2994.13
446.50	3074.00
446.71	4607.93
446.91	5722.02
447.12	6381.47
447.32	6852.50
447.53	6518.68
447.73	5586.86
447.93	4829.11
448.14	4505.53
448.34	4511.68
448.55	3837.89
448.75	3915.72
448.96	3590.09
449.16	3446.73
449.36	3180.50
449.57	2861.01
449.77	2731.99
449.98	2717.65
450.18	2768.85
450.39	2686.94
450.59	2775.00
450.79	2731.99
451.00	2654.17
451.20	2826.20
451.41	2598.87
451.61	2836.44
451.81	2746.33
452.02	2666.46
452.22	2639.83
452.43	2621.40
452.63	2693.08
