SpectraSuite Data File
++++++++++++++++++++++++++++++++++++
Date: Thu May 05 16:20:10 CEST 2016
User: root
Dark Spectrum Present: No
Reference Spectrum Present: No
Number of Sampled Component Spectra: 1
Spectrometers: USB4C02835
Integration Time (usec): 100000 (USB4C02835)
Spectra Averaged: 1 (USB4C02835)
Boxcar Smoothing: 0 (USB4C02835)
Correct for Electrical Dark: No (USB4C02835)
Strobe/Lamp Enabled: No (USB4C02835)
Correct for Detector Non-linearity: No (USB4C02835)
Correct for Stray Light: No (USB4C02835)
Number of Pixels in Processed Spectrum: 3648
>>>>>Begin Processed Spectral Data<<<<<
177.47	2121.70
177.69	2121.70
177.91	2121.70
178.13	2084.83
178.36	2047.97
178.58	2496.47
178.80	2654.17
179.02	2555.86
179.24	2555.86
179.46	2414.56
179.68	2584.54
179.90	2766.81
180.13	2703.32
180.35	2396.12
180.57	2584.54
180.79	2834.39
181.01	2729.94
181.23	2506.71
181.45	2650.07
181.67	2822.10
181.90	2863.06
182.12	2566.10
182.34	2379.74
182.56	2867.16
182.78	2789.33
183.00	2486.23
183.22	2543.58
183.44	2461.66
183.66	3022.80
183.89	2641.88
184.11	2512.86
184.33	2807.77
184.55	2863.06
184.77	2494.43
184.99	2490.33
185.21	2650.07
185.43	3090.38
185.65	2527.19
185.87	2500.57
186.10	3100.62
186.32	3082.19
186.54	2598.87
186.76	2635.74
186.98	2918.36
187.20	2639.83
187.42	2504.67
187.64	2482.14
187.86	2809.81
188.08	2805.72
188.30	2535.39
188.52	2500.57
188.75	2875.35
188.97	2871.25
189.19	2449.37
189.41	2533.34
189.63	2764.76
189.85	2578.39
190.07	2375.64
190.29	2402.27
190.51	2740.18
190.73	2502.62
190.95	2695.13
191.17	2529.24
191.39	2494.43
191.61	2668.50
191.84	2512.86
192.06	2555.86
192.28	2519.00
192.50	3194.83
192.72	2695.13
192.94	2611.16
193.16	2906.07
193.38	2766.81
193.60	2451.42
193.82	2562.01
194.04	2953.17
194.26	2797.53
194.48	2506.71
194.70	2457.56
194.92	2664.41
195.14	2815.96
195.36	2437.08
195.58	2592.73
195.80	2693.08
196.02	2613.21
196.24	2471.90
196.46	2557.91
196.69	2557.91
196.91	3092.43
197.13	2641.88
197.35	2572.25
197.57	2994.13
197.79	2826.20
198.01	2572.25
198.23	2586.58
198.45	2717.65
198.67	2547.67
198.89	2416.60
199.11	2572.25
199.33	2572.25
199.55	2457.56
199.77	2439.13
199.99	2596.82
200.21	2748.37
200.43	2809.81
200.65	2408.41
200.87	2371.55
201.09	2699.22
201.31	2674.65
201.53	2535.39
201.75	2596.82
201.97	2828.24
202.19	2715.61
202.41	2555.86
202.63	2674.65
202.85	2795.48
203.07	2752.47
203.29	2547.67
203.51	2377.69
203.73	2756.57
203.95	3207.12
204.17	2568.15
204.39	2680.79
204.61	2740.18
204.83	2721.75
205.05	2674.65
205.27	2473.95
205.49	3080.14
205.71	2725.85
205.93	2367.45
206.15	2412.51
206.37	2715.61
206.59	2701.27
206.81	2424.80
207.03	2424.80
207.25	2713.56
207.47	2731.99
207.69	2521.05
207.91	2725.85
208.13	2992.08
208.34	2582.49
208.56	2435.03
208.78	2559.96
209.00	2686.94
209.22	2672.60
209.44	2523.10
209.66	2502.62
209.88	2688.98
210.10	2641.88
210.32	2480.09
210.54	2609.11
210.76	2719.70
210.98	2885.59
211.20	2381.79
211.42	2609.11
211.64	2893.78
211.86	2836.44
212.08	2562.01
212.30	2465.75
212.52	2656.22
212.74	2762.71
212.96	2553.82
213.17	2600.92
213.39	2861.01
213.61	2961.36
213.83	2568.15
214.05	2375.64
214.27	2875.35
214.49	2566.10
214.71	2387.93
214.93	2629.59
215.15	2652.12
215.37	2865.11
215.59	2404.32
215.81	2514.91
216.03	2865.11
216.24	2775.00
216.46	2516.95
216.68	2596.82
216.90	2863.06
217.12	2832.34
217.34	2490.33
217.56	2676.70
217.78	2920.40
218.00	2781.14
218.22	2605.02
218.44	2564.06
218.66	2791.38
218.87	2996.18
219.09	2441.18
219.31	2535.39
219.53	2740.18
219.75	2652.12
219.97	2537.43
220.19	2570.20
220.41	2670.55
220.63	2916.31
220.85	2576.34
221.06	2525.15
221.28	2938.84
221.50	2772.95
221.72	2498.52
221.94	2404.32
222.16	2654.17
222.38	2768.85
222.60	2519.00
222.82	2527.19
223.03	2869.20
223.25	2551.77
223.47	2519.00
223.69	2682.84
223.91	2727.89
224.13	2770.90
224.35	2445.27
224.57	2596.82
224.78	2879.44
225.00	2584.54
225.22	2588.63
225.44	2449.37
225.66	2815.96
225.88	2635.74
226.10	2576.34
226.32	2541.53
226.53	2947.03
226.75	2648.02
226.97	2590.68
227.19	2547.67
227.41	2678.74
227.63	2662.36
227.85	2396.12
228.06	2578.39
228.28	2713.56
228.50	2940.88
228.72	2420.70
228.94	2424.80
229.16	2459.61
229.37	2645.98
229.59	2449.37
229.81	2691.03
230.03	2650.07
230.25	2459.61
230.47	2439.13
230.69	2400.22
230.90	2813.91
231.12	2682.84
231.34	2574.30
231.56	2625.50
231.78	2580.44
232.00	2748.37
232.21	2531.29
232.43	2551.77
232.65	2490.33
232.87	2883.54
233.09	2383.84
233.30	2490.33
233.52	2838.48
233.74	2766.81
233.96	2457.56
234.18	2672.60
234.40	2744.28
234.61	3049.43
234.83	2432.99
235.05	2461.66
235.27	3016.66
235.49	2850.77
235.70	2516.95
235.92	2639.83
236.14	2801.62
236.36	3114.96
236.58	2428.89
236.79	2619.35
237.01	2695.13
237.23	2660.31
237.45	2760.66
237.67	2562.01
237.88	2740.18
238.10	3047.38
238.32	2475.99
238.54	2451.42
238.76	2682.84
238.97	2584.54
239.19	2375.64
239.41	2547.67
239.63	2895.83
239.85	2588.63
240.06	2543.58
240.28	2516.95
240.50	2871.25
240.72	2740.18
240.93	2525.15
241.15	2572.25
241.37	2781.14
241.59	2852.82
241.81	2475.99
242.02	2555.86
242.24	2734.04
242.46	2777.05
242.68	2392.03
242.89	2451.42
243.11	2846.68
243.33	2795.48
243.55	2537.43
243.76	2568.15
243.98	2668.50
244.20	2676.70
244.42	2588.63
244.64	2609.11
244.85	2543.58
245.07	2469.85
245.29	2506.71
245.51	2598.87
245.72	2779.09
245.94	2867.16
246.16	2537.43
246.38	2516.95
246.59	2660.31
246.81	2637.78
247.03	2502.62
247.24	2387.93
247.46	2672.60
247.68	2742.23
247.90	2514.91
248.11	2488.28
248.33	2873.30
248.55	2725.85
248.77	2580.44
248.98	2578.39
249.20	2942.93
249.42	2686.94
249.64	2416.60
249.85	2445.27
250.07	2541.53
250.29	2861.01
250.50	2547.67
250.72	2424.80
250.94	2828.24
251.16	2963.41
251.37	2420.70
251.59	2621.40
251.81	2842.58
252.02	2936.79
252.24	2439.13
252.46	2654.17
252.68	2584.54
252.89	2607.06
253.11	2363.36
253.33	2559.96
253.54	2893.78
253.76	2516.95
253.98	2469.85
254.20	2455.51
254.41	2557.91
254.63	2715.61
254.85	2371.55
255.06	2625.50
255.28	2744.28
255.50	2650.07
255.71	2455.51
255.93	2420.70
256.15	2660.31
256.36	2822.10
256.58	2449.37
256.80	2375.64
257.02	2650.07
257.23	2641.88
257.45	2519.00
257.67	2617.30
257.88	2668.50
258.10	2766.81
258.32	2498.52
258.53	2631.64
258.75	2957.27
258.97	2621.40
259.18	2482.14
259.40	2551.77
259.62	2944.98
259.83	2961.36
260.05	2553.82
260.27	3188.69
260.48	2914.26
260.70	2568.15
260.92	2451.42
261.13	2496.47
261.35	2691.03
261.57	2791.38
261.78	2398.17
262.00	2451.42
262.22	2793.43
262.43	2645.98
262.65	2553.82
262.86	2580.44
263.08	3114.96
263.30	2756.57
263.51	2371.55
263.73	2475.99
263.95	2969.55
264.16	2574.30
264.38	2424.80
264.60	2469.85
264.81	2717.65
265.03	2768.85
265.25	2844.63
265.46	2523.10
265.68	2904.02
265.89	2846.68
266.11	2412.51
266.33	2475.99
266.54	2899.92
266.76	2750.42
266.98	2588.63
267.19	2621.40
267.41	2881.49
267.62	2625.50
267.84	2383.84
268.06	2635.74
268.27	2775.00
268.49	2887.64
268.70	2564.06
268.92	2521.05
269.14	2559.96
269.35	2541.53
269.57	2609.11
269.79	2592.73
270.00	2654.17
270.22	2947.03
270.43	2430.94
270.65	2392.03
270.87	2719.70
271.08	2863.06
271.30	2582.49
271.51	2504.67
271.73	2768.85
271.95	2910.16
272.16	2500.57
272.38	2574.30
272.59	2709.46
272.81	2805.72
273.02	2527.19
273.24	2588.63
273.46	2789.33
273.67	2559.96
273.89	2475.99
274.10	2449.37
274.32	2807.77
274.54	2744.28
274.75	2559.96
274.97	2668.50
275.18	2785.24
275.40	2775.00
275.61	2555.86
275.83	2582.49
276.05	2527.19
276.26	2688.98
276.48	2631.64
276.69	2629.59
276.91	2676.70
277.12	2918.36
277.34	2734.04
277.55	2746.33
277.77	2766.81
277.99	2676.70
278.20	2537.43
278.42	2459.61
278.63	2568.15
278.85	2564.06
279.06	2473.95
279.28	2580.44
279.49	2815.96
279.71	2809.81
279.93	2658.26
280.14	2715.61
280.36	2605.02
280.57	2865.11
280.79	2711.51
281.00	2533.34
281.22	2613.21
281.43	2848.72
281.65	2365.40
281.86	2576.34
282.08	2832.34
282.29	3006.42
282.51	2512.86
282.73	2535.39
282.94	2463.71
283.16	2916.31
283.37	2856.92
283.59	2627.54
283.80	2805.72
284.02	2744.28
284.23	2699.22
284.45	2514.91
284.66	2551.77
284.88	2566.10
285.09	2715.61
285.31	2664.41
285.52	2760.66
285.74	2598.87
285.95	2691.03
286.17	2648.02
286.38	2914.26
286.60	2648.02
286.81	2514.91
287.03	2621.40
287.24	2641.88
287.46	2805.72
287.67	2723.80
287.89	2824.15
288.10	2686.94
288.32	2719.70
288.53	2742.23
288.75	2662.36
288.96	2783.19
289.18	2615.26
289.39	2492.38
289.61	2592.73
289.82	3071.95
290.04	2963.41
290.25	2510.81
290.47	2600.92
290.68	2775.00
290.90	2836.44
291.11	2486.23
291.33	2740.18
291.54	2605.02
291.76	2648.02
291.97	2699.22
292.18	2721.75
292.40	2633.69
292.61	2625.50
292.83	2809.81
293.04	2688.98
293.26	2799.57
293.47	2758.61
293.69	2502.62
293.90	2541.53
294.12	2895.83
294.33	2713.56
294.55	2656.22
294.76	2768.85
294.97	2869.20
295.19	3051.47
295.40	2613.21
295.62	2639.83
295.83	2807.77
296.05	2668.50
296.26	2828.24
296.48	2564.06
296.69	2674.65
296.90	2691.03
297.12	2703.32
297.33	2824.15
297.55	2815.96
297.76	2783.19
297.98	2709.46
298.19	2705.37
298.41	2721.75
298.62	2588.63
298.83	2752.47
299.05	2684.89
299.26	2615.26
299.48	2619.35
299.69	2674.65
299.90	2639.83
300.12	2531.29
300.33	2750.42
300.55	2680.79
300.76	2672.60
300.98	2570.20
301.19	2787.29
301.40	2605.02
301.62	2637.78
301.83	2854.87
302.05	2686.94
302.26	2607.06
302.47	2686.94
302.69	2547.67
302.90	2736.09
303.12	2400.22
303.33	2672.60
303.54	3022.80
303.76	2662.36
303.97	2533.34
304.19	2818.00
304.40	2607.06
304.61	2752.47
304.83	2721.75
305.04	2691.03
305.26	2836.44
305.47	2672.60
305.68	2617.30
305.90	2447.32
306.11	2963.41
306.33	2590.68
306.54	2553.82
306.75	2588.63
306.97	2453.47
307.18	2582.49
307.39	2643.93
307.61	2701.27
307.82	2666.46
308.04	2768.85
308.25	2467.80
308.46	2727.89
308.68	2650.07
308.89	2693.08
309.10	2721.75
309.32	2598.87
309.53	2715.61
309.74	2721.75
309.96	2574.30
310.17	2762.71
310.39	2635.74
310.60	2893.78
310.81	2623.45
311.03	2519.00
311.24	2793.43
311.45	2695.13
311.67	2791.38
311.88	2643.93
312.09	2623.45
312.31	2668.50
312.52	2547.67
312.73	2566.10
312.95	2490.33
313.16	2588.63
313.37	2752.47
313.59	2695.13
313.80	2789.33
314.01	3018.71
314.23	2578.39
314.44	2510.81
314.65	2516.95
314.87	2494.43
315.08	2641.88
315.29	2627.54
315.51	2572.25
315.72	2519.00
315.93	2736.09
316.15	2693.08
316.36	2658.26
316.57	2623.45
316.79	2672.60
317.00	2627.54
317.21	2858.96
317.43	2602.97
317.64	2631.64
317.85	2598.87
318.07	2676.70
318.28	2656.22
318.49	2631.64
318.70	2951.12
318.92	2832.34
319.13	2840.53
319.34	2809.81
319.56	2621.40
319.77	2762.71
319.98	2807.77
320.20	2707.41
320.41	2772.95
320.62	2828.24
320.83	2557.91
321.05	2813.91
321.26	2719.70
321.47	2686.94
321.69	2811.86
321.90	2549.72
322.11	2482.14
322.32	2777.05
322.54	3006.42
322.75	2588.63
322.96	3272.65
323.18	2543.58
323.39	2480.09
323.60	2469.85
323.81	2684.89
324.03	2566.10
324.24	2699.22
324.45	2635.74
324.66	2580.44
324.88	2883.54
325.09	2990.03
325.30	2662.36
325.52	2543.58
325.73	2736.09
325.94	2572.25
326.15	2455.51
326.37	2545.63
326.58	2832.34
326.79	2904.02
327.00	2510.81
327.22	2625.50
327.43	2650.07
327.64	2547.67
327.85	2715.61
328.07	2686.94
328.28	2959.31
328.49	2652.12
328.70	2705.37
328.92	2609.11
329.13	2752.47
329.34	2805.72
329.55	2777.05
329.76	2764.76
329.98	2772.95
330.19	2901.97
330.40	2740.18
330.61	2693.08
330.83	2838.48
331.04	2562.01
331.25	2713.56
331.46	2613.21
331.68	2584.54
331.89	2922.45
332.10	2678.74
332.31	2519.00
332.52	2850.77
332.74	2891.73
332.95	2420.70
333.16	2731.99
333.37	2807.77
333.58	2664.41
333.80	2645.98
334.01	2418.65
334.22	2783.19
334.43	2678.74
334.64	2553.82
334.86	2541.53
335.07	2564.06
335.28	2879.44
335.49	2514.91
335.70	2711.51
335.92	2916.31
336.13	3145.68
336.34	2643.93
336.55	2652.12
336.76	2797.53
336.98	2424.80
337.19	2570.20
337.40	2654.17
337.61	3076.05
337.82	2625.50
338.04	2688.98
338.25	2498.52
338.46	2729.94
338.67	2625.50
338.88	2543.58
339.09	2488.28
339.31	2744.28
339.52	2574.30
339.73	2535.39
339.94	2527.19
340.15	2736.09
340.36	2605.02
340.58	2680.79
340.79	2541.53
341.00	2725.85
341.21	2566.10
341.42	2764.76
341.63	2596.82
341.85	2811.86
342.06	2809.81
342.27	2551.77
342.48	2871.25
342.69	2488.28
342.90	2826.20
343.12	2850.77
343.33	2535.39
343.54	2838.48
343.75	2953.17
343.96	2648.02
344.17	2406.36
344.38	2762.71
344.60	2662.36
344.81	2502.62
345.02	2598.87
345.23	2865.11
345.44	3117.01
345.65	2695.13
345.86	2662.36
346.07	2750.42
346.29	2590.68
346.50	2775.00
346.71	2684.89
346.92	2967.51
347.13	3020.75
347.34	2611.16
347.55	2514.91
347.76	2793.43
347.98	2605.02
348.19	2656.22
348.40	2805.72
348.61	2645.98
348.82	2971.60
349.03	2637.78
349.24	2490.33
349.45	3030.99
349.66	2475.99
349.88	2572.25
350.09	2590.68
350.30	2942.93
350.51	2977.75
350.72	2715.61
350.93	2572.25
351.14	2619.35
351.35	2727.89
351.56	2629.59
351.77	2664.41
351.99	2830.29
352.20	2912.21
352.41	2770.90
352.62	2400.22
352.83	2668.50
353.04	2717.65
353.25	2629.59
353.46	2686.94
353.67	2897.88
353.88	2400.22
354.09	2619.35
354.30	2602.97
354.52	2799.57
354.73	2693.08
354.94	2541.53
355.15	2648.02
355.36	2955.22
355.57	2668.50
355.78	2580.44
355.99	2543.58
356.20	2697.17
356.41	2871.25
356.62	2625.50
356.83	2643.93
357.04	2965.46
357.25	2486.23
357.46	2625.50
357.68	2414.56
357.89	2590.68
358.10	2662.36
358.31	2592.73
358.52	2588.63
358.73	2580.44
358.94	2523.10
359.15	2602.97
359.36	2670.55
359.57	2719.70
359.78	2764.76
359.99	2725.85
360.20	2500.57
360.41	2754.52
360.62	2838.48
360.83	2740.18
361.04	2684.89
361.25	2775.00
361.46	2906.07
361.67	2748.37
361.88	2658.26
362.09	2815.96
362.30	2684.89
362.51	2529.24
362.72	2598.87
362.93	2793.43
363.14	2844.63
363.35	2693.08
363.56	2514.91
363.78	2869.20
363.99	2856.92
364.20	2582.49
364.41	2631.64
364.62	3037.14
364.83	2775.00
365.04	2555.86
365.25	2639.83
365.46	3030.99
365.67	2594.78
365.88	2725.85
366.09	2568.15
366.30	2715.61
366.51	2764.76
366.72	2490.33
366.93	2609.11
367.14	2670.55
367.35	2971.60
367.56	2602.97
367.77	2783.19
367.98	2709.46
368.18	2858.96
368.39	2736.09
368.60	2527.19
368.81	2826.20
369.02	2754.52
369.23	2693.08
369.44	2475.99
369.65	2723.80
369.86	2775.00
370.07	2783.19
370.28	2527.19
370.49	2777.05
370.70	2836.44
370.91	2566.10
371.12	2432.99
371.33	2852.82
371.54	2615.26
371.75	2752.47
371.96	2338.78
372.17	2775.00
372.38	2658.26
372.59	2629.59
372.80	2621.40
373.01	2713.56
373.22	2756.57
373.43	2543.58
373.64	2545.63
373.85	2873.30
374.06	2924.50
374.26	2834.39
374.47	2658.26
374.68	2934.74
374.89	2779.09
375.10	2549.72
375.31	2645.98
375.52	2676.70
375.73	2789.33
375.94	2523.10
376.15	2752.47
376.36	2621.40
376.57	2629.59
376.78	2637.78
376.99	2613.21
377.20	2949.08
377.40	2588.63
377.61	2920.40
377.82	2492.38
378.03	2914.26
378.24	2744.28
378.45	2633.69
378.66	2666.46
378.87	2527.19
379.08	2510.81
379.29	2625.50
379.50	2756.57
379.71	2760.66
379.91	2842.58
380.12	2619.35
380.33	2650.07
380.54	2744.28
380.75	2674.65
380.96	2637.78
381.17	2760.66
381.38	2668.50
381.59	2729.94
381.80	2674.65
382.00	2772.95
382.21	2711.51
382.42	3004.37
382.63	2944.98
382.84	2697.17
383.05	2811.86
383.26	2899.92
383.47	2684.89
383.68	2568.15
383.88	2754.52
384.09	2691.03
384.30	2820.05
384.51	2711.51
384.72	2633.69
384.93	2545.63
385.14	2775.00
385.35	2799.57
385.55	2506.71
385.76	2877.40
385.97	2637.78
386.18	2496.47
386.39	2615.26
386.60	2740.18
386.81	2549.72
387.02	2492.38
387.22	2572.25
387.43	2840.53
387.64	2799.57
387.85	2891.73
388.06	2834.39
388.27	3950.53
388.48	7655.31
388.68	11063.13
388.89	13602.61
389.10	14247.72
389.31	13954.86
389.52	10843.99
389.73	9426.80
389.93	8755.07
390.14	7888.78
390.35	7167.89
390.56	6332.32
390.77	5255.09
390.98	4134.85
391.18	3370.96
391.39	3123.15
391.60	2793.43
391.81	2725.85
392.02	2656.22
392.23	3080.14
392.43	2717.65
392.64	2727.89
392.85	2625.50
393.06	3004.37
393.27	2750.42
393.47	2602.97
393.68	2701.27
393.89	2772.95
394.10	2891.73
394.31	2635.74
394.52	2527.19
394.72	2645.98
394.93	2947.03
395.14	2516.95
395.35	2564.06
395.56	2621.40
395.76	2678.74
395.97	2619.35
396.18	2785.24
396.39	2768.85
396.60	3174.35
396.80	2899.92
397.01	2850.77
397.22	2885.59
397.43	2906.07
397.64	2592.73
397.84	2686.94
398.05	2940.88
398.26	2764.76
398.47	2807.77
398.67	2848.72
398.88	2709.46
399.09	2811.86
399.30	2611.16
399.51	2652.12
399.71	2564.06
399.92	2713.56
400.13	2666.46
400.34	2637.78
400.54	2664.41
400.75	2932.69
400.96	2678.74
401.17	2934.74
401.37	2842.58
401.58	2664.41
401.79	2639.83
402.00	2809.81
402.21	3069.91
402.41	2953.17
402.62	2893.78
402.83	3014.61
403.04	3160.02
403.24	3299.28
403.45	2762.71
403.66	2887.64
403.87	2871.25
404.07	3026.90
404.28	2916.31
404.49	2912.21
404.70	2772.95
404.90	2711.51
405.11	2670.55
405.32	2695.13
405.52	2668.50
405.73	2613.21
405.94	2541.53
406.15	2678.74
406.35	2850.77
406.56	2805.72
406.77	2629.59
406.98	2605.02
407.18	2613.21
407.39	2916.31
407.60	2609.11
407.80	2672.60
408.01	2582.49
408.22	2744.28
408.43	2529.24
408.63	2697.17
408.84	2781.14
409.05	2879.44
409.25	2662.36
409.46	2572.25
409.67	2723.80
409.88	2609.11
410.08	2645.98
410.29	2701.27
410.50	2826.20
410.70	2842.58
410.91	2605.02
411.12	2684.89
411.32	2662.36
411.53	2584.54
411.74	2738.13
411.95	2711.51
412.15	2736.09
412.36	2846.68
412.57	2770.90
412.77	2891.73
412.98	2676.70
413.19	2617.30
413.39	2633.69
413.60	2703.32
413.81	2916.31
414.01	2611.16
414.22	2682.84
414.43	2846.68
414.63	2736.09
414.84	2863.06
415.05	2662.36
415.25	2557.91
415.46	2805.72
415.67	2619.35
415.87	2693.08
416.08	2648.02
416.29	2713.56
416.49	2795.48
416.70	2562.01
416.91	2670.55
417.11	2664.41
417.32	2881.49
417.53	2752.47
417.73	2711.51
417.94	2744.28
418.15	2752.47
418.35	2680.79
418.56	2643.93
418.77	3080.14
418.97	2777.05
419.18	2666.46
419.38	2410.46
419.59	2703.32
419.80	2887.64
420.00	2588.63
420.21	2688.98
420.42	2934.74
420.62	2754.52
420.83	2629.59
421.04	2584.54
421.24	2709.46
421.45	2824.15
421.65	2744.28
421.86	2615.26
422.07	2850.77
422.27	2813.91
422.48	2635.74
422.69	2510.81
422.89	2676.70
423.10	2713.56
423.30	2596.82
423.51	2719.70
423.72	2813.91
423.92	2803.67
424.13	2529.24
424.33	2703.32
424.54	2850.77
424.75	2715.61
424.95	2846.68
425.16	2627.54
425.36	2709.46
425.57	2861.01
425.78	2793.43
425.98	2719.70
426.19	2711.51
426.39	2641.88
426.60	2686.94
426.81	2772.95
427.01	2758.61
427.22	2662.36
427.42	2500.57
427.63	2521.05
427.83	2801.62
428.04	2951.12
428.25	2766.81
428.45	2775.00
428.66	2875.35
428.86	2605.02
429.07	2676.70
429.28	2658.26
429.48	2637.78
429.69	2664.41
429.89	2674.65
430.10	2453.47
430.30	2858.96
430.51	2912.21
430.71	2582.49
430.92	2693.08
431.13	2625.50
431.33	2883.54
431.54	2695.13
431.74	2795.48
431.95	3069.91
432.15	2510.81
432.36	2566.10
432.56	2750.42
432.77	3010.51
432.98	2998.23
433.18	2682.84
433.39	2519.00
433.59	2785.24
433.80	3016.66
434.00	2861.01
434.21	2596.82
434.41	2592.73
434.62	3006.42
434.82	2519.00
435.03	2572.25
435.23	2742.23
435.44	2504.67
435.64	2631.64
435.85	2723.80
436.06	2924.50
436.26	2944.98
436.47	2666.46
436.67	2625.50
436.88	2727.89
437.08	2824.15
437.29	2820.05
437.49	2752.47
437.70	2881.49
437.90	2658.26
438.11	2801.62
438.31	2715.61
438.52	2930.64
438.72	2916.31
438.93	2922.45
439.13	2707.41
439.34	2875.35
439.54	2643.93
439.75	2762.71
439.95	2719.70
440.16	2652.12
440.36	2752.47
440.57	2670.55
440.77	2635.74
440.98	2824.15
441.18	2795.48
441.39	2613.21
441.59	2594.78
441.80	3018.71
442.00	2650.07
442.21	2785.24
442.41	2537.43
442.62	2787.29
442.82	2625.50
443.02	2650.07
443.23	2662.36
443.43	2705.37
443.64	2850.77
443.84	2562.01
444.05	2838.48
444.25	2639.83
444.46	2688.98
444.66	2674.65
444.87	2873.30
445.07	2539.48
445.28	2727.89
445.48	2881.49
445.69	2721.75
445.89	3114.96
446.09	2711.51
446.30	2867.16
446.50	3176.40
446.71	4566.97
446.91	5738.41
447.12	6471.58
447.32	6840.22
447.53	6545.31
447.73	5429.17
447.93	4863.93
448.14	4591.55
448.34	4505.53
448.55	3909.57
448.75	3839.94
448.96	3680.20
449.16	3491.79
449.36	3219.41
449.57	2822.10
449.77	2693.08
449.98	2752.47
450.18	2777.05
450.39	2727.89
450.59	2779.09
450.79	2736.09
451.00	2662.36
451.20	2820.05
451.41	2613.21
451.61	2779.09
451.81	2691.03
452.02	2643.93
452.22	2594.78
452.43	2684.89
452.63	2607.06
