SpectraSuite Data File
++++++++++++++++++++++++++++++++++++
Date: Wed May 04 21:13:32 CEST 2016
User: root
Dark Spectrum Present: No
Reference Spectrum Present: No
Number of Sampled Component Spectra: 1
Spectrometers: USB4C02835
Integration Time (usec): 100000 (USB4C02835)
Spectra Averaged: 1 (USB4C02835)
Boxcar Smoothing: 0 (USB4C02835)
Correct for Electrical Dark: No (USB4C02835)
Strobe/Lamp Enabled: No (USB4C02835)
Correct for Detector Non-linearity: No (USB4C02835)
Correct for Stray Light: No (USB4C02835)
Number of Pixels in Processed Spectrum: 3648
>>>>>Begin Processed Spectral Data<<<<<
177.47	1619.94
177.69	1619.94
177.91	1619.94
178.13	1570.79
178.36	1546.22
178.58	1732.58
178.80	1853.41
179.02	1681.38
179.24	1812.45
179.46	1845.22
179.68	1822.69
179.90	1781.73
180.13	1808.36
180.35	1759.21
180.57	1798.12
180.79	1812.45
181.01	1888.23
181.23	1837.03
181.45	1910.75
181.67	1841.12
181.90	1906.66
182.12	1751.01
182.34	1665.00
182.56	1873.89
182.78	1814.50
183.00	1853.41
183.22	1742.82
183.44	1658.85
183.66	1992.67
183.89	1814.50
184.11	1810.40
184.33	1816.55
184.55	1882.08
184.77	1800.16
184.99	1859.56
185.21	1812.45
185.43	1920.99
185.65	1806.31
185.87	1808.36
186.10	1986.53
186.32	1984.48
186.54	1746.92
186.76	1808.36
186.98	1843.17
187.20	1824.74
187.42	1742.82
187.64	1830.88
187.86	1802.21
188.08	1839.08
188.30	1794.02
188.52	1779.68
188.75	1839.08
188.97	1845.22
189.19	1730.53
189.41	1794.02
189.63	1783.78
189.85	1740.77
190.07	1736.68
190.29	1722.34
190.51	1820.64
190.73	1697.77
190.95	1900.52
191.17	1847.27
191.39	1728.49
191.61	1789.92
191.84	1722.34
192.06	1882.08
192.28	1765.35
192.50	1957.86
192.72	1884.13
192.94	1732.58
193.16	1898.47
193.38	1875.94
193.60	1812.45
193.82	1834.98
194.04	1906.66
194.26	1814.50
194.48	1837.03
194.70	1710.05
194.92	1769.44
195.14	1837.03
195.36	1820.64
195.58	1796.07
195.80	1808.36
196.02	1742.82
196.24	1798.12
196.46	1806.31
196.69	1751.01
196.91	1939.43
197.13	1753.06
197.35	1781.73
197.57	1863.65
197.79	1796.07
198.01	1777.64
198.23	1781.73
198.45	1853.41
198.67	1761.25
198.89	1767.40
199.11	1834.98
199.33	1714.15
199.55	1759.21
199.77	1796.07
199.99	1814.50
200.21	1753.06
200.43	1798.12
200.65	1683.43
200.87	1689.57
201.09	1765.35
201.31	1824.74
201.53	1804.26
201.75	1839.08
201.97	1859.56
202.19	1789.92
202.41	1871.84
202.63	1959.91
202.85	1832.93
203.07	1830.88
203.29	1783.78
203.51	1748.97
203.73	1738.73
203.95	1976.29
204.17	1853.41
204.39	1816.55
204.61	1865.70
204.83	1732.58
205.05	1845.22
205.27	1826.79
205.49	1935.33
205.71	1867.75
205.93	1640.42
206.15	1759.21
206.37	1841.12
206.59	1890.28
206.81	1806.31
207.03	1746.92
207.25	1734.63
207.47	1906.66
207.69	1851.36
207.91	1970.15
208.13	1906.66
208.34	1808.36
208.56	1830.88
208.78	1863.65
209.00	1720.29
209.22	1773.54
209.44	1839.08
209.66	1722.34
209.88	1882.08
210.10	1771.49
210.32	1798.12
210.54	1849.32
210.76	1783.78
210.98	1759.21
211.20	1624.04
211.42	1814.50
211.64	1910.75
211.86	1828.84
212.08	1849.32
212.30	1808.36
212.52	1767.40
212.74	1822.69
212.96	1714.15
213.17	1912.80
213.39	1914.85
213.61	1882.08
213.83	1796.07
214.05	1816.55
214.27	1886.18
214.49	1767.40
214.71	1755.11
214.93	1920.99
215.15	1787.88
215.37	1837.03
215.59	1726.44
215.81	1839.08
216.03	1880.04
216.24	1869.80
216.46	1800.16
216.68	1804.26
216.90	1791.97
217.12	1906.66
217.34	1847.27
217.56	1814.50
217.78	1898.47
218.00	1834.98
218.22	1753.06
218.44	1830.88
218.66	1888.23
218.87	1953.76
219.09	1806.31
219.31	1834.98
219.53	1871.84
219.75	1763.30
219.97	1775.59
220.19	1789.92
220.41	1716.20
220.63	1937.38
220.85	1716.20
221.06	1746.92
221.28	1871.84
221.50	1880.04
221.72	1822.69
221.94	1753.06
222.16	1789.92
222.38	1884.13
222.60	1865.70
222.82	1783.78
223.03	1755.11
223.25	1714.15
223.47	1857.51
223.69	1927.14
223.91	1970.15
224.13	1849.32
224.35	1718.25
224.57	1880.04
224.78	1837.03
225.00	1800.16
225.22	1810.40
225.44	1804.26
225.66	1882.08
225.88	1826.79
226.10	1851.36
226.32	1880.04
226.53	1968.10
226.75	1830.88
226.97	1777.64
227.19	1847.27
227.41	1755.11
227.63	1738.73
227.85	1695.72
228.06	1837.03
228.28	1839.08
228.50	1931.23
228.72	1751.01
228.94	1820.64
229.16	1689.57
229.37	1724.39
229.59	1808.36
229.81	1902.56
230.03	1861.60
230.25	1757.16
230.47	1734.63
230.69	1724.39
230.90	1845.22
231.12	1771.49
231.34	1818.60
231.56	1894.37
231.78	1708.01
232.00	1810.40
232.21	1783.78
232.43	1708.01
232.65	1710.05
232.87	1783.78
233.09	1767.40
233.30	1759.21
233.52	1845.22
233.74	1800.16
233.96	1861.60
234.18	1818.60
234.40	1804.26
234.61	1923.04
234.83	1751.01
235.05	1738.73
235.27	1951.71
235.49	1927.14
235.70	1884.13
235.92	1867.75
236.14	1843.17
236.36	1814.50
236.58	1699.81
236.79	1783.78
237.01	1798.12
237.23	1818.60
237.45	1939.43
237.67	1783.78
237.88	1832.93
238.10	1937.38
238.32	1773.54
238.54	1718.25
238.76	1810.40
238.97	1722.34
239.19	1894.37
239.41	1804.26
239.63	1871.84
239.85	1822.69
240.06	1810.40
240.28	1867.75
240.50	1816.55
240.72	1820.64
240.93	1687.53
241.15	1902.56
241.37	1798.12
241.59	1869.80
241.81	1800.16
242.02	1837.03
242.24	1875.94
242.46	1865.70
242.68	1734.63
242.89	1861.60
243.11	1859.56
243.33	1804.26
243.55	1810.40
243.76	1837.03
243.98	1837.03
244.20	1880.04
244.42	1734.63
244.64	1877.99
244.85	1718.25
245.07	1816.55
245.29	1871.84
245.51	1800.16
245.72	1822.69
245.94	1904.61
246.16	1779.68
246.38	1861.60
246.59	1705.96
246.81	1794.02
247.03	1783.78
247.24	1679.33
247.46	1742.82
247.68	1875.94
247.90	1712.10
248.11	1802.21
248.33	1880.04
248.55	1751.01
248.77	1804.26
248.98	1861.60
249.20	1855.46
249.42	1791.97
249.64	1832.93
249.85	1816.55
250.07	1824.74
250.29	1865.70
250.50	1818.60
250.72	1736.68
250.94	1855.46
251.16	1949.67
251.37	1845.22
251.59	1865.70
251.81	1925.09
252.02	1894.37
252.24	1847.27
252.46	1937.38
252.68	1867.75
252.89	1828.84
253.11	1652.71
253.33	1871.84
253.54	1812.45
253.76	1738.73
253.98	1767.40
254.20	1834.98
254.41	1732.58
254.63	1841.12
254.85	1726.44
255.06	1769.44
255.28	1839.08
255.50	1775.59
255.71	1714.15
255.93	1734.63
256.15	1775.59
256.36	1816.55
256.58	1779.68
256.80	1843.17
257.02	1802.21
257.23	1791.97
257.45	1789.92
257.67	1814.50
257.88	1763.30
258.10	1886.18
258.32	1787.88
258.53	1812.45
258.75	1873.89
258.97	1794.02
259.18	1812.45
259.40	1865.70
259.62	1935.33
259.83	1808.36
260.05	1820.64
260.27	1992.67
260.48	1890.28
260.70	1765.35
260.92	1767.40
261.13	1820.64
261.35	1816.55
261.57	1849.32
261.78	1712.10
262.00	1779.68
262.22	1843.17
262.43	1767.40
262.65	1744.87
262.86	1755.11
263.08	1904.61
263.30	1890.28
263.51	1763.30
263.73	1734.63
263.95	1820.64
264.16	1785.83
264.38	1837.03
264.60	1837.03
264.81	1781.73
265.03	1867.75
265.25	1853.41
265.46	1804.26
265.68	1884.13
265.89	1814.50
266.11	1742.82
266.33	1849.32
266.54	1849.32
266.76	1800.16
266.98	1875.94
267.19	1886.18
267.41	1869.80
267.62	1771.49
267.84	1687.53
268.06	1863.65
268.27	1900.52
268.49	1902.56
268.70	1867.75
268.92	1824.74
269.14	1755.11
269.35	1718.25
269.57	1742.82
269.79	1904.61
270.00	1767.40
270.22	1882.08
270.43	1718.25
270.65	1720.29
270.87	1896.42
271.08	1896.42
271.30	1855.46
271.51	1804.26
271.73	1906.66
271.95	1802.21
272.16	1736.68
272.38	1853.41
272.59	1726.44
272.81	1785.83
273.02	1843.17
273.24	1777.64
273.46	1910.75
273.67	1744.87
273.89	1767.40
274.10	1734.63
274.32	1810.40
274.54	1812.45
274.75	1824.74
274.97	1830.88
275.18	1884.13
275.40	1759.21
275.61	1810.40
275.83	1806.31
276.05	1736.68
276.26	1765.35
276.48	1802.21
276.69	1837.03
276.91	1755.11
277.12	1877.99
277.34	1826.79
277.55	1832.93
277.77	1855.46
277.99	1759.21
278.20	1779.68
278.42	1714.15
278.63	1755.11
278.85	1714.15
279.06	1673.19
279.28	1855.46
279.49	1828.84
279.71	1824.74
279.93	1861.60
280.14	1855.46
280.36	1820.64
280.57	1900.52
280.79	1781.73
281.00	1759.21
281.22	1767.40
281.43	1916.90
281.65	1710.05
281.86	1761.25
282.08	1798.12
282.29	1904.61
282.51	1751.01
282.73	1681.38
282.94	1822.69
283.16	1900.52
283.37	1882.08
283.59	1818.60
283.80	1857.51
284.02	1732.58
284.23	1824.74
284.45	1789.92
284.66	1722.34
284.88	1689.57
285.09	1867.75
285.31	1923.04
285.52	1775.59
285.74	1705.96
285.95	1869.80
286.17	1773.54
286.38	1867.75
286.60	1775.59
286.81	1740.77
287.03	1740.77
287.24	1734.63
287.46	1898.47
287.67	1783.78
287.89	1943.52
288.10	1773.54
288.32	1882.08
288.53	1974.24
288.75	1882.08
288.96	1880.04
289.18	1724.39
289.39	1742.82
289.61	1837.03
289.82	1914.85
290.04	1988.58
290.25	1730.53
290.47	1839.08
290.68	1824.74
290.90	1957.86
291.11	1667.05
291.33	1851.36
291.54	1705.96
291.76	1826.79
291.97	1865.70
292.18	1849.32
292.40	1705.96
292.61	1761.25
292.83	1957.86
293.04	1828.84
293.26	1871.84
293.47	1781.73
293.69	1777.64
293.90	1806.31
294.12	1845.22
294.33	1880.04
294.55	1834.98
294.76	1837.03
294.97	1927.14
295.19	1951.71
295.40	1734.63
295.62	1964.00
295.83	1886.18
296.05	1818.60
296.26	1863.65
296.48	1716.20
296.69	1804.26
296.90	1820.64
297.12	1894.37
297.33	1847.27
297.55	1808.36
297.76	1763.30
297.98	1880.04
298.19	1863.65
298.41	1757.16
298.62	1779.68
298.83	1920.99
299.05	1804.26
299.26	1824.74
299.48	1796.07
299.69	1861.60
299.90	1816.55
300.12	1789.92
300.33	1820.64
300.55	1802.21
300.76	1882.08
300.98	1761.25
301.19	1865.70
301.40	1804.26
301.62	1871.84
301.83	1859.56
302.05	1718.25
302.26	1722.34
302.47	1767.40
302.69	1853.41
302.90	1785.83
303.12	1740.77
303.33	1908.71
303.54	2025.44
303.76	1775.59
303.97	1859.56
304.19	1871.84
304.40	1746.92
304.61	1785.83
304.83	1935.33
305.04	1851.36
305.26	1818.60
305.47	1818.60
305.68	1718.25
305.90	1740.77
306.11	1865.70
306.33	1826.79
306.54	1773.54
306.75	1718.25
306.97	1732.58
307.18	1828.84
307.39	1800.16
307.61	1804.26
307.82	1857.51
308.04	1806.31
308.25	1767.40
308.46	1873.89
308.68	1843.17
308.89	1773.54
309.10	1845.22
309.32	1828.84
309.53	1847.27
309.74	1837.03
309.96	1892.32
310.17	1796.07
310.39	1736.68
310.60	1837.03
310.81	1796.07
311.03	1703.91
311.24	1910.75
311.45	1783.78
311.67	1906.66
311.88	1871.84
312.09	1753.06
312.31	1849.32
312.52	1736.68
312.73	1832.93
312.95	1703.91
313.16	1677.29
313.37	1810.40
313.59	1853.41
313.80	1847.27
314.01	1898.47
314.23	1785.83
314.44	1697.77
314.65	1759.21
314.87	1708.01
315.08	1808.36
315.29	1777.64
315.51	1806.31
315.72	1759.21
315.93	1916.90
316.15	1904.61
316.36	1677.29
316.57	1779.68
316.79	1800.16
317.00	1808.36
317.21	1880.04
317.43	1759.21
317.64	1816.55
317.85	1744.87
318.07	1828.84
318.28	1877.99
318.49	1980.39
318.70	2117.60
318.92	2029.54
319.13	2105.31
319.34	2080.74
319.56	1923.04
319.77	1986.53
319.98	1945.57
320.20	1918.95
320.41	1898.47
320.62	1806.31
320.83	1748.97
321.05	1986.53
321.26	1853.41
321.47	1759.21
321.69	1906.66
321.90	1693.67
322.11	1757.16
322.32	1880.04
322.54	1818.60
322.75	1800.16
322.96	1978.34
323.18	1718.25
323.39	1689.57
323.60	1728.49
323.81	1861.60
324.03	1869.80
324.24	1791.97
324.45	1863.65
324.66	1753.06
324.88	1867.75
325.09	1855.46
325.30	1791.97
325.52	1796.07
325.73	1837.03
325.94	1769.44
326.15	1728.49
326.37	1824.74
326.58	1953.76
326.79	1832.93
327.00	1773.54
327.22	1853.41
327.43	1810.40
327.64	1808.36
327.85	1837.03
328.07	1800.16
328.28	1906.66
328.49	1808.36
328.70	1892.32
328.92	1789.92
329.13	1837.03
329.34	1834.98
329.55	1918.95
329.76	1892.32
329.98	1789.92
330.19	1830.88
330.40	1742.82
330.61	1855.46
330.83	1777.64
331.04	1703.91
331.25	1816.55
331.46	1834.98
331.68	1791.97
331.89	1894.37
332.10	1736.68
332.31	1746.92
332.52	1765.35
332.74	1884.13
332.95	1718.25
333.16	1755.11
333.37	1812.45
333.58	1757.16
333.80	1834.98
334.01	1746.92
334.22	1841.12
334.43	1779.68
334.64	1845.22
334.86	1748.97
335.07	1777.64
335.28	1937.38
335.49	1701.86
335.70	1849.32
335.92	1880.04
336.13	1953.76
336.34	1888.23
336.55	1783.78
336.76	1808.36
336.98	1650.66
337.19	1746.92
337.40	1828.84
337.61	2050.02
337.82	1814.50
338.04	1832.93
338.25	1675.24
338.46	1763.30
338.67	1705.96
338.88	1753.06
339.09	1773.54
339.31	1763.30
339.52	1683.43
339.73	1757.16
339.94	1818.60
340.15	1882.08
340.36	1748.97
340.58	1865.70
340.79	1812.45
341.00	1824.74
341.21	1718.25
341.42	1914.85
341.63	1740.77
341.85	1902.56
342.06	1802.21
342.27	1722.34
342.48	1783.78
342.69	1753.06
342.90	1820.64
343.12	1867.75
343.33	1796.07
343.54	1918.95
343.75	1863.65
343.96	1769.44
344.17	1796.07
344.38	1804.26
344.60	1740.77
344.81	1693.67
345.02	1822.69
345.23	1888.23
345.44	1961.95
345.65	1908.71
345.86	1832.93
346.07	1802.21
346.29	1832.93
346.50	1816.55
346.71	1892.32
346.92	1828.84
347.13	1984.48
347.34	1818.60
347.55	1806.31
347.76	1740.77
347.98	1695.72
348.19	1798.12
348.40	1834.98
348.61	1849.32
348.82	1873.89
349.03	1869.80
349.24	1753.06
349.45	2027.49
349.66	1714.15
349.88	1824.74
350.09	1755.11
350.30	1931.23
350.51	1902.56
350.72	1816.55
350.93	1867.75
351.14	1773.54
351.35	1796.07
351.56	1822.69
351.77	1806.31
351.99	1853.41
352.20	1949.67
352.41	1873.89
352.62	1777.64
352.83	1814.50
353.04	1761.25
353.25	1746.92
353.46	1914.85
353.67	1910.75
353.88	1796.07
354.09	1802.21
354.30	1771.49
354.52	1796.07
354.73	1806.31
354.94	1826.79
355.15	1775.59
355.36	1951.71
355.57	1744.87
355.78	1773.54
355.99	1755.11
356.20	1820.64
356.41	1886.18
356.62	1851.36
356.83	1849.32
357.04	1839.08
357.25	1738.73
357.46	1808.36
357.68	1619.94
357.89	1687.53
358.10	1740.77
358.31	1753.06
358.52	1796.07
358.73	1724.39
358.94	1791.97
359.15	1689.57
359.36	1933.28
359.57	1777.64
359.78	1777.64
359.99	1830.88
360.20	1773.54
360.41	1763.30
360.62	1787.88
360.83	1761.25
361.04	1855.46
361.25	1882.08
361.46	1929.19
361.67	1884.13
361.88	1892.32
362.09	1841.12
362.30	1918.95
362.51	1802.21
362.72	1804.26
362.93	1892.32
363.14	1837.03
363.35	1773.54
363.56	1806.31
363.78	1832.93
363.99	1861.60
364.20	1728.49
364.41	1847.27
364.62	1890.28
364.83	1892.32
365.04	1791.97
365.25	1796.07
365.46	1951.71
365.67	1775.59
365.88	1794.02
366.09	1787.88
366.30	1763.30
366.51	1837.03
366.72	1689.57
366.93	1796.07
367.14	1791.97
367.35	1875.94
367.56	1837.03
367.77	1947.62
367.98	1826.79
368.18	1834.98
368.39	1851.36
368.60	1810.40
368.81	1871.84
369.02	1845.22
369.23	1777.64
369.44	1732.58
369.65	1794.02
369.86	1906.66
370.07	1880.04
370.28	1775.59
370.49	1820.64
370.70	1875.94
370.91	1724.39
371.12	1763.30
371.33	1904.61
371.54	1787.88
371.75	1880.04
371.96	1699.81
372.17	1873.89
372.38	1834.98
372.59	1859.56
372.80	1843.17
373.01	1804.26
373.22	1806.31
373.43	1814.50
373.64	1734.63
373.85	1841.12
374.06	1935.33
374.26	1894.37
374.47	1824.74
374.68	1841.12
374.89	1824.74
375.10	1828.84
375.31	1830.88
375.52	1820.64
375.73	1730.53
375.94	1761.25
376.15	1994.72
376.36	1773.54
376.57	1724.39
376.78	1691.62
376.99	1845.22
377.20	1820.64
377.40	1837.03
377.61	1902.56
377.82	1841.12
378.03	1908.71
378.24	1877.99
378.45	1875.94
378.66	1861.60
378.87	1714.15
379.08	1730.53
379.29	1775.59
379.50	1937.38
379.71	1830.88
379.91	1847.27
380.12	1810.40
380.33	1806.31
380.54	1769.44
380.75	1828.84
380.96	1769.44
381.17	1834.98
381.38	1763.30
381.59	1933.28
381.80	1812.45
382.00	1943.52
382.21	1800.16
382.42	1943.52
382.63	1951.71
382.84	1904.61
383.05	1839.08
383.26	1933.28
383.47	1853.41
383.68	1808.36
383.88	1820.64
384.09	1871.84
384.30	2023.39
384.51	1806.31
384.72	1841.12
384.93	1701.86
385.14	1814.50
385.35	1816.55
385.55	1828.84
385.76	1935.33
385.97	1783.78
386.18	1839.08
386.39	1800.16
386.60	1826.79
386.81	1822.69
387.02	1796.07
387.22	1757.16
387.43	1933.28
387.64	1931.23
387.85	1925.09
388.06	2176.99
388.27	4173.76
388.48	8839.03
388.68	11847.50
388.89	13889.32
389.10	14749.47
389.31	13240.12
389.52	10291.04
389.73	9015.16
389.93	8365.95
390.14	7454.61
390.35	6946.71
390.56	6057.89
390.77	5050.29
390.98	4001.73
391.18	3051.47
391.39	2492.38
391.60	2082.78
391.81	2004.96
392.02	1800.16
392.23	2111.46
392.43	1902.56
392.64	1949.67
392.85	1834.98
393.06	1927.14
393.27	1851.36
393.47	1771.49
393.68	1705.96
393.89	1808.36
394.10	1941.47
394.31	1777.64
394.52	1746.92
394.72	1796.07
394.93	1931.23
395.14	1753.06
395.35	1783.78
395.56	1708.01
395.76	1816.55
395.97	1880.04
396.18	1902.56
396.39	1988.58
396.60	2248.67
396.80	2127.84
397.01	1978.34
397.22	2004.96
397.43	2025.44
397.64	1853.41
397.84	1888.23
398.05	2011.11
398.26	1920.99
398.47	2019.30
398.67	1843.17
398.88	1855.46
399.09	1830.88
399.30	1751.01
399.51	1857.51
399.71	1810.40
399.92	1806.31
400.13	1816.55
400.34	1796.07
400.54	1884.13
400.75	1908.71
400.96	1847.27
401.17	1968.10
401.37	1900.52
401.58	1818.60
401.79	1775.59
402.00	1955.81
402.21	2263.01
402.41	2201.57
402.62	2226.14
402.83	2258.91
403.04	2297.82
403.24	2263.01
403.45	1994.72
403.66	2113.50
403.87	1996.77
404.07	2011.11
404.28	2052.06
404.49	2054.11
404.70	1949.67
404.90	1976.29
405.11	1837.03
405.32	1888.23
405.52	1800.16
405.73	1738.73
405.94	1863.65
406.15	1732.58
406.35	1814.50
406.56	1853.41
406.77	1800.16
406.98	1875.94
407.18	1767.40
407.39	1908.71
407.60	1800.16
407.80	1882.08
408.01	1818.60
408.22	1804.26
408.43	1738.73
408.63	1882.08
408.84	1884.13
409.05	1841.12
409.25	1742.82
409.46	1769.44
409.67	1753.06
409.88	1779.68
410.08	1865.70
410.29	1818.60
410.50	1841.12
410.70	1845.22
410.91	1753.06
411.12	1877.99
411.32	1798.12
411.53	1808.36
411.74	1888.23
411.95	1957.86
412.15	1863.65
412.36	1961.95
412.57	1834.98
412.77	1982.43
412.98	1873.89
413.19	1800.16
413.39	1837.03
413.60	1857.51
413.81	1957.86
414.01	1781.73
414.22	1892.32
414.43	1939.43
414.63	1851.36
414.84	1877.99
415.05	1794.02
415.25	1732.58
415.46	1859.56
415.67	1746.92
415.87	1863.65
416.08	1855.46
416.29	1779.68
416.49	1818.60
416.70	1787.88
416.91	1839.08
417.11	1767.40
417.32	1966.05
417.53	1863.65
417.73	1794.02
417.94	1808.36
418.15	1841.12
418.35	1853.41
418.56	1800.16
418.77	1984.48
418.97	1847.27
419.18	1787.88
419.38	1644.52
419.59	1843.17
419.80	1834.98
420.00	1722.34
420.21	1871.84
420.42	1873.89
420.62	1769.44
420.83	1834.98
421.04	1798.12
421.24	1800.16
421.45	1882.08
421.65	1869.80
421.86	1767.40
422.07	1779.68
422.27	1910.75
422.48	1847.27
422.69	1722.34
422.89	1781.73
423.10	1810.40
423.30	1820.64
423.51	1853.41
423.72	1933.28
423.92	1853.41
424.13	1744.87
424.33	1806.31
424.54	1865.70
424.75	1822.69
424.95	1949.67
425.16	1914.85
425.36	1798.12
425.57	1875.94
425.78	1783.78
425.98	1908.71
426.19	1826.79
426.39	1742.82
426.60	1837.03
426.81	1943.52
427.01	1859.56
427.22	1779.68
427.42	1710.05
427.63	1796.07
427.83	1904.61
428.04	1851.36
428.25	1910.75
428.45	1910.75
428.66	1826.79
428.86	1798.12
429.07	1765.35
429.28	1789.92
429.48	1787.88
429.69	1681.38
429.89	1933.28
430.10	1767.40
430.30	1828.84
430.51	1966.05
430.71	1822.69
430.92	1769.44
431.13	1771.49
431.33	1849.32
431.54	1890.28
431.74	1933.28
431.95	2041.82
432.15	1746.92
432.36	1779.68
432.56	1892.32
432.77	1976.29
432.98	1947.62
433.18	1865.70
433.39	1796.07
433.59	1779.68
433.80	1902.56
434.00	1970.15
434.21	1753.06
434.41	1820.64
434.62	1908.71
434.82	1787.88
435.03	1779.68
435.23	1828.84
435.44	1716.20
435.64	1806.31
435.85	1910.75
436.06	1902.56
436.26	1794.02
436.47	1841.12
436.67	1767.40
436.88	1826.79
437.08	1861.60
437.29	1886.18
437.49	1794.02
437.70	1810.40
437.90	1837.03
438.11	1916.90
438.31	1937.38
438.52	1953.76
438.72	2013.15
438.93	2029.54
439.13	1892.32
439.34	1953.76
439.54	1945.57
439.75	1890.28
439.95	1814.50
440.16	1808.36
440.36	1859.56
440.57	1986.53
440.77	1896.42
440.98	1812.45
441.18	1900.52
441.39	1810.40
441.59	1738.73
441.80	1931.23
442.00	1839.08
442.21	1974.24
442.41	1800.16
442.62	1837.03
442.82	1808.36
443.02	1859.56
443.23	1785.83
443.43	1834.98
443.64	1978.34
443.84	1767.40
444.05	1955.81
444.25	1908.71
444.46	1853.41
444.66	1871.84
444.87	1931.23
445.07	1753.06
445.28	1853.41
445.48	1961.95
445.69	1871.84
445.89	2004.96
446.09	1855.46
446.30	2084.83
446.50	2555.86
446.71	4120.51
446.91	5257.14
447.12	6078.37
447.32	6213.54
447.53	5744.55
447.73	4689.85
447.93	4280.25
448.14	3915.72
448.34	3735.50
448.55	3162.06
448.75	3194.83
448.96	2977.75
449.16	2789.33
449.36	2430.94
449.57	2213.85
449.77	2062.30
449.98	1908.71
450.18	1884.13
450.39	1937.38
450.59	1845.22
450.79	1880.04
451.00	1808.36
451.20	1820.64
451.41	1755.11
451.61	1873.89
451.81	1865.70
452.02	1808.36
452.22	1765.35
452.43	1773.54
452.63	1804.26
