SpectraSuite Data File
++++++++++++++++++++++++++++++++++++
Date: Wed May 04 21:13:20 CEST 2016
User: root
Dark Spectrum Present: No
Reference Spectrum Present: No
Number of Sampled Component Spectra: 1
Spectrometers: USB4C02835
Integration Time (usec): 100000 (USB4C02835)
Spectra Averaged: 1 (USB4C02835)
Boxcar Smoothing: 0 (USB4C02835)
Correct for Electrical Dark: No (USB4C02835)
Strobe/Lamp Enabled: No (USB4C02835)
Correct for Detector Non-linearity: No (USB4C02835)
Correct for Stray Light: No (USB4C02835)
Number of Pixels in Processed Spectrum: 3648
>>>>>Begin Processed Spectral Data<<<<<
177.47	1525.74
177.69	1525.74
177.91	1525.74
178.13	1546.22
178.36	1497.07
178.58	1744.87
178.80	1746.92
179.02	1728.49
179.24	1685.48
179.46	1841.12
179.68	1871.84
179.90	1757.16
180.13	1877.99
180.35	1865.70
180.57	1779.68
180.79	1869.80
181.01	1847.27
181.23	1882.08
181.45	1904.61
181.67	1857.51
181.90	1853.41
182.12	1785.83
182.34	1724.39
182.56	1824.74
182.78	1767.40
183.00	1726.44
183.22	1845.22
183.44	1656.81
183.66	1972.19
183.89	1851.36
184.11	1834.98
184.33	1828.84
184.55	1914.85
184.77	1779.68
184.99	1834.98
185.21	1787.88
185.43	1984.48
185.65	1718.25
185.87	1877.99
186.10	1947.62
186.32	1937.38
186.54	1794.02
186.76	1839.08
186.98	1877.99
187.20	1800.16
187.42	1820.64
187.64	1791.97
187.86	1839.08
188.08	1871.84
188.30	1810.40
188.52	1789.92
188.75	1812.45
188.97	1935.33
189.19	1859.56
189.41	1806.31
189.63	1853.41
189.85	1779.68
190.07	1726.44
190.29	1671.14
190.51	1851.36
190.73	1685.48
190.95	1849.32
191.17	1812.45
191.39	1734.63
191.61	1900.52
191.84	1798.12
192.06	1828.84
192.28	1761.25
192.50	2017.25
192.72	1855.46
192.94	1796.07
193.16	1791.97
193.38	1800.16
193.60	1712.10
193.82	1830.88
194.04	1935.33
194.26	1800.16
194.48	1781.73
194.70	1779.68
194.92	1755.11
195.14	1882.08
195.36	1763.30
195.58	1884.13
195.80	1849.32
196.02	1841.12
196.24	1798.12
196.46	1828.84
196.69	1800.16
196.91	2004.96
197.13	1763.30
197.35	1734.63
197.57	1949.67
197.79	1783.78
198.01	1806.31
198.23	1867.75
198.45	1888.23
198.67	1677.29
198.89	1748.97
199.11	1853.41
199.33	1800.16
199.55	1656.81
199.77	1763.30
199.99	1968.10
200.21	1800.16
200.43	1802.21
200.65	1708.01
200.87	1648.61
201.09	1824.74
201.31	1800.16
201.53	1908.71
201.75	1863.65
201.97	1802.21
202.19	1769.44
202.41	1843.17
202.63	1904.61
202.85	1818.60
203.07	1849.32
203.29	1718.25
203.51	1751.01
203.73	1644.52
203.95	2052.06
204.17	1851.36
204.39	1789.92
204.61	1767.40
204.83	1779.68
205.05	1769.44
205.27	1839.08
205.49	1988.58
205.71	1730.53
205.93	1724.39
206.15	1794.02
206.37	1734.63
206.59	1855.46
206.81	1701.86
207.03	1755.11
207.25	1822.69
207.47	1841.12
207.69	1783.78
207.91	1935.33
208.13	1880.04
208.34	1767.40
208.56	1732.58
208.78	1822.69
209.00	1830.88
209.22	1837.03
209.44	1748.97
209.66	1738.73
209.88	1777.64
210.10	1798.12
210.32	1800.16
210.54	1947.62
210.76	1808.36
210.98	1826.79
211.20	1728.49
211.42	1830.88
211.64	1877.99
211.86	1857.51
212.08	1841.12
212.30	1779.68
212.52	1755.11
212.74	1906.66
212.96	1779.68
213.17	1863.65
213.39	1843.17
213.61	1918.95
213.83	1796.07
214.05	1796.07
214.27	1912.80
214.49	1740.77
214.71	1689.57
214.93	1871.84
215.15	1816.55
215.37	1791.97
215.59	1681.38
215.81	1843.17
216.03	1910.75
216.24	1810.40
216.46	1849.32
216.68	1779.68
216.90	1880.04
217.12	1898.47
217.34	1789.92
217.56	1839.08
217.78	1886.18
218.00	1804.26
218.22	1857.51
218.44	1892.32
218.66	1826.79
218.87	1873.89
219.09	1785.83
219.31	1857.51
219.53	1832.93
219.75	1816.55
219.97	1740.77
220.19	1818.60
220.41	1814.50
220.63	1882.08
220.85	1802.21
221.06	1687.53
221.28	1849.32
221.50	1861.60
221.72	1845.22
221.94	1783.78
222.16	1816.55
222.38	1798.12
222.60	1906.66
222.82	1787.88
223.03	1871.84
223.25	1693.67
223.47	1849.32
223.69	1937.38
223.91	1865.70
224.13	1783.78
224.35	1744.87
224.57	1828.84
224.78	1832.93
225.00	1837.03
225.22	1794.02
225.44	1851.36
225.66	1822.69
225.88	1796.07
226.10	1890.28
226.32	1875.94
226.53	1877.99
226.75	1822.69
226.97	1806.31
227.19	1761.25
227.41	1705.96
227.63	1738.73
227.85	1703.91
228.06	1812.45
228.28	1808.36
228.50	1871.84
228.72	1703.91
228.94	1783.78
229.16	1708.01
229.37	1779.68
229.59	1773.54
229.81	1900.52
230.03	1765.35
230.25	1705.96
230.47	1714.15
230.69	1755.11
230.90	1882.08
231.12	1832.93
231.34	1808.36
231.56	1880.04
231.78	1810.40
232.00	1814.50
232.21	1863.65
232.43	1839.08
232.65	1671.14
232.87	1892.32
233.09	1738.73
233.30	1730.53
233.52	1916.90
233.74	1812.45
233.96	1853.41
234.18	1832.93
234.40	1898.47
234.61	1951.71
234.83	1746.92
235.05	1824.74
235.27	1957.86
235.49	1849.32
235.70	1828.84
235.92	1880.04
236.14	1818.60
236.36	1957.86
236.58	1720.29
236.79	1818.60
237.01	1869.80
237.23	1791.97
237.45	1935.33
237.67	1853.41
237.88	1873.89
238.10	1961.95
238.32	1804.26
238.54	1826.79
238.76	1763.30
238.97	1763.30
239.19	1796.07
239.41	1853.41
239.63	1867.75
239.85	1820.64
240.06	1767.40
240.28	1708.01
240.50	1908.71
240.72	1820.64
240.93	1714.15
241.15	1920.99
241.37	1802.21
241.59	1920.99
241.81	1779.68
242.02	1828.84
242.24	1834.98
242.46	1841.12
242.68	1785.83
242.89	1796.07
243.11	1873.89
243.33	1828.84
243.55	1822.69
243.76	1843.17
243.98	1796.07
244.20	1751.01
244.42	1771.49
244.64	1826.79
244.85	1755.11
245.07	1751.01
245.29	1828.84
245.51	1796.07
245.72	1785.83
245.94	1904.61
246.16	1794.02
246.38	1927.14
246.59	1802.21
246.81	1728.49
247.03	1771.49
247.24	1632.23
247.46	1738.73
247.68	1841.12
247.90	1853.41
248.11	1818.60
248.33	1863.65
248.55	1828.84
248.77	1853.41
248.98	1822.69
249.20	1882.08
249.42	1828.84
249.64	1796.07
249.85	1759.21
250.07	1738.73
250.29	1857.51
250.50	1914.85
250.72	1736.68
250.94	1855.46
251.16	1955.81
251.37	1859.56
251.59	1828.84
251.81	1849.32
252.02	1890.28
252.24	1767.40
252.46	1877.99
252.68	1742.82
252.89	1763.30
253.11	1673.19
253.33	1869.80
253.54	1908.71
253.76	1724.39
253.98	1865.70
254.20	1791.97
254.41	1744.87
254.63	1806.31
254.85	1740.77
255.06	1791.97
255.28	1796.07
255.50	1763.30
255.71	1861.60
255.93	1669.09
256.15	1763.30
256.36	1796.07
256.58	1767.40
256.80	1777.64
257.02	1804.26
257.23	1841.12
257.45	1841.12
257.67	1798.12
257.88	1798.12
258.10	1880.04
258.32	1746.92
258.53	1847.27
258.75	1886.18
258.97	1781.73
259.18	1867.75
259.40	1818.60
259.62	1988.58
259.83	1892.32
260.05	1845.22
260.27	2131.94
260.48	1816.55
260.70	1832.93
260.92	1771.49
261.13	1818.60
261.35	1736.68
261.57	1814.50
261.78	1773.54
262.00	1820.64
262.22	1824.74
262.43	1753.06
262.65	1837.03
262.86	1765.35
263.08	1910.75
263.30	1863.65
263.51	1728.49
263.73	1705.96
263.95	1894.37
264.16	1751.01
264.38	1775.59
264.60	1853.41
264.81	1828.84
265.03	1820.64
265.25	1783.78
265.46	1820.64
265.68	1964.00
265.89	1787.88
266.11	1765.35
266.33	1779.68
266.54	1837.03
266.76	1818.60
266.98	1863.65
267.19	1892.32
267.41	1859.56
267.62	1839.08
267.84	1802.21
268.06	1814.50
268.27	1791.97
268.49	1859.56
268.70	1906.66
268.92	1865.70
269.14	1730.53
269.35	1716.20
269.57	1794.02
269.79	1867.75
270.00	1765.35
270.22	1832.93
270.43	1712.10
270.65	1628.14
270.87	1853.41
271.08	1920.99
271.30	1863.65
271.51	1767.40
271.73	1875.94
271.95	1861.60
272.16	1863.65
272.38	1822.69
272.59	1783.78
272.81	1808.36
273.02	1869.80
273.24	1775.59
273.46	1849.32
273.67	1656.81
273.89	1763.30
274.10	1789.92
274.32	1830.88
274.54	1830.88
274.75	1861.60
274.97	1808.36
275.18	1789.92
275.40	1877.99
275.61	1789.92
275.83	1832.93
276.05	1767.40
276.26	1820.64
276.48	1824.74
276.69	1785.83
276.91	1847.27
277.12	1812.45
277.34	1867.75
277.55	1853.41
277.77	1834.98
277.99	1738.73
278.20	1781.73
278.42	1658.85
278.63	1699.81
278.85	1810.40
279.06	1757.16
279.28	1877.99
279.49	1884.13
279.71	1806.31
279.93	1867.75
280.14	1791.97
280.36	1712.10
280.57	1875.94
280.79	1787.88
281.00	1744.87
281.22	1812.45
281.43	1914.85
281.65	1652.71
281.86	1787.88
282.08	1781.73
282.29	1882.08
282.51	1765.35
282.73	1781.73
282.94	1740.77
283.16	1886.18
283.37	1937.38
283.59	1871.84
283.80	1775.59
284.02	1798.12
284.23	1822.69
284.45	1839.08
284.66	1804.26
284.88	1689.57
285.09	1832.93
285.31	1853.41
285.52	1816.55
285.74	1705.96
285.95	1843.17
286.17	1898.47
286.38	1896.42
286.60	1724.39
286.81	1845.22
287.03	1724.39
287.24	1818.60
287.46	1804.26
287.67	1853.41
287.89	1947.62
288.10	1834.98
288.32	1806.31
288.53	1959.91
288.75	1791.97
288.96	1910.75
289.18	1761.25
289.39	1804.26
289.61	1914.85
289.82	1976.29
290.04	1918.95
290.25	1779.68
290.47	1765.35
290.68	1810.40
290.90	1822.69
291.11	1716.20
291.33	1845.22
291.54	1761.25
291.76	1865.70
291.97	1808.36
292.18	1822.69
292.40	1740.77
292.61	1820.64
292.83	1869.80
293.04	1779.68
293.26	1791.97
293.47	1800.16
293.69	1820.64
293.90	1765.35
294.12	1884.13
294.33	1828.84
294.55	1742.82
294.76	1882.08
294.97	1820.64
295.19	1900.52
295.40	1853.41
295.62	1853.41
295.83	1935.33
296.05	1705.96
296.26	1869.80
296.48	1794.02
296.69	1808.36
296.90	1783.78
297.12	1800.16
297.33	1800.16
297.55	1896.42
297.76	1869.80
297.98	1880.04
298.19	1873.89
298.41	1783.78
298.62	1810.40
298.83	1837.03
299.05	1869.80
299.26	1773.54
299.48	1746.92
299.69	1863.65
299.90	1851.36
300.12	1734.63
300.33	1814.50
300.55	1822.69
300.76	1845.22
300.98	1722.34
301.19	1810.40
301.40	1748.97
301.62	1742.82
301.83	1826.79
302.05	1820.64
302.26	1732.58
302.47	1822.69
302.69	1773.54
302.90	1806.31
303.12	1722.34
303.33	1869.80
303.54	1945.57
303.76	1748.97
303.97	1824.74
304.19	1912.80
304.40	1763.30
304.61	1834.98
304.83	1886.18
305.04	1863.65
305.26	1861.60
305.47	1849.32
305.68	1761.25
305.90	1662.95
306.11	1837.03
306.33	1769.44
306.54	1789.92
306.75	1755.11
306.97	1761.25
307.18	1748.97
307.39	1779.68
307.61	1865.70
307.82	1816.55
308.04	1830.88
308.25	1728.49
308.46	1822.69
308.68	1810.40
308.89	1828.84
309.10	1886.18
309.32	1828.84
309.53	1853.41
309.74	1802.21
309.96	1832.93
310.17	1822.69
310.39	1746.92
310.60	1779.68
310.81	1824.74
311.03	1742.82
311.24	1877.99
311.45	1822.69
311.67	1908.71
311.88	1855.46
312.09	1783.78
312.31	1824.74
312.52	1726.44
312.73	1755.11
312.95	1710.05
313.16	1740.77
313.37	1867.75
313.59	1851.36
313.80	1941.47
314.01	1869.80
314.23	1808.36
314.44	1816.55
314.65	1808.36
314.87	1761.25
315.08	1826.79
315.29	1800.16
315.51	1810.40
315.72	1787.88
315.93	1892.32
316.15	1890.28
316.36	1738.73
316.57	1839.08
316.79	1953.76
317.00	1777.64
317.21	1779.68
317.43	1806.31
317.64	1841.12
317.85	1732.58
318.07	1775.59
318.28	1863.65
318.49	2017.25
318.70	2066.40
318.92	2043.87
319.13	1968.10
319.34	1984.48
319.56	1902.56
319.77	1873.89
319.98	1951.71
320.20	1980.39
320.41	1918.95
320.62	1837.03
320.83	1769.44
321.05	1984.48
321.26	1826.79
321.47	1882.08
321.69	1916.90
321.90	1720.29
322.11	1738.73
322.32	1812.45
322.54	1880.04
322.75	1724.39
322.96	1918.95
323.18	1716.20
323.39	1703.91
323.60	1781.73
323.81	1871.84
324.03	1761.25
324.24	1783.78
324.45	1812.45
324.66	1818.60
324.88	1974.24
325.09	1902.56
325.30	1765.35
325.52	1834.98
325.73	1869.80
325.94	1830.88
326.15	1687.53
326.37	1820.64
326.58	1892.32
326.79	1839.08
327.00	1843.17
327.22	1867.75
327.43	1722.34
327.64	1767.40
327.85	1873.89
328.07	1802.21
328.28	1882.08
328.49	1812.45
328.70	1824.74
328.92	1796.07
329.13	1761.25
329.34	1845.22
329.55	1888.23
329.76	1798.12
329.98	1800.16
330.19	1888.23
330.40	1820.64
330.61	1843.17
330.83	1839.08
331.04	1771.49
331.25	1843.17
331.46	1771.49
331.68	1665.00
331.89	1875.94
332.10	1814.50
332.31	1769.44
332.52	1841.12
332.74	1935.33
332.95	1777.64
333.16	1736.68
333.37	1865.70
333.58	1724.39
333.80	1794.02
334.01	1771.49
334.22	1787.88
334.43	1814.50
334.64	1855.46
334.86	1767.40
335.07	1720.29
335.28	1927.14
335.49	1730.53
335.70	1830.88
335.92	1875.94
336.13	1914.85
336.34	1818.60
336.55	1802.21
336.76	1763.30
336.98	1751.01
337.19	1814.50
337.40	1955.81
337.61	1902.56
337.82	1683.43
338.04	1865.70
338.25	1675.24
338.46	1734.63
338.67	1748.97
338.88	1769.44
339.09	1687.53
339.31	1853.41
339.52	1773.54
339.73	1746.92
339.94	1847.27
340.15	1861.60
340.36	1757.16
340.58	1841.12
340.79	1785.83
341.00	1847.27
341.21	1746.92
341.42	1877.99
341.63	1693.67
341.85	1863.65
342.06	1822.69
342.27	1730.53
342.48	1890.28
342.69	1724.39
342.90	1830.88
343.12	1890.28
343.33	1808.36
343.54	1906.66
343.75	1880.04
343.96	1816.55
344.17	1759.21
344.38	1789.92
344.60	1806.31
344.81	1728.49
345.02	1832.93
345.23	1796.07
345.44	1994.72
345.65	1896.42
345.86	1828.84
346.07	1810.40
346.29	1732.58
346.50	1855.46
346.71	1759.21
346.92	1875.94
347.13	1978.34
347.34	1869.80
347.55	1837.03
347.76	1814.50
347.98	1726.44
348.19	1775.59
348.40	1896.42
348.61	1751.01
348.82	1890.28
349.03	1892.32
349.24	1773.54
349.45	1996.77
349.66	1732.58
349.88	1892.32
350.09	1775.59
350.30	1914.85
350.51	1923.04
350.72	1759.21
350.93	1767.40
351.14	1720.29
351.35	1865.70
351.56	1812.45
351.77	1814.50
351.99	1857.51
352.20	1867.75
352.41	1943.52
352.62	1667.05
352.83	1763.30
353.04	1841.12
353.25	1726.44
353.46	1884.13
353.67	1877.99
353.88	1697.77
354.09	1783.78
354.30	1769.44
354.52	1816.55
354.73	1761.25
354.94	1800.16
355.15	1861.60
355.36	1935.33
355.57	1861.60
355.78	1839.08
355.99	1791.97
356.20	1816.55
356.41	1886.18
356.62	1812.45
356.83	1882.08
357.04	1904.61
357.25	1708.01
357.46	1867.75
357.68	1773.54
357.89	1755.11
358.10	1751.01
358.31	1783.78
358.52	1806.31
358.73	1796.07
358.94	1822.69
359.15	1791.97
359.36	1906.66
359.57	1798.12
359.78	1837.03
359.99	1810.40
360.20	1818.60
360.41	1834.98
360.62	1859.56
360.83	1834.98
361.04	1828.84
361.25	1818.60
361.46	1900.52
361.67	1896.42
361.88	1800.16
362.09	1855.46
362.30	1794.02
362.51	1791.97
362.72	1755.11
362.93	1855.46
363.14	1779.68
363.35	1843.17
363.56	1779.68
363.78	1894.37
363.99	1859.56
364.20	1773.54
364.41	1861.60
364.62	1896.42
364.83	1771.49
365.04	1798.12
365.25	1853.41
365.46	1861.60
365.67	1814.50
365.88	1775.59
366.09	1826.79
366.30	1834.98
366.51	1923.04
366.72	1802.21
366.93	1851.36
367.14	1857.51
367.35	1892.32
367.56	1843.17
367.77	1859.56
367.98	1849.32
368.18	1839.08
368.39	1847.27
368.60	1789.92
368.81	1941.47
369.02	1834.98
369.23	1828.84
369.44	1730.53
369.65	1771.49
369.86	1845.22
370.07	1875.94
370.28	1775.59
370.49	1814.50
370.70	1824.74
370.91	1710.05
371.12	1714.15
371.33	1906.66
371.54	1753.06
371.75	1861.60
371.96	1693.67
372.17	1884.13
372.38	1794.02
372.59	1820.64
372.80	1812.45
373.01	1837.03
373.22	1832.93
373.43	1845.22
373.64	1779.68
373.85	1888.23
374.06	1939.43
374.26	1914.85
374.47	1832.93
374.68	1896.42
374.89	1818.60
375.10	1763.30
375.31	1888.23
375.52	1830.88
375.73	1853.41
375.94	1757.16
376.15	1920.99
376.36	1722.34
376.57	1771.49
376.78	1880.04
376.99	1890.28
377.20	1976.29
377.40	1785.83
377.61	1955.81
377.82	1810.40
378.03	1882.08
378.24	1904.61
378.45	1818.60
378.66	1791.97
378.87	1697.77
379.08	1773.54
379.29	1812.45
379.50	1980.39
379.71	1777.64
379.91	1953.76
380.12	1865.70
380.33	1837.03
380.54	1804.26
380.75	1765.35
380.96	1755.11
381.17	1869.80
381.38	1787.88
381.59	1855.46
381.80	1847.27
382.00	1994.72
382.21	1929.19
382.42	2050.02
382.63	2054.11
382.84	1882.08
383.05	1882.08
383.26	2033.63
383.47	1839.08
383.68	1832.93
383.88	1798.12
384.09	1939.43
384.30	1957.86
384.51	1906.66
384.72	1791.97
384.93	1730.53
385.14	1890.28
385.35	1900.52
385.55	1681.38
385.76	1855.46
385.97	1767.40
386.18	1703.91
386.39	1726.44
386.60	1773.54
386.81	1861.60
387.02	1791.97
387.22	1841.12
387.43	1853.41
387.64	1972.19
387.85	2039.78
388.06	2226.14
388.27	4134.85
388.48	8849.27
388.68	11624.27
388.89	13795.12
389.10	14774.05
389.31	13010.75
389.52	10364.77
389.73	9125.75
389.93	8087.43
390.14	7561.10
390.35	6743.96
390.56	6250.40
390.77	5189.55
390.98	4057.03
391.18	3086.29
391.39	2527.19
391.60	2027.49
391.81	2031.58
392.02	1828.84
392.23	1982.43
392.43	1886.18
392.64	1877.99
392.85	1806.31
393.06	1849.32
393.27	1849.32
393.47	1779.68
393.68	1871.84
393.89	1785.83
394.10	1955.81
394.31	1789.92
394.52	1822.69
394.72	1839.08
394.93	1964.00
395.14	1753.06
395.35	1955.81
395.56	1832.93
395.76	1824.74
395.97	1890.28
396.18	2002.91
396.39	1984.48
396.60	2277.34
396.80	2111.46
397.01	2076.64
397.22	1968.10
397.43	2021.35
397.64	1863.65
397.84	1908.71
398.05	1974.24
398.26	1824.74
398.47	1886.18
398.67	1906.66
398.88	1900.52
399.09	1808.36
399.30	1757.16
399.51	1822.69
399.71	1777.64
399.92	1822.69
400.13	1884.13
400.34	1810.40
400.54	1832.93
400.75	1947.62
400.96	1888.23
401.17	1978.34
401.37	1779.68
401.58	1740.77
401.79	1808.36
402.00	1882.08
402.21	2164.70
402.41	2152.42
402.62	2265.05
402.83	2320.35
403.04	2242.53
403.24	2258.91
403.45	2062.30
403.66	1998.82
403.87	2058.21
404.07	1994.72
404.28	2076.64
404.49	1994.72
404.70	1943.52
404.90	1959.91
405.11	1812.45
405.32	1918.95
405.52	1812.45
405.73	1773.54
405.94	1802.21
406.15	1787.88
406.35	1873.89
406.56	1814.50
406.77	1826.79
406.98	1869.80
407.18	1832.93
407.39	1837.03
407.60	1851.36
407.80	1855.46
408.01	1775.59
408.22	1740.77
408.43	1808.36
408.63	1882.08
408.84	1884.13
409.05	1886.18
409.25	1781.73
409.46	1738.73
409.67	1779.68
409.88	1730.53
410.08	1890.28
410.29	1806.31
410.50	1910.75
410.70	1804.26
410.91	1841.12
411.12	1814.50
411.32	1791.97
411.53	1865.70
411.74	1912.80
411.95	1959.91
412.15	1918.95
412.36	1914.85
412.57	1949.67
412.77	1984.48
412.98	1808.36
413.19	1824.74
413.39	1863.65
413.60	1898.47
413.81	1900.52
414.01	1820.64
414.22	1853.41
414.43	1990.63
414.63	1906.66
414.84	1916.90
415.05	1802.21
415.25	1771.49
415.46	1865.70
415.67	1839.08
415.87	1875.94
416.08	1828.84
416.29	1726.44
416.49	1863.65
416.70	1783.78
416.91	1732.58
417.11	1787.88
417.32	1882.08
417.53	1908.71
417.73	1814.50
417.94	1767.40
418.15	1839.08
418.35	1824.74
418.56	1853.41
418.77	1951.71
418.97	1767.40
419.18	1847.27
419.38	1734.63
419.59	1740.77
419.80	1888.23
420.00	1751.01
420.21	1853.41
420.42	1900.52
420.62	1873.89
420.83	1759.21
421.04	1832.93
421.24	1798.12
421.45	1802.21
421.65	1822.69
421.86	1787.88
422.07	1847.27
422.27	1759.21
422.48	1812.45
422.69	1755.11
422.89	1783.78
423.10	1888.23
423.30	1730.53
423.51	1783.78
423.72	1884.13
423.92	1886.18
424.13	1710.05
424.33	1837.03
424.54	1791.97
424.75	1765.35
424.95	1869.80
425.16	1812.45
425.36	1767.40
425.57	1884.13
425.78	1890.28
425.98	1880.04
426.19	1771.49
426.39	1773.54
426.60	1837.03
426.81	1863.65
427.01	1869.80
427.22	1777.64
427.42	1757.16
427.63	1779.68
427.83	1898.47
428.04	1892.32
428.25	1916.90
428.45	1927.14
428.66	1933.28
428.86	1847.27
429.07	1775.59
429.28	1851.36
429.48	1826.79
429.69	1796.07
429.89	1812.45
430.10	1751.01
430.30	1791.97
430.51	1855.46
430.71	1787.88
430.92	1816.55
431.13	1789.92
431.33	1779.68
431.54	1771.49
431.74	1902.56
431.95	1943.52
432.15	1742.82
432.36	1871.84
432.56	1814.50
432.77	1900.52
432.98	1894.37
433.18	1837.03
433.39	1822.69
433.59	1777.64
433.80	1957.86
434.00	1978.34
434.21	1832.93
434.41	1818.60
434.62	1959.91
434.82	1841.12
435.03	1751.01
435.23	1853.41
435.44	1779.68
435.64	1839.08
435.85	1841.12
436.06	1863.65
436.26	1855.46
436.47	1824.74
436.67	1771.49
436.88	1767.40
437.08	1923.04
437.29	1929.19
437.49	1920.99
437.70	1964.00
437.90	1863.65
438.11	2015.20
438.31	1873.89
438.52	2004.96
438.72	1998.82
438.93	2142.18
439.13	1953.76
439.34	1961.95
439.54	1863.65
439.75	1982.43
439.95	1937.38
440.16	1886.18
440.36	1818.60
440.57	1869.80
440.77	1929.19
440.98	1888.23
441.18	1902.56
441.39	1851.36
441.59	1806.31
441.80	1863.65
442.00	1834.98
442.21	1945.57
442.41	1714.15
442.62	1929.19
442.82	1761.25
443.02	1775.59
443.23	1859.56
443.43	1832.93
443.64	1947.62
443.84	1773.54
444.05	1935.33
444.25	1767.40
444.46	1834.98
444.66	1789.92
444.87	1882.08
445.07	1720.29
445.28	1816.55
445.48	1925.09
445.69	1916.90
445.89	1951.71
446.09	1839.08
446.30	2082.78
446.50	2559.96
446.71	4208.58
446.91	5228.46
447.12	6090.66
447.32	6139.81
447.53	5722.02
447.73	4687.80
447.93	4134.85
448.14	3809.22
448.34	3635.14
448.55	3348.43
448.75	3205.07
448.96	3114.96
449.16	2729.94
449.36	2660.31
449.57	2217.95
449.77	2047.97
449.98	1875.94
450.18	1890.28
450.39	1857.51
450.59	1890.28
450.79	1906.66
451.00	1853.41
451.20	1853.41
451.41	1847.27
451.61	1832.93
451.81	1812.45
452.02	1871.84
452.22	1861.60
452.43	1839.08
452.63	1775.59
