SpectraSuite Data File
++++++++++++++++++++++++++++++++++++
Date: Wed May 04 21:13:09 CEST 2016
User: root
Dark Spectrum Present: No
Reference Spectrum Present: No
Number of Sampled Component Spectra: 1
Spectrometers: USB4C02835
Integration Time (usec): 100000 (USB4C02835)
Spectra Averaged: 1 (USB4C02835)
Boxcar Smoothing: 0 (USB4C02835)
Correct for Electrical Dark: No (USB4C02835)
Strobe/Lamp Enabled: No (USB4C02835)
Correct for Detector Non-linearity: No (USB4C02835)
Correct for Stray Light: No (USB4C02835)
Number of Pixels in Processed Spectrum: 3648
>>>>>Begin Processed Spectral Data<<<<<
177.47	1560.55
177.69	1560.55
177.91	1560.55
178.13	1499.11
178.36	1535.98
178.58	1718.25
178.80	1787.88
179.02	1753.06
179.24	1781.73
179.46	1845.22
179.68	1867.75
179.90	1843.17
180.13	1757.16
180.35	1761.25
180.57	1789.92
180.79	1882.08
181.01	1771.49
181.23	1839.08
181.45	1849.32
181.67	1808.36
181.90	1873.89
182.12	1755.11
182.34	1779.68
182.56	1910.75
182.78	1841.12
183.00	1839.08
183.22	1732.58
183.44	1734.63
183.66	1918.95
183.89	1949.67
184.11	1781.73
184.33	1834.98
184.55	1910.75
184.77	1830.88
184.99	1839.08
185.21	1693.67
185.43	1947.62
185.65	1814.50
185.87	1902.56
186.10	1964.00
186.32	1988.58
186.54	1863.65
186.76	1839.08
186.98	1857.51
187.20	1814.50
187.42	1748.97
187.64	1841.12
187.86	1789.92
188.08	1880.04
188.30	1783.78
188.52	1746.92
188.75	1863.65
188.97	1910.75
189.19	1761.25
189.41	1859.56
189.63	1877.99
189.85	1781.73
190.07	1679.33
190.29	1734.63
190.51	1824.74
190.73	1724.39
190.95	1853.41
191.17	1800.16
191.39	1675.24
191.61	1892.32
191.84	1800.16
192.06	1791.97
192.28	1660.90
192.50	1927.14
192.72	1845.22
192.94	1769.44
193.16	1867.75
193.38	1927.14
193.60	1773.54
193.82	1746.92
194.04	1906.66
194.26	1832.93
194.48	1800.16
194.70	1755.11
194.92	1834.98
195.14	1775.59
195.36	1794.02
195.58	1798.12
195.80	1796.07
196.02	1708.01
196.24	1798.12
196.46	1820.64
196.69	1742.82
196.91	1992.67
197.13	1841.12
197.35	1777.64
197.57	1939.43
197.79	1880.04
198.01	1861.60
198.23	1812.45
198.45	1783.78
198.67	1710.05
198.89	1732.58
199.11	1820.64
199.33	1787.88
199.55	1712.10
199.77	1884.13
199.99	1800.16
200.21	1880.04
200.43	1830.88
200.65	1730.53
200.87	1675.24
201.09	1742.82
201.31	1769.44
201.53	1849.32
201.75	1816.55
201.97	1796.07
202.19	1777.64
202.41	1808.36
202.63	1955.81
202.85	1871.84
203.07	1847.27
203.29	1773.54
203.51	1722.34
203.73	1738.73
203.95	2002.91
204.17	1777.64
204.39	1865.70
204.61	1796.07
204.83	1796.07
205.05	1773.54
205.27	1820.64
205.49	1931.23
205.71	1783.78
205.93	1751.01
206.15	1755.11
206.37	1828.84
206.59	1761.25
206.81	1726.44
207.03	1787.88
207.25	1693.67
207.47	1859.56
207.69	1769.44
207.91	1849.32
208.13	1886.18
208.34	1705.96
208.56	1808.36
208.78	1839.08
209.00	1857.51
209.22	1773.54
209.44	1726.44
209.66	1779.68
209.88	1742.82
210.10	1849.32
210.32	1769.44
210.54	1941.47
210.76	1865.70
210.98	1818.60
211.20	1748.97
211.42	1843.17
211.64	1935.33
211.86	1804.26
212.08	1828.84
212.30	1800.16
212.52	1814.50
212.74	1849.32
212.96	1806.31
213.17	1826.79
213.39	1865.70
213.61	1898.47
213.83	1886.18
214.05	1859.56
214.27	1882.08
214.49	1751.01
214.71	1761.25
214.93	1880.04
215.15	1794.02
215.37	1896.42
215.59	1736.68
215.81	1906.66
216.03	1859.56
216.24	1787.88
216.46	1822.69
216.68	1861.60
216.90	1818.60
217.12	1871.84
217.34	1753.06
217.56	1757.16
217.78	1904.61
218.00	1861.60
218.22	1849.32
218.44	1777.64
218.66	1853.41
218.87	1951.71
219.09	1804.26
219.31	1841.12
219.53	1794.02
219.75	1787.88
219.97	1814.50
220.19	1804.26
220.41	1812.45
220.63	1871.84
220.85	1765.35
221.06	1837.03
221.28	1849.32
221.50	1812.45
221.72	1771.49
221.94	1837.03
222.16	1820.64
222.38	1853.41
222.60	1900.52
222.82	1834.98
223.03	1820.64
223.25	1730.53
223.47	1890.28
223.69	1964.00
223.91	1826.79
224.13	1888.23
224.35	1800.16
224.57	1918.95
224.78	1865.70
225.00	1751.01
225.22	1816.55
225.44	1781.73
225.66	1898.47
225.88	1830.88
226.10	1902.56
226.32	1775.59
226.53	1927.14
226.75	1800.16
226.97	1859.56
227.19	1773.54
227.41	1742.82
227.63	1748.97
227.85	1710.05
228.06	1779.68
228.28	1861.60
228.50	1914.85
228.72	1755.11
228.94	1761.25
229.16	1693.67
229.37	1779.68
229.59	1755.11
229.81	1906.66
230.03	1818.60
230.25	1791.97
230.47	1781.73
230.69	1685.48
230.90	1828.84
231.12	1742.82
231.34	1759.21
231.56	1830.88
231.78	1691.62
232.00	1820.64
232.21	1828.84
232.43	1781.73
232.65	1578.98
232.87	1798.12
233.09	1777.64
233.30	1746.92
233.52	1882.08
233.74	1738.73
233.96	1798.12
234.18	1824.74
234.40	1781.73
234.61	1873.89
234.83	1732.58
235.05	1757.16
235.27	1978.34
235.49	1937.38
235.70	1757.16
235.92	1896.42
236.14	1886.18
236.36	1953.76
236.58	1679.33
236.79	1777.64
237.01	1834.98
237.23	1841.12
237.45	1818.60
237.67	1744.87
237.88	1781.73
238.10	1959.91
238.32	1796.07
238.54	1843.17
238.76	1777.64
238.97	1740.77
239.19	1769.44
239.41	1820.64
239.63	1875.94
239.85	1873.89
240.06	1873.89
240.28	1759.21
240.50	1865.70
240.72	1787.88
240.93	1804.26
241.15	1890.28
241.37	1824.74
241.59	1937.38
241.81	1761.25
242.02	1763.30
242.24	1824.74
242.46	1865.70
242.68	1753.06
242.89	1812.45
243.11	1877.99
243.33	1779.68
243.55	1855.46
243.76	1845.22
243.98	1761.25
244.20	1812.45
244.42	1843.17
244.64	1849.32
244.85	1800.16
245.07	1757.16
245.29	1830.88
245.51	1789.92
245.72	1904.61
245.94	1882.08
246.16	1863.65
246.38	1841.12
246.59	1685.48
246.81	1740.77
247.03	1791.97
247.24	1738.73
247.46	1759.21
247.68	1824.74
247.90	1771.49
248.11	1763.30
248.33	1918.95
248.55	1759.21
248.77	1845.22
248.98	1880.04
249.20	1892.32
249.42	1767.40
249.64	1820.64
249.85	1869.80
250.07	1712.10
250.29	1863.65
250.50	1865.70
250.72	1652.71
250.94	1828.84
251.16	1935.33
251.37	1865.70
251.59	1857.51
251.81	1794.02
252.02	1902.56
252.24	1734.63
252.46	1927.14
252.68	1794.02
252.89	1710.05
253.11	1753.06
253.33	1859.56
253.54	1822.69
253.76	1736.68
253.98	1759.21
254.20	1812.45
254.41	1691.62
254.63	1871.84
254.85	1738.73
255.06	1839.08
255.28	1804.26
255.50	1720.29
255.71	1732.58
255.93	1691.62
256.15	1855.46
256.36	1896.42
256.58	1808.36
256.80	1880.04
257.02	1826.79
257.23	1798.12
257.45	1873.89
257.67	1834.98
257.88	1812.45
258.10	1800.16
258.32	1808.36
258.53	1851.36
258.75	1855.46
258.97	1767.40
259.18	1798.12
259.40	1880.04
259.62	1875.94
259.83	1841.12
260.05	1830.88
260.27	2201.57
260.48	1847.27
260.70	1718.25
260.92	1841.12
261.13	1734.63
261.35	1818.60
261.57	1933.28
261.78	1728.49
262.00	1746.92
262.22	1832.93
262.43	1767.40
262.65	1806.31
262.86	1822.69
263.08	1984.48
263.30	1828.84
263.51	1751.01
263.73	1810.40
263.95	1931.23
264.16	1748.97
264.38	1777.64
264.60	1808.36
264.81	1832.93
265.03	1904.61
265.25	1894.37
265.46	1810.40
265.68	1892.32
265.89	1812.45
266.11	1732.58
266.33	1880.04
266.54	1865.70
266.76	1820.64
266.98	1839.08
267.19	1880.04
267.41	1890.28
267.62	1806.31
267.84	1710.05
268.06	1789.92
268.27	1773.54
268.49	1941.47
268.70	1937.38
268.92	1828.84
269.14	1779.68
269.35	1755.11
269.57	1773.54
269.79	1820.64
270.00	1765.35
270.22	1937.38
270.43	1693.67
270.65	1632.23
270.87	1871.84
271.08	1886.18
271.30	1826.79
271.51	1849.32
271.73	1806.31
271.95	1880.04
272.16	1798.12
272.38	1830.88
272.59	1796.07
272.81	1808.36
273.02	1806.31
273.24	1746.92
273.46	1886.18
273.67	1781.73
273.89	1832.93
274.10	1759.21
274.32	1843.17
274.54	1830.88
274.75	1814.50
274.97	1806.31
275.18	1763.30
275.40	1851.36
275.61	1820.64
275.83	1816.55
276.05	1820.64
276.26	1755.11
276.48	1814.50
276.69	1791.97
276.91	1820.64
277.12	1941.47
277.34	1849.32
277.55	1834.98
277.77	1818.60
277.99	1820.64
278.20	1738.73
278.42	1757.16
278.63	1796.07
278.85	1781.73
279.06	1689.57
279.28	1818.60
279.49	1910.75
279.71	1824.74
279.93	1773.54
280.14	1771.49
280.36	1746.92
280.57	1800.16
280.79	1931.23
281.00	1837.03
281.22	1787.88
281.43	1873.89
281.65	1753.06
281.86	1824.74
282.08	1849.32
282.29	1945.57
282.51	1705.96
282.73	1734.63
282.94	1697.77
283.16	1906.66
283.37	1894.37
283.59	1861.60
283.80	1869.80
284.02	1783.78
284.23	1884.13
284.45	1701.86
284.66	1708.01
284.88	1746.92
285.09	1779.68
285.31	1888.23
285.52	1939.43
285.74	1732.58
285.95	1816.55
286.17	1820.64
286.38	1787.88
286.60	1785.83
286.81	1814.50
287.03	1757.16
287.24	1830.88
287.46	1855.46
287.67	1843.17
287.89	1877.99
288.10	1779.68
288.32	1755.11
288.53	1882.08
288.75	1789.92
288.96	1927.14
289.18	1783.78
289.39	1783.78
289.61	1859.56
289.82	1986.53
290.04	1877.99
290.25	1769.44
290.47	1841.12
290.68	1761.25
290.90	1929.19
291.11	1701.86
291.33	1898.47
291.54	1746.92
291.76	1744.87
291.97	1798.12
292.18	1779.68
292.40	1855.46
292.61	1732.58
292.83	2031.58
293.04	1886.18
293.26	1798.12
293.47	1822.69
293.69	1761.25
293.90	1888.23
294.12	1939.43
294.33	1787.88
294.55	1841.12
294.76	1867.75
294.97	1886.18
295.19	1886.18
295.40	1769.44
295.62	1802.21
295.83	1925.09
296.05	1779.68
296.26	1882.08
296.48	1814.50
296.69	1798.12
296.90	1798.12
297.12	1865.70
297.33	1886.18
297.55	1845.22
297.76	1853.41
297.98	1886.18
298.19	1775.59
298.41	1816.55
298.62	1722.34
298.83	1882.08
299.05	1808.36
299.26	1763.30
299.48	1734.63
299.69	1853.41
299.90	1810.40
300.12	1816.55
300.33	1888.23
300.55	1820.64
300.76	1787.88
300.98	1798.12
301.19	1849.32
301.40	1845.22
301.62	1880.04
301.83	1841.12
302.05	1837.03
302.26	1757.16
302.47	1759.21
302.69	1757.16
302.90	1771.49
303.12	1724.39
303.33	1925.09
303.54	1968.10
303.76	1726.44
303.97	1783.78
304.19	1933.28
304.40	1701.86
304.61	1920.99
304.83	1964.00
305.04	1912.80
305.26	1861.60
305.47	1763.30
305.68	1865.70
305.90	1708.01
306.11	1916.90
306.33	1837.03
306.54	1769.44
306.75	1820.64
306.97	1705.96
307.18	1791.97
307.39	1791.97
307.61	1828.84
307.82	1718.25
308.04	1884.13
308.25	1781.73
308.46	1787.88
308.68	1816.55
308.89	1808.36
309.10	1884.13
309.32	1787.88
309.53	1832.93
309.74	1863.65
309.96	1841.12
310.17	1914.85
310.39	1759.21
310.60	1757.16
310.81	1841.12
311.03	1791.97
311.24	1888.23
311.45	1877.99
311.67	1996.77
311.88	1841.12
312.09	1771.49
312.31	1757.16
312.52	1755.11
312.73	1810.40
312.95	1753.06
313.16	1724.39
313.37	1837.03
313.59	1794.02
313.80	1935.33
314.01	1884.13
314.23	1822.69
314.44	1826.79
314.65	1648.61
314.87	1781.73
315.08	1755.11
315.29	1837.03
315.51	1712.10
315.72	1673.19
315.93	1902.56
316.15	1912.80
316.36	1796.07
316.57	1802.21
316.79	1845.22
317.00	1796.07
317.21	1855.46
317.43	1736.68
317.64	1839.08
317.85	1728.49
318.07	1804.26
318.28	1781.73
318.49	1935.33
318.70	2074.59
318.92	2041.82
319.13	1931.23
319.34	2017.25
319.56	1953.76
319.77	1955.81
319.98	1939.43
320.20	1916.90
320.41	1814.50
320.62	1918.95
320.83	1798.12
321.05	2015.20
321.26	1775.59
321.47	1851.36
321.69	1947.62
321.90	1794.02
322.11	1755.11
322.32	1787.88
322.54	1925.09
322.75	1822.69
322.96	1978.34
323.18	1697.77
323.39	1650.66
323.60	1794.02
323.81	1869.80
324.03	1818.60
324.24	1812.45
324.45	1808.36
324.66	1814.50
324.88	1900.52
325.09	1964.00
325.30	1804.26
325.52	1867.75
325.73	1855.46
325.94	1798.12
326.15	1779.68
326.37	1697.77
326.58	1820.64
326.79	2002.91
327.00	1744.87
327.22	1804.26
327.43	1751.01
327.64	1763.30
327.85	1796.07
328.07	1865.70
328.28	1837.03
328.49	1789.92
328.70	1800.16
328.92	1798.12
329.13	1726.44
329.34	1759.21
329.55	1787.88
329.76	1896.42
329.98	1800.16
330.19	1877.99
330.40	1843.17
330.61	1853.41
330.83	1873.89
331.04	1710.05
331.25	1771.49
331.46	1808.36
331.68	1783.78
331.89	1929.19
332.10	1808.36
332.31	1757.16
332.52	1826.79
332.74	1880.04
332.95	1683.43
333.16	1812.45
333.37	1902.56
333.58	1810.40
333.80	1851.36
334.01	1722.34
334.22	1800.16
334.43	1757.16
334.64	1820.64
334.86	1681.38
335.07	1759.21
335.28	1822.69
335.49	1744.87
335.70	1857.51
335.92	1877.99
336.13	1972.19
336.34	1873.89
336.55	1771.49
336.76	1769.44
336.98	1708.01
337.19	1822.69
337.40	1906.66
337.61	2019.30
337.82	1802.21
338.04	1886.18
338.25	1748.97
338.46	1761.25
338.67	1777.64
338.88	1785.83
339.09	1787.88
339.31	1818.60
339.52	1800.16
339.73	1744.87
339.94	1837.03
340.15	1886.18
340.36	1802.21
340.58	1820.64
340.79	1730.53
341.00	1777.64
341.21	1742.82
341.42	1918.95
341.63	1769.44
341.85	1804.26
342.06	1828.84
342.27	1779.68
342.48	1896.42
342.69	1738.73
342.90	1877.99
343.12	1880.04
343.33	1714.15
343.54	1898.47
343.75	1851.36
343.96	1798.12
344.17	1775.59
344.38	1820.64
344.60	1738.73
344.81	1830.88
345.02	1804.26
345.23	1902.56
345.44	1982.43
345.65	1800.16
345.86	1863.65
346.07	1804.26
346.29	1714.15
346.50	1908.71
346.71	1796.07
346.92	1837.03
347.13	1935.33
347.34	1771.49
347.55	1748.97
347.76	1777.64
347.98	1689.57
348.19	1769.44
348.40	1871.84
348.61	1740.77
348.82	1972.19
349.03	1826.79
349.24	1771.49
349.45	1914.85
349.66	1740.77
349.88	1853.41
350.09	1744.87
350.30	1888.23
350.51	1863.65
350.72	1841.12
350.93	1849.32
351.14	1841.12
351.35	1787.88
351.56	1857.51
351.77	1802.21
351.99	1812.45
352.20	1912.80
352.41	1849.32
352.62	1730.53
352.83	1777.64
353.04	1851.36
353.25	1861.60
353.46	1902.56
353.67	1898.47
353.88	1720.29
354.09	1857.51
354.30	1824.74
354.52	1849.32
354.73	1779.68
354.94	1771.49
355.15	1863.65
355.36	1890.28
355.57	1779.68
355.78	1912.80
355.99	1789.92
356.20	1748.97
356.41	1912.80
356.62	1783.78
356.83	1816.55
357.04	1841.12
357.25	1720.29
357.46	1796.07
357.68	1738.73
357.89	1716.20
358.10	1863.65
358.31	1843.17
358.52	1783.78
358.73	1714.15
358.94	1791.97
359.15	1802.21
359.36	1900.52
359.57	1839.08
359.78	1804.26
359.99	1832.93
360.20	1744.87
360.41	1853.41
360.62	1853.41
360.83	1781.73
361.04	1748.97
361.25	1898.47
361.46	1941.47
361.67	1847.27
361.88	1906.66
362.09	1843.17
362.30	1855.46
362.51	1802.21
362.72	1853.41
362.93	1828.84
363.14	1898.47
363.35	1794.02
363.56	1746.92
363.78	1920.99
363.99	1837.03
364.20	1738.73
364.41	1800.16
364.62	1957.86
364.83	1847.27
365.04	1820.64
365.25	1828.84
365.46	1875.94
365.67	1763.30
365.88	1841.12
366.09	1798.12
366.30	1798.12
366.51	1806.31
366.72	1720.29
366.93	1923.04
367.14	1812.45
367.35	1886.18
367.56	1837.03
367.77	1908.71
367.98	1837.03
368.18	1849.32
368.39	1886.18
368.60	1751.01
368.81	1863.65
369.02	1861.60
369.23	1867.75
369.44	1697.77
369.65	1738.73
369.86	1832.93
370.07	1832.93
370.28	1791.97
370.49	1810.40
370.70	1810.40
370.91	1757.16
371.12	1697.77
371.33	1920.99
371.54	1791.97
371.75	1976.29
371.96	1736.68
372.17	1853.41
372.38	1843.17
372.59	1937.38
372.80	1808.36
373.01	1791.97
373.22	1789.92
373.43	1851.36
373.64	1689.57
373.85	1873.89
374.06	2027.49
374.26	1931.23
374.47	1855.46
374.68	1894.37
374.89	1837.03
375.10	1769.44
375.31	1857.51
375.52	1861.60
375.73	1824.74
375.94	1757.16
376.15	1904.61
376.36	1796.07
376.57	1777.64
376.78	1777.64
376.99	1751.01
377.20	1906.66
377.40	1796.07
377.61	1886.18
377.82	1820.64
378.03	1961.95
378.24	1814.50
378.45	1798.12
378.66	1785.83
378.87	1796.07
379.08	1730.53
379.29	1765.35
379.50	1861.60
379.71	1798.12
379.91	1914.85
380.12	1751.01
380.33	1781.73
380.54	1830.88
380.75	1824.74
380.96	1798.12
381.17	1923.04
381.38	1822.69
381.59	1890.28
381.80	1933.28
382.00	2021.35
382.21	1992.67
382.42	1925.09
382.63	2037.73
382.84	1955.81
383.05	1923.04
383.26	1957.86
383.47	1880.04
383.68	1824.74
383.88	1902.56
384.09	1808.36
384.30	1980.39
384.51	1820.64
384.72	1775.59
384.93	1728.49
385.14	1845.22
385.35	1910.75
385.55	1738.73
385.76	1900.52
385.97	1892.32
386.18	1742.82
386.39	1693.67
386.60	1839.08
386.81	1847.27
387.02	1710.05
387.22	1753.06
387.43	1943.52
387.64	1923.04
387.85	2013.15
388.06	2244.57
388.27	4364.22
388.48	8923.00
388.68	11953.99
388.89	13950.76
389.10	15189.78
389.31	13399.86
389.52	10710.88
389.73	9326.45
389.93	8337.28
390.14	7739.27
390.35	7077.78
390.56	6330.27
390.77	5269.42
390.98	4106.18
391.18	3086.29
391.39	2494.43
391.60	2039.78
391.81	2013.15
392.02	1898.47
392.23	1966.05
392.43	1865.70
392.64	1916.90
392.85	1826.79
393.06	1880.04
393.27	1794.02
393.47	1779.68
393.68	1867.75
393.89	1773.54
394.10	1834.98
394.31	1802.21
394.52	1796.07
394.72	1779.68
394.93	1939.43
395.14	1720.29
395.35	1834.98
395.56	1791.97
395.76	1826.79
395.97	1908.71
396.18	1916.90
396.39	2011.11
396.60	2263.01
396.80	2127.84
397.01	2043.87
397.22	1953.76
397.43	2007.01
397.64	1783.78
397.84	1900.52
398.05	2041.82
398.26	1865.70
398.47	1927.14
398.67	1871.84
398.88	1923.04
399.09	1871.84
399.30	1753.06
399.51	1906.66
399.71	1796.07
399.92	1816.55
400.13	1888.23
400.34	1761.25
400.54	1787.88
400.75	1943.52
400.96	1894.37
401.17	1937.38
401.37	1855.46
401.58	1789.92
401.79	1814.50
402.00	1953.76
402.21	2088.93
402.41	2191.33
402.62	2260.96
402.83	2324.44
403.04	2236.38
403.24	2426.84
403.45	2009.06
403.66	2097.12
403.87	1978.34
404.07	2062.30
404.28	2062.30
404.49	2029.54
404.70	1886.18
404.90	1855.46
405.11	1908.71
405.32	1947.62
405.52	1740.77
405.73	1794.02
405.94	1775.59
406.15	1841.12
406.35	1884.13
406.56	1834.98
406.77	1785.83
406.98	1824.74
407.18	1773.54
407.39	1904.61
407.60	1845.22
407.80	1832.93
408.01	1800.16
408.22	1898.47
408.43	1871.84
408.63	1869.80
408.84	1847.27
409.05	1824.74
409.25	1769.44
409.46	1828.84
409.67	1763.30
409.88	1751.01
410.08	1927.14
410.29	1865.70
410.50	1791.97
410.70	1845.22
410.91	1802.21
411.12	1810.40
411.32	1742.82
411.53	1703.91
411.74	1916.90
411.95	1925.09
412.15	1902.56
412.36	1894.37
412.57	1966.05
412.77	2017.25
412.98	1931.23
413.19	1769.44
413.39	1900.52
413.60	1877.99
413.81	1908.71
414.01	1783.78
414.22	1884.13
414.43	1822.69
414.63	1867.75
414.84	1890.28
415.05	1824.74
415.25	1765.35
415.46	1918.95
415.67	1814.50
415.87	1775.59
416.08	1816.55
416.29	1794.02
416.49	1877.99
416.70	1818.60
416.91	1841.12
417.11	1824.74
417.32	1853.41
417.53	1900.52
417.73	1894.37
417.94	1865.70
418.15	1863.65
418.35	1820.64
418.56	1851.36
418.77	2019.30
418.97	1892.32
419.18	1820.64
419.38	1751.01
419.59	1806.31
419.80	1865.70
420.00	1800.16
420.21	1755.11
420.42	1865.70
420.62	1830.88
420.83	1769.44
421.04	1787.88
421.24	1822.69
421.45	1828.84
421.65	1882.08
421.86	1820.64
422.07	1914.85
422.27	1845.22
422.48	1865.70
422.69	1841.12
422.89	1742.82
423.10	1779.68
423.30	1724.39
423.51	1818.60
423.72	1869.80
423.92	1820.64
424.13	1734.63
424.33	1812.45
424.54	1861.60
424.75	1853.41
424.95	1953.76
425.16	1918.95
425.36	1744.87
425.57	1882.08
425.78	1900.52
425.98	1857.51
426.19	1726.44
426.39	1798.12
426.60	1882.08
426.81	1923.04
427.01	1826.79
427.22	1830.88
427.42	1716.20
427.63	1820.64
427.83	1834.98
428.04	1920.99
428.25	1857.51
428.45	1888.23
428.66	1900.52
428.86	1880.04
429.07	1814.50
429.28	1812.45
429.48	1820.64
429.69	1783.78
429.89	1839.08
430.10	1763.30
430.30	1830.88
430.51	1816.55
430.71	1798.12
430.92	1834.98
431.13	1812.45
431.33	1865.70
431.54	1828.84
431.74	1877.99
431.95	1884.13
432.15	1820.64
432.36	1828.84
432.56	1865.70
432.77	1941.47
432.98	1941.47
433.18	1843.17
433.39	1779.68
433.59	1732.58
433.80	1968.10
434.00	2007.01
434.21	1755.11
434.41	1746.92
434.62	1906.66
434.82	1751.01
435.03	1751.01
435.23	1839.08
435.44	1710.05
435.64	1816.55
435.85	1757.16
436.06	1865.70
436.26	1875.94
436.47	1787.88
436.67	1818.60
436.88	1783.78
437.08	1925.09
437.29	1873.89
437.49	1898.47
437.70	1900.52
437.90	1800.16
438.11	1978.34
438.31	1886.18
438.52	2035.68
438.72	2066.40
438.93	2064.35
439.13	1941.47
439.34	1916.90
439.54	1914.85
439.75	1959.91
439.95	1871.84
440.16	1818.60
440.36	1873.89
440.57	1908.71
440.77	1837.03
440.98	1841.12
441.18	1863.65
441.39	1841.12
441.59	1748.97
441.80	1939.43
442.00	1794.02
442.21	1945.57
442.41	1751.01
442.62	1855.46
442.82	1791.97
443.02	1849.32
443.23	1877.99
443.43	1863.65
443.64	1908.71
443.84	1820.64
444.05	1918.95
444.25	1857.51
444.46	1832.93
444.66	1794.02
444.87	1984.48
445.07	1771.49
445.28	1865.70
445.48	1927.14
445.69	1855.46
445.89	1968.10
446.09	1849.32
446.30	2086.88
446.50	2578.39
446.71	4016.07
446.91	5238.70
447.12	6055.84
447.32	6369.18
447.53	5633.96
447.73	4607.93
447.93	4196.29
448.14	3819.46
448.34	3583.95
448.55	3313.61
448.75	3223.50
448.96	3145.68
449.16	2750.42
449.36	2549.72
449.57	2193.37
449.77	2017.25
449.98	1964.00
450.18	1927.14
450.39	1916.90
450.59	1918.95
450.79	1804.26
451.00	1843.17
451.20	1871.84
451.41	1804.26
451.61	1888.23
451.81	1880.04
452.02	1812.45
452.22	1828.84
452.43	1900.52
452.63	1824.74
