SpectraSuite Data File
++++++++++++++++++++++++++++++++++++
Date: Wed May 04 21:13:34 CEST 2016
User: root
Dark Spectrum Present: No
Reference Spectrum Present: No
Number of Sampled Component Spectra: 1
Spectrometers: USB4C02835
Integration Time (usec): 100000 (USB4C02835)
Spectra Averaged: 1 (USB4C02835)
Boxcar Smoothing: 0 (USB4C02835)
Correct for Electrical Dark: No (USB4C02835)
Strobe/Lamp Enabled: No (USB4C02835)
Correct for Detector Non-linearity: No (USB4C02835)
Correct for Stray Light: No (USB4C02835)
Number of Pixels in Processed Spectrum: 3648
>>>>>Begin Processed Spectral Data<<<<<
177.47	1497.07
177.69	1497.07
177.91	1497.07
178.13	1505.26
178.36	1497.07
178.58	1771.49
178.80	1898.47
179.02	1710.05
179.24	1730.53
179.46	1822.69
179.68	1839.08
179.90	1783.78
180.13	1880.04
180.35	1751.01
180.57	1787.88
180.79	1865.70
181.01	1738.73
181.23	1853.41
181.45	1818.60
181.67	1763.30
181.90	1839.08
182.12	1718.25
182.34	1728.49
182.56	1794.02
182.78	1800.16
183.00	1767.40
183.22	1798.12
183.44	1755.11
183.66	1994.72
183.89	1890.28
184.11	1837.03
184.33	1847.27
184.55	1923.04
184.77	1816.55
184.99	1804.26
185.21	1787.88
185.43	1923.04
185.65	1734.63
185.87	1812.45
186.10	1865.70
186.32	1916.90
186.54	1828.84
186.76	1828.84
186.98	1869.80
187.20	1808.36
187.42	1834.98
187.64	1818.60
187.86	1880.04
188.08	1943.52
188.30	1759.21
188.52	1796.07
188.75	1873.89
188.97	1923.04
189.19	1779.68
189.41	1714.15
189.63	1855.46
189.85	1812.45
190.07	1730.53
190.29	1660.90
190.51	1781.73
190.73	1755.11
190.95	2002.91
191.17	1759.21
191.39	1710.05
191.61	1834.98
191.84	1775.59
192.06	1773.54
192.28	1714.15
192.50	1994.72
192.72	1877.99
192.94	1732.58
193.16	1808.36
193.38	1859.56
193.60	1697.77
193.82	1841.12
194.04	1808.36
194.26	1834.98
194.48	1877.99
194.70	1816.55
194.92	1710.05
195.14	1867.75
195.36	1759.21
195.58	1761.25
195.80	1804.26
196.02	1824.74
196.24	1779.68
196.46	1787.88
196.69	1777.64
196.91	1974.24
197.13	1765.35
197.35	1751.01
197.57	1906.66
197.79	1816.55
198.01	1787.88
198.23	1884.13
198.45	1925.09
198.67	1742.82
198.89	1744.87
199.11	1769.44
199.33	1699.81
199.55	1687.53
199.77	1732.58
199.99	1828.84
200.21	1724.39
200.43	1761.25
200.65	1820.64
200.87	1740.77
201.09	1834.98
201.31	1832.93
201.53	1837.03
201.75	1910.75
201.97	1804.26
202.19	1828.84
202.41	1816.55
202.63	1992.67
202.85	1851.36
203.07	1847.27
203.29	1767.40
203.51	1673.19
203.73	1744.87
203.95	2002.91
204.17	1826.79
204.39	1884.13
204.61	1828.84
204.83	1785.83
205.05	1896.42
205.27	1865.70
205.49	1902.56
205.71	1781.73
205.93	1740.77
206.15	1785.83
206.37	1804.26
206.59	1740.77
206.81	1699.81
207.03	1697.77
207.25	1781.73
207.47	1869.80
207.69	1783.78
207.91	1902.56
208.13	1855.46
208.34	1777.64
208.56	1812.45
208.78	1814.50
209.00	1814.50
209.22	1703.91
209.44	1839.08
209.66	1746.92
209.88	1798.12
210.10	1718.25
210.32	1753.06
210.54	1824.74
210.76	1777.64
210.98	1861.60
211.20	1722.34
211.42	1765.35
211.64	1925.09
211.86	1834.98
212.08	1847.27
212.30	1759.21
212.52	1808.36
212.74	1914.85
212.96	1802.21
213.17	1863.65
213.39	1914.85
213.61	1914.85
213.83	1783.78
214.05	1837.03
214.27	1849.32
214.49	1685.48
214.71	1726.44
214.93	1865.70
215.15	1816.55
215.37	1867.75
215.59	1710.05
215.81	1871.84
216.03	1857.51
216.24	1763.30
216.46	1804.26
216.68	1826.79
216.90	1859.56
217.12	1841.12
217.34	1769.44
217.56	1849.32
217.78	1857.51
218.00	1859.56
218.22	1841.12
218.44	1888.23
218.66	1845.22
218.87	1927.14
219.09	1796.07
219.31	1771.49
219.53	1867.75
219.75	1732.58
219.97	1826.79
220.19	1847.27
220.41	1804.26
220.63	1871.84
220.85	1814.50
221.06	1812.45
221.28	1943.52
221.50	1830.88
221.72	1742.82
221.94	1779.68
222.16	1763.30
222.38	1820.64
222.60	1802.21
222.82	1796.07
223.03	1855.46
223.25	1779.68
223.47	1814.50
223.69	1908.71
223.91	1816.55
224.13	1804.26
224.35	1730.53
224.57	1918.95
224.78	1804.26
225.00	1732.58
225.22	1941.47
225.44	1783.78
225.66	1828.84
225.88	1787.88
226.10	1796.07
226.32	1804.26
226.53	1931.23
226.75	1773.54
226.97	1781.73
227.19	1804.26
227.41	1847.27
227.63	1781.73
227.85	1697.77
228.06	1812.45
228.28	1853.41
228.50	1929.19
228.72	1771.49
228.94	1757.16
229.16	1728.49
229.37	1769.44
229.59	1884.13
229.81	1837.03
230.03	1796.07
230.25	1794.02
230.47	1794.02
230.69	1769.44
230.90	1882.08
231.12	1746.92
231.34	1818.60
231.56	1832.93
231.78	1695.72
232.00	1769.44
232.21	1834.98
232.43	1802.21
232.65	1660.90
232.87	1841.12
233.09	1751.01
233.30	1724.39
233.52	1826.79
233.74	1828.84
233.96	1859.56
234.18	1755.11
234.40	1847.27
234.61	1906.66
234.83	1714.15
235.05	1695.72
235.27	1929.19
235.49	1849.32
235.70	1841.12
235.92	1847.27
236.14	1855.46
236.36	1986.53
236.58	1755.11
236.79	1843.17
237.01	1761.25
237.23	1822.69
237.45	1939.43
237.67	1751.01
237.88	1820.64
238.10	1949.67
238.32	1826.79
238.54	1761.25
238.76	1783.78
238.97	1789.92
239.19	1724.39
239.41	1804.26
239.63	1771.49
239.85	1703.91
240.06	1785.83
240.28	1830.88
240.50	1837.03
240.72	1808.36
240.93	1851.36
241.15	1849.32
241.37	1755.11
241.59	1861.60
241.81	1787.88
242.02	1744.87
242.24	1804.26
242.46	1861.60
242.68	1853.41
242.89	1839.08
243.11	1832.93
243.33	1787.88
243.55	1849.32
243.76	1896.42
243.98	1830.88
244.20	1820.64
244.42	1802.21
244.64	1845.22
244.85	1777.64
245.07	1791.97
245.29	1822.69
245.51	1804.26
245.72	1828.84
245.94	1953.76
246.16	1789.92
246.38	1867.75
246.59	1851.36
246.81	1777.64
247.03	1757.16
247.24	1724.39
247.46	1763.30
247.68	1845.22
247.90	1808.36
248.11	1871.84
248.33	1837.03
248.55	1894.37
248.77	1800.16
248.98	1818.60
249.20	1898.47
249.42	1820.64
249.64	1849.32
249.85	1841.12
250.07	1767.40
250.29	1824.74
250.50	1869.80
250.72	1767.40
250.94	1863.65
251.16	1959.91
251.37	1822.69
251.59	1808.36
251.81	1837.03
252.02	1937.38
252.24	1767.40
252.46	1890.28
252.68	1765.35
252.89	1796.07
253.11	1658.85
253.33	1892.32
253.54	1757.16
253.76	1771.49
253.98	1730.53
254.20	1791.97
254.41	1714.15
254.63	1728.49
254.85	1761.25
255.06	1763.30
255.28	1826.79
255.50	1830.88
255.71	1791.97
255.93	1742.82
256.15	1779.68
256.36	1845.22
256.58	1796.07
256.80	1802.21
257.02	1777.64
257.23	1814.50
257.45	1781.73
257.67	1873.89
257.88	1802.21
258.10	1871.84
258.32	1742.82
258.53	1771.49
258.75	1904.61
258.97	1783.78
259.18	1740.77
259.40	1794.02
259.62	1925.09
259.83	1914.85
260.05	1810.40
260.27	2158.56
260.48	1906.66
260.70	1722.34
260.92	1783.78
261.13	1873.89
261.35	1834.98
261.57	1812.45
261.78	1712.10
262.00	1783.78
262.22	1867.75
262.43	1718.25
262.65	1834.98
262.86	1753.06
263.08	1949.67
263.30	1769.44
263.51	1693.67
263.73	1724.39
263.95	1916.90
264.16	1708.01
264.38	1705.96
264.60	1810.40
264.81	1802.21
265.03	1902.56
265.25	1863.65
265.46	1751.01
265.68	1834.98
265.89	1896.42
266.11	1722.34
266.33	1918.95
266.54	1773.54
266.76	1914.85
266.98	1824.74
267.19	1896.42
267.41	1785.83
267.62	1828.84
267.84	1687.53
268.06	1814.50
268.27	1804.26
268.49	1814.50
268.70	1861.60
268.92	1832.93
269.14	1708.01
269.35	1724.39
269.57	1787.88
269.79	1871.84
270.00	1714.15
270.22	1843.17
270.43	1765.35
270.65	1650.66
270.87	1781.73
271.08	1871.84
271.30	1873.89
271.51	1755.11
271.73	1826.79
271.95	1855.46
272.16	1816.55
272.38	1853.41
272.59	1738.73
272.81	1832.93
273.02	1845.22
273.24	1837.03
273.46	1871.84
273.67	1712.10
273.89	1746.92
274.10	1761.25
274.32	1923.04
274.54	1826.79
274.75	1779.68
274.97	1751.01
275.18	1816.55
275.40	1824.74
275.61	1820.64
275.83	1869.80
276.05	1708.01
276.26	1802.21
276.48	1865.70
276.69	1763.30
276.91	1757.16
277.12	1894.37
277.34	1816.55
277.55	1826.79
277.77	1775.59
277.99	1796.07
278.20	1736.68
278.42	1726.44
278.63	1783.78
278.85	1820.64
279.06	1726.44
279.28	1875.94
279.49	1886.18
279.71	1904.61
279.93	1812.45
280.14	1775.59
280.36	1763.30
280.57	1847.27
280.79	1959.91
281.00	1755.11
281.22	1818.60
281.43	1857.51
281.65	1710.05
281.86	1789.92
282.08	1798.12
282.29	1896.42
282.51	1730.53
282.73	1771.49
282.94	1722.34
283.16	1896.42
283.37	1992.67
283.59	1873.89
283.80	1822.69
284.02	1767.40
284.23	1806.31
284.45	1798.12
284.66	1763.30
284.88	1738.73
285.09	1853.41
285.31	1877.99
285.52	1859.56
285.74	1710.05
285.95	1820.64
286.17	1871.84
286.38	1923.04
286.60	1818.60
286.81	1763.30
287.03	1812.45
287.24	1853.41
287.46	1849.32
287.67	1828.84
287.89	1964.00
288.10	1828.84
288.32	1810.40
288.53	1773.54
288.75	1832.93
288.96	1804.26
289.18	1773.54
289.39	1791.97
289.61	1888.23
289.82	1914.85
290.04	1939.43
290.25	1746.92
290.47	1884.13
290.68	1820.64
290.90	1877.99
291.11	1714.15
291.33	1849.32
291.54	1740.77
291.76	1775.59
291.97	1855.46
292.18	1789.92
292.40	1746.92
292.61	1732.58
292.83	2007.01
293.04	1837.03
293.26	1789.92
293.47	1708.01
293.69	1761.25
293.90	1751.01
294.12	1834.98
294.33	1783.78
294.55	1736.68
294.76	1851.36
294.97	1957.86
295.19	1972.19
295.40	1834.98
295.62	1853.41
295.83	1822.69
296.05	1779.68
296.26	1841.12
296.48	1808.36
296.69	1791.97
296.90	1816.55
297.12	1855.46
297.33	1898.47
297.55	1853.41
297.76	1826.79
297.98	1822.69
298.19	1814.50
298.41	1814.50
298.62	1787.88
298.83	1849.32
299.05	1847.27
299.26	1802.21
299.48	1791.97
299.69	1853.41
299.90	1867.75
300.12	1755.11
300.33	1933.28
300.55	1812.45
300.76	1865.70
300.98	1697.77
301.19	1896.42
301.40	1810.40
301.62	1791.97
301.83	1779.68
302.05	1832.93
302.26	1712.10
302.47	1900.52
302.69	1748.97
302.90	1808.36
303.12	1621.99
303.33	1832.93
303.54	1873.89
303.76	1796.07
303.97	1779.68
304.19	1972.19
304.40	1802.21
304.61	1902.56
304.83	1949.67
305.04	1929.19
305.26	1828.84
305.47	1806.31
305.68	1810.40
305.90	1691.62
306.11	1898.47
306.33	1806.31
306.54	1748.97
306.75	1763.30
306.97	1687.53
307.18	1718.25
307.39	1759.21
307.61	1931.23
307.82	1783.78
308.04	1822.69
308.25	1777.64
308.46	1857.51
308.68	1796.07
308.89	1832.93
309.10	1859.56
309.32	1888.23
309.53	1763.30
309.74	1789.92
309.96	1806.31
310.17	1810.40
310.39	1791.97
310.60	1787.88
310.81	1814.50
311.03	1746.92
311.24	1826.79
311.45	1832.93
311.67	1923.04
311.88	1775.59
312.09	1771.49
312.31	1757.16
312.52	1820.64
312.73	1812.45
312.95	1685.48
313.16	1775.59
313.37	1890.28
313.59	1837.03
313.80	1841.12
314.01	1863.65
314.23	1884.13
314.44	1796.07
314.65	1769.44
314.87	1775.59
315.08	1796.07
315.29	1732.58
315.51	1705.96
315.72	1828.84
315.93	1912.80
316.15	1935.33
316.36	1785.83
316.57	1824.74
316.79	1839.08
317.00	1771.49
317.21	1824.74
317.43	1779.68
317.64	1816.55
317.85	1785.83
318.07	1796.07
318.28	1912.80
318.49	2011.11
318.70	2131.94
318.92	2029.54
319.13	1976.29
319.34	2068.45
319.56	1859.56
319.77	1890.28
319.98	1910.75
320.20	1939.43
320.41	1918.95
320.62	1923.04
320.83	1779.68
321.05	1894.37
321.26	1841.12
321.47	1837.03
321.69	1918.95
321.90	1722.34
322.11	1773.54
322.32	1796.07
322.54	1925.09
322.75	1732.58
322.96	1996.77
323.18	1748.97
323.39	1681.38
323.60	1728.49
323.81	1900.52
324.03	1791.97
324.24	1789.92
324.45	1810.40
324.66	1714.15
324.88	1871.84
325.09	1839.08
325.30	1773.54
325.52	1779.68
325.73	1890.28
325.94	1685.48
326.15	1738.73
326.37	1820.64
326.58	1796.07
326.79	1943.52
327.00	1728.49
327.22	1875.94
327.43	1779.68
327.64	1851.36
327.85	1877.99
328.07	1861.60
328.28	1918.95
328.49	1798.12
328.70	1751.01
328.92	1804.26
329.13	1789.92
329.34	1814.50
329.55	1966.05
329.76	1898.47
329.98	1796.07
330.19	2015.20
330.40	1865.70
330.61	1734.63
330.83	1812.45
331.04	1798.12
331.25	1757.16
331.46	1767.40
331.68	1794.02
331.89	1916.90
332.10	1849.32
332.31	1697.77
332.52	1818.60
332.74	1851.36
332.95	1744.87
333.16	1796.07
333.37	1834.98
333.58	1763.30
333.80	1851.36
334.01	1726.44
334.22	1779.68
334.43	1818.60
334.64	1824.74
334.86	1734.63
335.07	1808.36
335.28	1871.84
335.49	1753.06
335.70	1775.59
335.92	1894.37
336.13	1966.05
336.34	1826.79
336.55	1845.22
336.76	1832.93
336.98	1722.34
337.19	1802.21
337.40	1920.99
337.61	1957.86
337.82	1794.02
338.04	1830.88
338.25	1691.62
338.46	1742.82
338.67	1726.44
338.88	1773.54
339.09	1773.54
339.31	1701.86
339.52	1794.02
339.73	1718.25
339.94	1748.97
340.15	1800.16
340.36	1777.64
340.58	1796.07
340.79	1755.11
341.00	1910.75
341.21	1806.31
341.42	1972.19
341.63	1783.78
341.85	1890.28
342.06	1806.31
342.27	1693.67
342.48	1888.23
342.69	1748.97
342.90	1882.08
343.12	1871.84
343.33	1830.88
343.54	1918.95
343.75	1923.04
343.96	1751.01
344.17	1775.59
344.38	1802.21
344.60	1781.73
344.81	1796.07
345.02	1830.88
345.23	1830.88
345.44	1996.77
345.65	1906.66
345.86	1861.60
346.07	1789.92
346.29	1787.88
346.50	1916.90
346.71	1796.07
346.92	1861.60
347.13	1982.43
347.34	1824.74
347.55	1779.68
347.76	1773.54
347.98	1757.16
348.19	1738.73
348.40	1894.37
348.61	1769.44
348.82	1914.85
349.03	1869.80
349.24	1740.77
349.45	1945.57
349.66	1730.53
349.88	1746.92
350.09	1761.25
350.30	1877.99
350.51	1888.23
350.72	1783.78
350.93	1767.40
351.14	1806.31
351.35	1859.56
351.56	1748.97
351.77	1869.80
351.99	1959.91
352.20	1984.48
352.41	1886.18
352.62	1679.33
352.83	1808.36
353.04	1779.68
353.25	1724.39
353.46	1947.62
353.67	1851.36
353.88	1726.44
354.09	1806.31
354.30	1800.16
354.52	1832.93
354.73	1787.88
354.94	1781.73
355.15	1820.64
355.36	1890.28
355.57	1796.07
355.78	1853.41
355.99	1718.25
356.20	1744.87
356.41	1900.52
356.62	1822.69
356.83	1781.73
357.04	1906.66
357.25	1689.57
357.46	1820.64
357.68	1710.05
357.89	1701.86
358.10	1802.21
358.31	1849.32
358.52	1783.78
358.73	1697.77
358.94	1802.21
359.15	1736.68
359.36	1877.99
359.57	1787.88
359.78	1849.32
359.99	1843.17
360.20	1804.26
360.41	1859.56
360.62	1837.03
360.83	1814.50
361.04	1863.65
361.25	1927.14
361.46	1877.99
361.67	1865.70
361.88	1898.47
362.09	1896.42
362.30	1882.08
362.51	1837.03
362.72	1877.99
362.93	1875.94
363.14	1845.22
363.35	1789.92
363.56	1705.96
363.78	1910.75
363.99	1898.47
364.20	1816.55
364.41	1890.28
364.62	1974.24
364.83	1781.73
365.04	1765.35
365.25	1843.17
365.46	1955.81
365.67	1775.59
365.88	1796.07
366.09	1763.30
366.30	1777.64
366.51	1802.21
366.72	1794.02
366.93	1773.54
367.14	1738.73
367.35	1867.75
367.56	1814.50
367.77	1908.71
367.98	1841.12
368.18	1812.45
368.39	1865.70
368.60	1748.97
368.81	1869.80
369.02	1834.98
369.23	1736.68
369.44	1759.21
369.65	1753.06
369.86	1834.98
370.07	1933.28
370.28	1796.07
370.49	1853.41
370.70	1886.18
370.91	1765.35
371.12	1669.09
371.33	2002.91
371.54	1740.77
371.75	1869.80
371.96	1656.81
372.17	1875.94
372.38	1816.55
372.59	1851.36
372.80	1740.77
373.01	1845.22
373.22	1886.18
373.43	1808.36
373.64	1791.97
373.85	1886.18
374.06	1925.09
374.26	1814.50
374.47	1839.08
374.68	1806.31
374.89	1828.84
375.10	1824.74
375.31	1859.56
375.52	1826.79
375.73	1822.69
375.94	1771.49
376.15	1937.38
376.36	1767.40
376.57	1759.21
376.78	1718.25
376.99	1865.70
377.20	1931.23
377.40	1859.56
377.61	1966.05
377.82	1806.31
378.03	1943.52
378.24	1781.73
378.45	1861.60
378.66	1814.50
378.87	1687.53
379.08	1794.02
379.29	1853.41
379.50	1927.14
379.71	1798.12
379.91	1900.52
380.12	1773.54
380.33	1849.32
380.54	1798.12
380.75	1841.12
380.96	1791.97
381.17	1910.75
381.38	1818.60
381.59	1886.18
381.80	1871.84
382.00	1933.28
382.21	1914.85
382.42	1933.28
382.63	2017.25
382.84	1853.41
383.05	1961.95
383.26	1908.71
383.47	1871.84
383.68	1812.45
383.88	1865.70
384.09	1828.84
384.30	1986.53
384.51	1800.16
384.72	1802.21
384.93	1689.57
385.14	1791.97
385.35	1822.69
385.55	1732.58
385.76	1918.95
385.97	1834.98
386.18	1787.88
386.39	1791.97
386.60	1824.74
386.81	1861.60
387.02	1755.11
387.22	1736.68
387.43	1888.23
387.64	1886.18
387.85	2017.25
388.06	2150.37
388.27	4290.49
388.48	8761.21
388.68	11777.87
388.89	13915.95
389.10	14776.09
389.31	12963.64
389.52	10307.43
389.73	9242.48
389.93	8327.04
390.14	7505.81
390.35	6975.38
390.56	6180.77
390.77	5148.59
390.98	3989.44
391.18	3112.91
391.39	2512.86
391.60	2090.98
391.81	2029.54
392.02	1798.12
392.23	1978.34
392.43	1945.57
392.64	1929.19
392.85	1863.65
393.06	1953.76
393.27	1880.04
393.47	1775.59
393.68	1837.03
393.89	1830.88
394.10	1830.88
394.31	1775.59
394.52	1824.74
394.72	1736.68
394.93	1943.52
395.14	1691.62
395.35	1863.65
395.56	1720.29
395.76	1777.64
395.97	1916.90
396.18	2002.91
396.39	1959.91
396.60	2131.94
396.80	2082.78
397.01	2025.44
397.22	1974.24
397.43	1867.75
397.64	1931.23
397.84	1957.86
398.05	2019.30
398.26	1869.80
398.47	1880.04
398.67	1959.91
398.88	1832.93
399.09	1888.23
399.30	1841.12
399.51	1812.45
399.71	1773.54
399.92	1863.65
400.13	1910.75
400.34	1873.89
400.54	1808.36
400.75	1877.99
400.96	1859.56
401.17	1875.94
401.37	1828.84
401.58	1841.12
401.79	1796.07
402.00	1931.23
402.21	2230.24
402.41	2090.98
402.62	2226.14
402.83	2271.20
403.04	2289.63
403.24	2275.29
403.45	1984.48
403.66	2115.55
403.87	2029.54
404.07	2054.11
404.28	2068.45
404.49	2050.02
404.70	1906.66
404.90	1964.00
405.11	1822.69
405.32	1781.73
405.52	1748.97
405.73	1814.50
405.94	1708.01
406.15	1830.88
406.35	1941.47
406.56	1859.56
406.77	1826.79
406.98	1822.69
407.18	1751.01
407.39	1980.39
407.60	1841.12
407.80	1832.93
408.01	1763.30
408.22	1900.52
408.43	1814.50
408.63	1863.65
408.84	1869.80
409.05	1957.86
409.25	1779.68
409.46	1894.37
409.67	1759.21
409.88	1757.16
410.08	1855.46
410.29	1806.31
410.50	1869.80
410.70	1845.22
410.91	1767.40
411.12	1863.65
411.32	1804.26
411.53	1748.97
411.74	1947.62
411.95	1859.56
412.15	1912.80
412.36	1951.71
412.57	1937.38
412.77	1867.75
412.98	1818.60
413.19	1812.45
413.39	1920.99
413.60	1855.46
413.81	1914.85
414.01	1765.35
414.22	1906.66
414.43	1918.95
414.63	1837.03
414.84	1937.38
415.05	1804.26
415.25	1753.06
415.46	1955.81
415.67	1769.44
415.87	1900.52
416.08	1787.88
416.29	1746.92
416.49	1931.23
416.70	1875.94
416.91	1796.07
417.11	1798.12
417.32	1853.41
417.53	1920.99
417.73	1859.56
417.94	1814.50
418.15	1740.77
418.35	1796.07
418.56	1898.47
418.77	1955.81
418.97	1914.85
419.18	1820.64
419.38	1624.04
419.59	1847.27
419.80	1912.80
420.00	1830.88
420.21	1894.37
420.42	1888.23
420.62	1828.84
420.83	1728.49
421.04	1789.92
421.24	1810.40
421.45	1828.84
421.65	1802.21
421.86	1845.22
422.07	1877.99
422.27	1794.02
422.48	1802.21
422.69	1755.11
422.89	1794.02
423.10	1806.31
423.30	1687.53
423.51	1834.98
423.72	1841.12
423.92	1816.55
424.13	1691.62
424.33	1824.74
424.54	1894.37
424.75	1832.93
424.95	2021.35
425.16	1863.65
425.36	1802.21
425.57	1890.28
425.78	1789.92
425.98	1861.60
426.19	1742.82
426.39	1738.73
426.60	1865.70
426.81	1929.19
427.01	1798.12
427.22	1832.93
427.42	1671.14
427.63	1742.82
427.83	1845.22
428.04	1863.65
428.25	1888.23
428.45	1910.75
428.66	1869.80
428.86	1810.40
429.07	1818.60
429.28	1845.22
429.48	1789.92
429.69	1736.68
429.89	1806.31
430.10	1779.68
430.30	1855.46
430.51	1857.51
430.71	1781.73
430.92	1818.60
431.13	1791.97
431.33	1849.32
431.54	1839.08
431.74	1914.85
431.95	1978.34
432.15	1751.01
432.36	1794.02
432.56	1875.94
432.77	1976.29
432.98	1943.52
433.18	1808.36
433.39	1845.22
433.59	1822.69
433.80	1955.81
434.00	1957.86
434.21	1785.83
434.41	1759.21
434.62	1974.24
434.82	1853.41
435.03	1742.82
435.23	1900.52
435.44	1665.00
435.64	1877.99
435.85	1857.51
436.06	1968.10
436.26	1865.70
436.47	1781.73
436.67	1773.54
436.88	1845.22
437.08	1896.42
437.29	1882.08
437.49	1810.40
437.70	1855.46
437.90	1859.56
438.11	1920.99
438.31	1894.37
438.52	1998.82
438.72	1959.91
438.93	2060.26
439.13	1947.62
439.34	1978.34
439.54	1828.84
439.75	1906.66
439.95	1931.23
440.16	1857.51
440.36	1894.37
440.57	1877.99
440.77	1937.38
440.98	1810.40
441.18	1869.80
441.39	1826.79
441.59	1734.63
441.80	2017.25
442.00	1767.40
442.21	1927.14
442.41	1742.82
442.62	1961.95
442.82	1779.68
443.02	1927.14
443.23	1777.64
443.43	1794.02
443.64	1976.29
443.84	1769.44
444.05	2080.74
444.25	1841.12
444.46	1820.64
444.66	1787.88
444.87	1857.51
445.07	1734.63
445.28	1781.73
445.48	1959.91
445.69	1894.37
445.89	1953.76
446.09	1931.23
446.30	2136.03
446.50	2639.83
446.71	4149.18
446.91	5081.01
447.12	5908.39
447.32	6317.98
447.53	5568.43
447.73	4741.05
447.93	4118.47
448.14	3837.89
448.34	3641.29
448.55	3231.69
448.75	3188.69
448.96	2994.13
449.16	2748.37
449.36	2521.05
449.57	2299.87
449.77	2047.97
449.98	1781.73
450.18	1927.14
450.39	1939.43
450.59	1855.46
450.79	1890.28
451.00	1759.21
451.20	1961.95
451.41	1796.07
451.61	1859.56
451.81	1812.45
452.02	1869.80
452.22	1759.21
452.43	1855.46
452.63	1877.99
