SpectraSuite Data File
++++++++++++++++++++++++++++++++++++
Date: Wed May 04 21:13:45 CEST 2016
User: root
Dark Spectrum Present: No
Reference Spectrum Present: No
Number of Sampled Component Spectra: 1
Spectrometers: USB4C02835
Integration Time (usec): 100000 (USB4C02835)
Spectra Averaged: 1 (USB4C02835)
Boxcar Smoothing: 0 (USB4C02835)
Correct for Electrical Dark: No (USB4C02835)
Strobe/Lamp Enabled: No (USB4C02835)
Correct for Detector Non-linearity: No (USB4C02835)
Correct for Stray Light: No (USB4C02835)
Number of Pixels in Processed Spectrum: 3648
>>>>>Begin Processed Spectral Data<<<<<
177.47	1628.14
177.69	1628.14
177.91	1628.14
178.13	1542.12
178.36	1509.35
178.58	1781.73
178.80	1798.12
179.02	1718.25
179.24	1755.11
179.46	1775.59
179.68	1837.03
179.90	1851.36
180.13	1804.26
180.35	1714.15
180.57	1732.58
180.79	1875.94
181.01	1789.92
181.23	1822.69
181.45	1923.04
181.67	1794.02
181.90	1853.41
182.12	1804.26
182.34	1765.35
182.56	1730.53
182.78	1898.47
183.00	1753.06
183.22	1779.68
183.44	1734.63
183.66	2009.06
183.89	1890.28
184.11	1816.55
184.33	1865.70
184.55	1861.60
184.77	1892.32
184.99	1804.26
185.21	1861.60
185.43	2000.87
185.65	1806.31
185.87	1791.97
186.10	1810.40
186.32	1898.47
186.54	1814.50
186.76	1888.23
186.98	1898.47
187.20	1773.54
187.42	1828.84
187.64	1822.69
187.86	1888.23
188.08	1880.04
188.30	1748.97
188.52	1804.26
188.75	1908.71
188.97	1890.28
189.19	1746.92
189.41	1800.16
189.63	1761.25
189.85	1767.40
190.07	1746.92
190.29	1667.05
190.51	1863.65
190.73	1693.67
190.95	1906.66
191.17	1781.73
191.39	1683.43
191.61	1718.25
191.84	1730.53
192.06	1851.36
192.28	1724.39
192.50	2013.15
192.72	1886.18
192.94	1728.49
193.16	1931.23
193.38	1777.64
193.60	1785.83
193.82	1720.29
194.04	1890.28
194.26	1871.84
194.48	1796.07
194.70	1777.64
194.92	1877.99
195.14	1888.23
195.36	1771.49
195.58	1746.92
195.80	1804.26
196.02	1689.57
196.24	1781.73
196.46	1789.92
196.69	1802.21
196.91	1941.47
197.13	1802.21
197.35	1810.40
197.57	1853.41
197.79	1935.33
198.01	1796.07
198.23	1839.08
198.45	1900.52
198.67	1699.81
198.89	1802.21
199.11	1853.41
199.33	1781.73
199.55	1722.34
199.77	1732.58
199.99	1951.71
200.21	1771.49
200.43	1794.02
200.65	1765.35
200.87	1744.87
201.09	1777.64
201.31	1812.45
201.53	1800.16
201.75	1882.08
201.97	1798.12
202.19	1783.78
202.41	1853.41
202.63	1996.77
202.85	1865.70
203.07	1816.55
203.29	1781.73
203.51	1730.53
203.73	1759.21
203.95	2133.98
204.17	1859.56
204.39	1812.45
204.61	1787.88
204.83	1777.64
205.05	1824.74
205.27	1820.64
205.49	1898.47
205.71	1804.26
205.93	1693.67
206.15	1808.36
206.37	1755.11
206.59	1882.08
206.81	1728.49
207.03	1771.49
207.25	1765.35
207.47	1820.64
207.69	1927.14
207.91	1886.18
208.13	1898.47
208.34	1773.54
208.56	1767.40
208.78	1890.28
209.00	1796.07
209.22	1718.25
209.44	1708.01
209.66	1753.06
209.88	1820.64
210.10	1820.64
210.32	1787.88
210.54	1820.64
210.76	1769.44
210.98	1918.95
211.20	1669.09
211.42	1894.37
211.64	1933.28
211.86	1857.51
212.08	1851.36
212.30	1834.98
212.52	1691.62
212.74	1853.41
212.96	1800.16
213.17	1884.13
213.39	1912.80
213.61	1904.61
213.83	1837.03
214.05	1812.45
214.27	1925.09
214.49	1753.06
214.71	1777.64
214.93	1914.85
215.15	1800.16
215.37	1845.22
215.59	1703.91
215.81	1787.88
216.03	1861.60
216.24	1841.12
216.46	1753.06
216.68	1787.88
216.90	1826.79
217.12	1904.61
217.34	1798.12
217.56	1755.11
217.78	1859.56
218.00	1884.13
218.22	1814.50
218.44	1867.75
218.66	1773.54
218.87	1920.99
219.09	1763.30
219.31	1851.36
219.53	1863.65
219.75	1773.54
219.97	1812.45
220.19	1818.60
220.41	1773.54
220.63	1918.95
220.85	1763.30
221.06	1828.84
221.28	1841.12
221.50	1882.08
221.72	1888.23
221.94	1824.74
222.16	1818.60
222.38	1896.42
222.60	1816.55
222.82	1775.59
223.03	1826.79
223.25	1693.67
223.47	1853.41
223.69	1986.53
223.91	1865.70
224.13	1857.51
224.35	1779.68
224.57	1906.66
224.78	1808.36
225.00	1730.53
225.22	1748.97
225.44	1796.07
225.66	1843.17
225.88	1810.40
226.10	1869.80
226.32	1832.93
226.53	1834.98
226.75	1849.32
226.97	1855.46
227.19	1845.22
227.41	1769.44
227.63	1808.36
227.85	1744.87
228.06	1834.98
228.28	1783.78
228.50	1945.57
228.72	1740.77
228.94	1734.63
229.16	1712.10
229.37	1773.54
229.59	1800.16
229.81	1857.51
230.03	1765.35
230.25	1746.92
230.47	1742.82
230.69	1697.77
230.90	1873.89
231.12	1740.77
231.34	1877.99
231.56	1910.75
231.78	1712.10
232.00	1834.98
232.21	1849.32
232.43	1763.30
232.65	1740.77
232.87	1796.07
233.09	1751.01
233.30	1826.79
233.52	1746.92
233.74	1818.60
233.96	1761.25
234.18	1775.59
234.40	1775.59
234.61	1851.36
234.83	1701.86
235.05	1738.73
235.27	1996.77
235.49	1882.08
235.70	1769.44
235.92	1886.18
236.14	1812.45
236.36	2017.25
236.58	1724.39
236.79	1845.22
237.01	1767.40
237.23	1777.64
237.45	1849.32
237.67	1722.34
237.88	1769.44
238.10	1964.00
238.32	1755.11
238.54	1742.82
238.76	1824.74
238.97	1773.54
239.19	1765.35
239.41	1894.37
239.63	1935.33
239.85	1800.16
240.06	1785.83
240.28	1748.97
240.50	1904.61
240.72	1837.03
240.93	1738.73
241.15	1861.60
241.37	1816.55
241.59	1877.99
241.81	1744.87
242.02	1804.26
242.24	1783.78
242.46	1820.64
242.68	1787.88
242.89	1830.88
243.11	1867.75
243.33	1742.82
243.55	1779.68
243.76	1869.80
243.98	1773.54
244.20	1822.69
244.42	1828.84
244.64	1820.64
244.85	1689.57
245.07	1771.49
245.29	1843.17
245.51	1847.27
245.72	1820.64
245.94	1863.65
246.16	1875.94
246.38	1863.65
246.59	1748.97
246.81	1814.50
247.03	1736.68
247.24	1759.21
247.46	1714.15
247.68	1789.92
247.90	1710.05
248.11	1765.35
248.33	1822.69
248.55	1798.12
248.77	1783.78
248.98	1861.60
249.20	1968.10
249.42	1834.98
249.64	1789.92
249.85	1785.83
250.07	1773.54
250.29	1830.88
250.50	1841.12
250.72	1722.34
250.94	1783.78
251.16	1961.95
251.37	1828.84
251.59	1818.60
251.81	1822.69
252.02	1841.12
252.24	1748.97
252.46	1890.28
252.68	1802.21
252.89	1867.75
253.11	1775.59
253.33	1943.52
253.54	1875.94
253.76	1759.21
253.98	1748.97
254.20	1832.93
254.41	1769.44
254.63	1828.84
254.85	1701.86
255.06	1830.88
255.28	1834.98
255.50	1822.69
255.71	1732.58
255.93	1728.49
256.15	1734.63
256.36	1798.12
256.58	1769.44
256.80	1802.21
257.02	1728.49
257.23	1859.56
257.45	1810.40
257.67	1871.84
257.88	1777.64
258.10	1886.18
258.32	1769.44
258.53	1830.88
258.75	1945.57
258.97	1765.35
259.18	1779.68
259.40	1767.40
259.62	1900.52
259.83	1865.70
260.05	1857.51
260.27	2109.41
260.48	1820.64
260.70	1746.92
260.92	1861.60
261.13	1841.12
261.35	1796.07
261.57	1894.37
261.78	1755.11
262.00	1665.00
262.22	1845.22
262.43	1718.25
262.65	1816.55
262.86	1830.88
263.08	1933.28
263.30	1822.69
263.51	1693.67
263.73	1730.53
263.95	1951.71
264.16	1730.53
264.38	1802.21
264.60	1802.21
264.81	1834.98
265.03	1898.47
265.25	1890.28
265.46	1787.88
265.68	1939.43
265.89	1861.60
266.11	1693.67
266.33	1890.28
266.54	1841.12
266.76	1941.47
266.98	1855.46
267.19	1908.71
267.41	1837.03
267.62	1748.97
267.84	1744.87
268.06	1853.41
268.27	1800.16
268.49	1871.84
268.70	1861.60
268.92	1832.93
269.14	1720.29
269.35	1736.68
269.57	1798.12
269.79	1812.45
270.00	1845.22
270.22	1904.61
270.43	1812.45
270.65	1630.18
270.87	1849.32
271.08	1824.74
271.30	1828.84
271.51	1851.36
271.73	1894.37
271.95	1902.56
272.16	1818.60
272.38	1802.21
272.59	1818.60
272.81	1806.31
273.02	1896.42
273.24	1857.51
273.46	1896.42
273.67	1736.68
273.89	1730.53
274.10	1705.96
274.32	1849.32
274.54	1880.04
274.75	1789.92
274.97	1753.06
275.18	1865.70
275.40	1808.36
275.61	1771.49
275.83	1783.78
276.05	1763.30
276.26	1812.45
276.48	1824.74
276.69	1624.04
276.91	1755.11
277.12	1863.65
277.34	1902.56
277.55	1888.23
277.77	1769.44
277.99	1800.16
278.20	1828.84
278.42	1712.10
278.63	1728.49
278.85	1742.82
279.06	1804.26
279.28	1861.60
279.49	1900.52
279.71	1890.28
279.93	1869.80
280.14	1757.16
280.36	1738.73
280.57	1863.65
280.79	1906.66
281.00	1759.21
281.22	1736.68
281.43	1851.36
281.65	1660.90
281.86	1734.63
282.08	1841.12
282.29	2002.91
282.51	1732.58
282.73	1722.34
282.94	1703.91
283.16	1877.99
283.37	1912.80
283.59	1849.32
283.80	1751.01
284.02	1716.20
284.23	1849.32
284.45	1759.21
284.66	1718.25
284.88	1775.59
285.09	1834.98
285.31	1859.56
285.52	1830.88
285.74	1744.87
285.95	1877.99
286.17	1822.69
286.38	1920.99
286.60	1732.58
286.81	1738.73
287.03	1853.41
287.24	1812.45
287.46	1802.21
287.67	1853.41
287.89	1886.18
288.10	1853.41
288.32	1802.21
288.53	1859.56
288.75	1822.69
288.96	1816.55
289.18	1802.21
289.39	1816.55
289.61	1904.61
289.82	1929.19
290.04	1943.52
290.25	1769.44
290.47	1769.44
290.68	1759.21
290.90	1890.28
291.11	1755.11
291.33	1890.28
291.54	1757.16
291.76	1724.39
291.97	1863.65
292.18	1802.21
292.40	1787.88
292.61	1755.11
292.83	1961.95
293.04	1855.46
293.26	1877.99
293.47	1822.69
293.69	1753.06
293.90	1767.40
294.12	1871.84
294.33	1847.27
294.55	1710.05
294.76	1902.56
294.97	1853.41
295.19	1953.76
295.40	1816.55
295.62	1875.94
295.83	1886.18
296.05	1767.40
296.26	1853.41
296.48	1837.03
296.69	1753.06
296.90	1830.88
297.12	1894.37
297.33	1861.60
297.55	1818.60
297.76	1896.42
297.98	1869.80
298.19	1873.89
298.41	1789.92
298.62	1755.11
298.83	1882.08
299.05	1837.03
299.26	1787.88
299.48	1763.30
299.69	1920.99
299.90	1757.16
300.12	1759.21
300.33	1898.47
300.55	1851.36
300.76	1791.97
300.98	1722.34
301.19	1849.32
301.40	1785.83
301.62	1787.88
301.83	1818.60
302.05	1787.88
302.26	1738.73
302.47	1806.31
302.69	1794.02
302.90	1867.75
303.12	1687.53
303.33	1847.27
303.54	2019.30
303.76	1759.21
303.97	1871.84
304.19	1877.99
304.40	1720.29
304.61	1937.38
304.83	1988.58
305.04	1914.85
305.26	1871.84
305.47	1822.69
305.68	1785.83
305.90	1681.38
306.11	1857.51
306.33	1855.46
306.54	1755.11
306.75	1734.63
306.97	1753.06
307.18	1789.92
307.39	1785.83
307.61	1820.64
307.82	1828.84
308.04	1843.17
308.25	1818.60
308.46	1824.74
308.68	1845.22
308.89	1869.80
309.10	1822.69
309.32	1882.08
309.53	1726.44
309.74	1884.13
309.96	1849.32
310.17	1957.86
310.39	1767.40
310.60	1927.14
310.81	1789.92
311.03	1779.68
311.24	1851.36
311.45	1738.73
311.67	1947.62
311.88	1859.56
312.09	1783.78
312.31	1783.78
312.52	1798.12
312.73	1753.06
312.95	1701.86
313.16	1767.40
313.37	1886.18
313.59	1853.41
313.80	1894.37
314.01	1886.18
314.23	1753.06
314.44	1769.44
314.65	1773.54
314.87	1763.30
315.08	1789.92
315.29	1789.92
315.51	1804.26
315.72	1701.86
315.93	1939.43
316.15	1916.90
316.36	1783.78
316.57	1890.28
316.79	1859.56
317.00	1781.73
317.21	1869.80
317.43	1787.88
317.64	1822.69
317.85	1755.11
318.07	1791.97
318.28	1884.13
318.49	1984.48
318.70	1992.67
318.92	1984.48
319.13	1984.48
319.34	2050.02
319.56	1880.04
319.77	1933.28
319.98	1935.33
320.20	1976.29
320.41	1863.65
320.62	1912.80
320.83	1722.34
321.05	1943.52
321.26	1906.66
321.47	1830.88
321.69	1855.46
321.90	1810.40
322.11	1705.96
322.32	1920.99
322.54	1888.23
322.75	1796.07
322.96	1855.46
323.18	1728.49
323.39	1765.35
323.60	1861.60
323.81	1880.04
324.03	1732.58
324.24	1871.84
324.45	1826.79
324.66	1816.55
324.88	1931.23
325.09	1892.32
325.30	1814.50
325.52	1837.03
325.73	1845.22
325.94	1685.48
326.15	1677.29
326.37	1748.97
326.58	1877.99
326.79	1849.32
327.00	1779.68
327.22	1873.89
327.43	1777.64
327.64	1701.86
327.85	1832.93
328.07	1802.21
328.28	2000.87
328.49	1820.64
328.70	1847.27
328.92	1886.18
329.13	1812.45
329.34	1888.23
329.55	1882.08
329.76	1884.13
329.98	1869.80
330.19	1935.33
330.40	1861.60
330.61	1785.83
330.83	1890.28
331.04	1742.82
331.25	1791.97
331.46	1726.44
331.68	1724.39
331.89	1941.47
332.10	1748.97
332.31	1804.26
332.52	1798.12
332.74	1843.17
332.95	1710.05
333.16	1775.59
333.37	1927.14
333.58	1740.77
333.80	1822.69
334.01	1779.68
334.22	1759.21
334.43	1777.64
334.64	1759.21
334.86	1785.83
335.07	1767.40
335.28	1896.42
335.49	1708.01
335.70	1853.41
335.92	1845.22
336.13	1970.15
336.34	1959.91
336.55	1843.17
336.76	1845.22
336.98	1748.97
337.19	1759.21
337.40	1857.51
337.61	2031.58
337.82	1837.03
338.04	1781.73
338.25	1730.53
338.46	1804.26
338.67	1783.78
338.88	1773.54
339.09	1767.40
339.31	1832.93
339.52	1785.83
339.73	1757.16
339.94	1763.30
340.15	1935.33
340.36	1791.97
340.58	1798.12
340.79	1806.31
341.00	1841.12
341.21	1781.73
341.42	1947.62
341.63	1812.45
341.85	1847.27
342.06	1843.17
342.27	1783.78
342.48	1845.22
342.69	1787.88
342.90	1802.21
343.12	1832.93
343.33	1806.31
343.54	1896.42
343.75	1851.36
343.96	1777.64
344.17	1814.50
344.38	1843.17
344.60	1777.64
344.81	1751.01
345.02	1722.34
345.23	1892.32
345.44	1947.62
345.65	1884.13
345.86	1818.60
346.07	1849.32
346.29	1753.06
346.50	1900.52
346.71	1789.92
346.92	1914.85
347.13	1955.81
347.34	1894.37
347.55	1755.11
347.76	1812.45
347.98	1757.16
348.19	1773.54
348.40	1902.56
348.61	1796.07
348.82	1877.99
349.03	1855.46
349.24	1796.07
349.45	1945.57
349.66	1687.53
349.88	1863.65
350.09	1738.73
350.30	1974.24
350.51	1945.57
350.72	1820.64
350.93	1783.78
351.14	1785.83
351.35	1855.46
351.56	1806.31
351.77	1822.69
351.99	1908.71
352.20	1961.95
352.41	1849.32
352.62	1716.20
352.83	1863.65
353.04	1849.32
353.25	1775.59
353.46	1832.93
353.67	1759.21
353.88	1685.48
354.09	1822.69
354.30	1765.35
354.52	1861.60
354.73	1800.16
354.94	1785.83
355.15	1816.55
355.36	1918.95
355.57	1826.79
355.78	1806.31
355.99	1759.21
356.20	1828.84
356.41	1839.08
356.62	1830.88
356.83	1873.89
357.04	1896.42
357.25	1689.57
357.46	1775.59
357.68	1708.01
357.89	1744.87
358.10	1818.60
358.31	1800.16
358.52	1814.50
358.73	1744.87
358.94	1751.01
359.15	1830.88
359.36	1869.80
359.57	1787.88
359.78	1830.88
359.99	1806.31
360.20	1761.25
360.41	1845.22
360.62	1880.04
360.83	1808.36
361.04	1845.22
361.25	1845.22
361.46	1896.42
361.67	1841.12
361.88	1779.68
362.09	1898.47
362.30	1787.88
362.51	1761.25
362.72	1886.18
362.93	1855.46
363.14	1888.23
363.35	1828.84
363.56	1765.35
363.78	1839.08
363.99	1863.65
364.20	1789.92
364.41	1755.11
364.62	1923.04
364.83	1865.70
365.04	1744.87
365.25	1779.68
365.46	1986.53
365.67	1828.84
365.88	1783.78
366.09	1828.84
366.30	1851.36
366.51	1871.84
366.72	1689.57
366.93	1806.31
367.14	1845.22
367.35	1894.37
367.56	1787.88
367.77	1816.55
367.98	1806.31
368.18	1886.18
368.39	1859.56
368.60	1732.58
368.81	1873.89
369.02	1841.12
369.23	1841.12
369.44	1675.24
369.65	1667.05
369.86	1861.60
370.07	1875.94
370.28	1810.40
370.49	1937.38
370.70	1865.70
370.91	1748.97
371.12	1746.92
371.33	1867.75
371.54	1806.31
371.75	1900.52
371.96	1687.53
372.17	1880.04
372.38	1781.73
372.59	1847.27
372.80	1837.03
373.01	1849.32
373.22	1865.70
373.43	1839.08
373.64	1746.92
373.85	1900.52
374.06	1890.28
374.26	1859.56
374.47	1771.49
374.68	1923.04
374.89	1767.40
375.10	1751.01
375.31	1900.52
375.52	1851.36
375.73	1781.73
375.94	1796.07
376.15	1871.84
376.36	1759.21
376.57	1763.30
376.78	1763.30
376.99	1818.60
377.20	1884.13
377.40	1761.25
377.61	1898.47
377.82	1775.59
378.03	1918.95
378.24	1834.98
378.45	1812.45
378.66	1843.17
378.87	1699.81
379.08	1748.97
379.29	1767.40
379.50	1806.31
379.71	1755.11
379.91	1896.42
380.12	1777.64
380.33	1769.44
380.54	1865.70
380.75	1742.82
380.96	1771.49
381.17	1894.37
381.38	1828.84
381.59	1863.65
381.80	1808.36
382.00	2013.15
382.21	1857.51
382.42	1982.43
382.63	1943.52
382.84	1837.03
383.05	1929.19
383.26	1959.91
383.47	1882.08
383.68	1896.42
383.88	1830.88
384.09	1845.22
384.30	1884.13
384.51	1886.18
384.72	1771.49
384.93	1736.68
385.14	1814.50
385.35	1869.80
385.55	1798.12
385.76	2007.01
385.97	1847.27
386.18	1751.01
386.39	1783.78
386.60	1783.78
386.81	1787.88
387.02	1765.35
387.22	1740.77
387.43	1914.85
387.64	1925.09
387.85	2031.58
388.06	2150.37
388.27	4261.82
388.48	8728.44
388.68	11691.85
388.89	13879.08
389.10	14528.29
389.31	13080.38
389.52	10516.32
389.73	8982.39
389.93	8351.62
390.14	7681.93
390.35	6842.26
390.56	6311.84
390.77	5148.59
390.98	4044.74
391.18	3059.67
391.39	2471.90
391.60	2041.82
391.81	2002.91
392.02	1808.36
392.23	1966.05
392.43	1812.45
392.64	1906.66
392.85	1841.12
393.06	1945.57
393.27	1830.88
393.47	1867.75
393.68	1798.12
393.89	1751.01
394.10	1976.29
394.31	1771.49
394.52	1753.06
394.72	1710.05
394.93	1888.23
395.14	1818.60
395.35	1794.02
395.56	1810.40
395.76	1912.80
395.97	1886.18
396.18	2041.82
396.39	2004.96
396.60	2181.09
396.80	2035.68
397.01	1957.86
397.22	1947.62
397.43	2062.30
397.64	1804.26
397.84	1884.13
398.05	1978.34
398.26	1804.26
398.47	1943.52
398.67	1880.04
398.88	1791.97
399.09	1794.02
399.30	1763.30
399.51	1818.60
399.71	1730.53
399.92	1875.94
400.13	1886.18
400.34	1775.59
400.54	1845.22
400.75	1970.15
400.96	1873.89
401.17	1935.33
401.37	1800.16
401.58	1808.36
401.79	1791.97
402.00	1902.56
402.21	2183.13
402.41	2201.57
402.62	2260.96
402.83	2269.15
403.04	2226.14
403.24	2308.06
403.45	1951.71
403.66	2193.37
403.87	2033.63
404.07	2068.45
404.28	2086.88
404.49	2140.13
404.70	1923.04
404.90	1888.23
405.11	1820.64
405.32	1918.95
405.52	1767.40
405.73	1779.68
405.94	1689.57
406.15	1834.98
406.35	1918.95
406.56	1855.46
406.77	1789.92
406.98	1890.28
407.18	1763.30
407.39	1902.56
407.60	1800.16
407.80	1888.23
408.01	1796.07
408.22	1927.14
408.43	1798.12
408.63	1898.47
408.84	1875.94
409.05	1884.13
409.25	1804.26
409.46	1787.88
409.67	1763.30
409.88	1820.64
410.08	1869.80
410.29	1796.07
410.50	1843.17
410.70	1806.31
410.91	1773.54
411.12	1830.88
411.32	1818.60
411.53	1826.79
411.74	1910.75
411.95	1968.10
412.15	1937.38
412.36	1875.94
412.57	1845.22
412.77	1929.19
412.98	1820.64
413.19	1777.64
413.39	1755.11
413.60	1918.95
413.81	1970.15
414.01	1779.68
414.22	1920.99
414.43	1839.08
414.63	1763.30
414.84	1894.37
415.05	1871.84
415.25	1738.73
415.46	1824.74
415.67	1769.44
415.87	1812.45
416.08	1863.65
416.29	1732.58
416.49	1896.42
416.70	1857.51
416.91	1738.73
417.11	1773.54
417.32	1828.84
417.53	1830.88
417.73	1851.36
417.94	1859.56
418.15	1880.04
418.35	1877.99
418.56	1773.54
418.77	1904.61
418.97	1877.99
419.18	1804.26
419.38	1630.18
419.59	1812.45
419.80	1923.04
420.00	1736.68
420.21	1826.79
420.42	1781.73
420.62	1828.84
420.83	1748.97
421.04	1834.98
421.24	1832.93
421.45	1877.99
421.65	1841.12
421.86	1822.69
422.07	1920.99
422.27	1851.36
422.48	1853.41
422.69	1701.86
422.89	1923.04
423.10	1763.30
423.30	1800.16
423.51	1796.07
423.72	1845.22
423.92	1908.71
424.13	1714.15
424.33	1791.97
424.54	1877.99
424.75	1865.70
424.95	1927.14
425.16	1859.56
425.36	1806.31
425.57	1857.51
425.78	1853.41
425.98	1877.99
426.19	1798.12
426.39	1746.92
426.60	1867.75
426.81	1894.37
427.01	1865.70
427.22	1753.06
427.42	1736.68
427.63	1761.25
427.83	1841.12
428.04	1966.05
428.25	1939.43
428.45	1875.94
428.66	1820.64
428.86	1783.78
429.07	1832.93
429.28	1880.04
429.48	1806.31
429.69	1777.64
429.89	1826.79
430.10	1751.01
430.30	1875.94
430.51	1912.80
430.71	1847.27
430.92	1816.55
431.13	1839.08
431.33	1945.57
431.54	1798.12
431.74	1863.65
431.95	2058.21
432.15	1636.33
432.36	1814.50
432.56	1816.55
432.77	1925.09
432.98	2013.15
433.18	1896.42
433.39	1839.08
433.59	1771.49
433.80	2017.25
434.00	1959.91
434.21	1798.12
434.41	1753.06
434.62	1904.61
434.82	1783.78
435.03	1800.16
435.23	1865.70
435.44	1728.49
435.64	1802.21
435.85	1773.54
436.06	1875.94
436.26	1939.43
436.47	1722.34
436.67	1808.36
436.88	1738.73
437.08	1849.32
437.29	1923.04
437.49	1820.64
437.70	1947.62
437.90	1791.97
438.11	2054.11
438.31	1890.28
438.52	2000.87
438.72	1939.43
438.93	2050.02
439.13	1888.23
439.34	1982.43
439.54	1849.32
439.75	1920.99
439.95	1916.90
440.16	1828.84
440.36	1863.65
440.57	1841.12
440.77	1783.78
440.98	1746.92
441.18	1877.99
441.39	1767.40
441.59	1816.55
441.80	1970.15
442.00	1808.36
442.21	1990.63
442.41	1761.25
442.62	1859.56
442.82	1746.92
443.02	1800.16
443.23	1896.42
443.43	1816.55
443.64	1910.75
443.84	1816.55
444.05	1914.85
444.25	1816.55
444.46	1830.88
444.66	1841.12
444.87	1935.33
445.07	1798.12
445.28	1851.36
445.48	1931.23
445.69	1855.46
445.89	1994.72
446.09	1906.66
446.30	2082.78
446.50	2504.67
446.71	4206.53
446.91	5169.07
447.12	5939.11
447.32	6365.09
447.53	5728.17
447.73	4687.80
447.93	4161.47
448.14	3868.61
448.34	3633.10
448.55	3237.84
448.75	3250.13
448.96	3045.33
449.16	2768.85
449.36	2533.34
449.57	2287.58
449.77	2011.11
449.98	1851.36
450.18	1955.81
450.39	1931.23
450.59	1849.32
450.79	1796.07
451.00	1859.56
451.20	1839.08
451.41	1746.92
451.61	1861.60
451.81	1888.23
452.02	1769.44
452.22	1777.64
452.43	1804.26
452.63	1781.73
