SpectraSuite Data File
++++++++++++++++++++++++++++++++++++
Date: Wed May 04 21:13:43 CEST 2016
User: root
Dark Spectrum Present: No
Reference Spectrum Present: No
Number of Sampled Component Spectra: 1
Spectrometers: USB4C02835
Integration Time (usec): 100000 (USB4C02835)
Spectra Averaged: 1 (USB4C02835)
Boxcar Smoothing: 0 (USB4C02835)
Correct for Electrical Dark: No (USB4C02835)
Strobe/Lamp Enabled: No (USB4C02835)
Correct for Detector Non-linearity: No (USB4C02835)
Correct for Stray Light: No (USB4C02835)
Number of Pixels in Processed Spectrum: 3648
>>>>>Begin Processed Spectral Data<<<<<
177.47	1570.79
177.69	1570.79
177.91	1570.79
178.13	1535.98
178.36	1533.93
178.58	1716.20
178.80	1859.56
179.02	1748.97
179.24	1738.73
179.46	1841.12
179.68	1869.80
179.90	1759.21
180.13	1796.07
180.35	1779.68
180.57	1771.49
180.79	1832.93
181.01	1794.02
181.23	1927.14
181.45	1918.95
181.67	1845.22
181.90	1869.80
182.12	1794.02
182.34	1753.06
182.56	1931.23
182.78	1886.18
183.00	1732.58
183.22	1841.12
183.44	1687.53
183.66	1941.47
183.89	1894.37
184.11	1806.31
184.33	1933.28
184.55	1951.71
184.77	1808.36
184.99	1783.78
185.21	1748.97
185.43	1943.52
185.65	1714.15
185.87	1720.29
186.10	1951.71
186.32	1894.37
186.54	1888.23
186.76	1843.17
186.98	1845.22
187.20	1808.36
187.42	1751.01
187.64	1796.07
187.86	1910.75
188.08	1877.99
188.30	1789.92
188.52	1789.92
188.75	1877.99
188.97	1908.71
189.19	1755.11
189.41	1753.06
189.63	1781.73
189.85	1796.07
190.07	1787.88
190.29	1751.01
190.51	1867.75
190.73	1736.68
190.95	1865.70
191.17	1812.45
191.39	1697.77
191.61	1845.22
191.84	1791.97
192.06	1886.18
192.28	1705.96
192.50	2037.73
192.72	1785.83
192.94	1796.07
193.16	1839.08
193.38	1814.50
193.60	1712.10
193.82	1775.59
194.04	1918.95
194.26	1892.32
194.48	1869.80
194.70	1779.68
194.92	1722.34
195.14	1808.36
195.36	1800.16
195.58	1720.29
195.80	1847.27
196.02	1832.93
196.24	1826.79
196.46	1839.08
196.69	1722.34
196.91	1920.99
197.13	1791.97
197.35	1777.64
197.57	1896.42
197.79	1849.32
198.01	1779.68
198.23	1855.46
198.45	1859.56
198.67	1796.07
198.89	1779.68
199.11	1865.70
199.33	1779.68
199.55	1679.33
199.77	1781.73
199.99	1849.32
200.21	1773.54
200.43	1941.47
200.65	1740.77
200.87	1699.81
201.09	1785.83
201.31	1828.84
201.53	1886.18
201.75	1810.40
201.97	1796.07
202.19	1771.49
202.41	1871.84
202.63	1994.72
202.85	1871.84
203.07	1904.61
203.29	1822.69
203.51	1845.22
203.73	1734.63
203.95	2013.15
204.17	1826.79
204.39	1882.08
204.61	1757.16
204.83	1822.69
205.05	1892.32
205.27	1849.32
205.49	1996.77
205.71	1832.93
205.93	1712.10
206.15	1751.01
206.37	1804.26
206.59	1781.73
206.81	1728.49
207.03	1824.74
207.25	1734.63
207.47	1896.42
207.69	1726.44
207.91	1863.65
208.13	2011.11
208.34	1763.30
208.56	1830.88
208.78	1871.84
209.00	1824.74
209.22	1777.64
209.44	1837.03
209.66	1763.30
209.88	1785.83
210.10	1800.16
210.32	1775.59
210.54	1918.95
210.76	1789.92
210.98	1888.23
211.20	1699.81
211.42	1798.12
211.64	1837.03
211.86	1837.03
212.08	1832.93
212.30	1814.50
212.52	1814.50
212.74	1906.66
212.96	1857.51
213.17	1857.51
213.39	1847.27
213.61	1886.18
213.83	1787.88
214.05	1816.55
214.27	1796.07
214.49	1746.92
214.71	1771.49
214.93	1892.32
215.15	1798.12
215.37	1910.75
215.59	1714.15
215.81	1794.02
216.03	1943.52
216.24	1910.75
216.46	1798.12
216.68	1814.50
216.90	1775.59
217.12	1906.66
217.34	1779.68
217.56	1839.08
217.78	1892.32
218.00	1853.41
218.22	1861.60
218.44	1794.02
218.66	1761.25
218.87	1890.28
219.09	1740.77
219.31	1818.60
219.53	1824.74
219.75	1824.74
219.97	1824.74
220.19	1869.80
220.41	1710.05
220.63	1910.75
220.85	1851.36
221.06	1845.22
221.28	1882.08
221.50	1818.60
221.72	1787.88
221.94	1837.03
222.16	1812.45
222.38	1800.16
222.60	1865.70
222.82	1744.87
223.03	1839.08
223.25	1761.25
223.47	1935.33
223.69	1953.76
223.91	1918.95
224.13	1804.26
224.35	1734.63
224.57	1859.56
224.78	1869.80
225.00	1757.16
225.22	1708.01
225.44	1830.88
225.66	1869.80
225.88	1708.01
226.10	1877.99
226.32	1812.45
226.53	1935.33
226.75	1779.68
226.97	1832.93
227.19	1849.32
227.41	1744.87
227.63	1722.34
227.85	1796.07
228.06	1857.51
228.28	1800.16
228.50	1918.95
228.72	1783.78
228.94	1744.87
229.16	1701.86
229.37	1785.83
229.59	1767.40
229.81	1902.56
230.03	1832.93
230.25	1748.97
230.47	1724.39
230.69	1759.21
230.90	1830.88
231.12	1779.68
231.34	1837.03
231.56	1884.13
231.78	1779.68
232.00	1826.79
232.21	1767.40
232.43	1761.25
232.65	1685.48
232.87	1832.93
233.09	1808.36
233.30	1740.77
233.52	1892.32
233.74	1828.84
233.96	1751.01
234.18	1828.84
234.40	1830.88
234.61	1951.71
234.83	1773.54
235.05	1742.82
235.27	1945.57
235.49	1867.75
235.70	1791.97
235.92	1871.84
236.14	1806.31
236.36	1953.76
236.58	1669.09
236.79	1849.32
237.01	1789.92
237.23	1843.17
237.45	1918.95
237.67	1794.02
237.88	1849.32
238.10	1855.46
238.32	1765.35
238.54	1798.12
238.76	1775.59
238.97	1787.88
239.19	1869.80
239.41	1855.46
239.63	1861.60
239.85	1767.40
240.06	1841.12
240.28	1757.16
240.50	1867.75
240.72	1796.07
240.93	1710.05
241.15	1925.09
241.37	1816.55
241.59	1837.03
241.81	1800.16
242.02	1779.68
242.24	1810.40
242.46	1912.80
242.68	1794.02
242.89	1814.50
243.11	1884.13
243.33	1734.63
243.55	1785.83
243.76	1898.47
243.98	1730.53
244.20	1845.22
244.42	1816.55
244.64	1796.07
244.85	1697.77
245.07	1746.92
245.29	1810.40
245.51	1796.07
245.72	1826.79
245.94	1935.33
246.16	1798.12
246.38	1894.37
246.59	1767.40
246.81	1722.34
247.03	1781.73
247.24	1742.82
247.46	1769.44
247.68	1722.34
247.90	1794.02
248.11	1757.16
248.33	1871.84
248.55	1736.68
248.77	1826.79
248.98	1853.41
249.20	1927.14
249.42	1777.64
249.64	1857.51
249.85	1732.58
250.07	1732.58
250.29	1796.07
250.50	1800.16
250.72	1710.05
250.94	1834.98
251.16	1992.67
251.37	1884.13
251.59	1849.32
251.81	1896.42
252.02	1927.14
252.24	1800.16
252.46	1873.89
252.68	1800.16
252.89	1791.97
253.11	1746.92
253.33	1935.33
253.54	1886.18
253.76	1783.78
253.98	1794.02
254.20	1744.87
254.41	1767.40
254.63	1787.88
254.85	1742.82
255.06	1814.50
255.28	1800.16
255.50	1820.64
255.71	1771.49
255.93	1744.87
256.15	1824.74
256.36	1791.97
256.58	1753.06
256.80	1814.50
257.02	1802.21
257.23	1777.64
257.45	1861.60
257.67	1888.23
257.88	1804.26
258.10	1783.78
258.32	1832.93
258.53	1804.26
258.75	1894.37
258.97	1779.68
259.18	1787.88
259.40	1787.88
259.62	1855.46
259.83	1918.95
260.05	1855.46
260.27	2199.52
260.48	1857.51
260.70	1785.83
260.92	1757.16
261.13	1834.98
261.35	1767.40
261.57	1806.31
261.78	1785.83
262.00	1763.30
262.22	1861.60
262.43	1824.74
262.65	1839.08
262.86	1871.84
263.08	1900.52
263.30	1794.02
263.51	1644.52
263.73	1783.78
263.95	1892.32
264.16	1779.68
264.38	1765.35
264.60	1918.95
264.81	1796.07
265.03	1806.31
265.25	1923.04
265.46	1861.60
265.68	1888.23
265.89	1843.17
266.11	1687.53
266.33	1900.52
266.54	1834.98
266.76	1775.59
266.98	1849.32
267.19	1873.89
267.41	1877.99
267.62	1841.12
267.84	1701.86
268.06	1818.60
268.27	1802.21
268.49	1869.80
268.70	1908.71
268.92	1849.32
269.14	1796.07
269.35	1746.92
269.57	1791.97
269.79	1894.37
270.00	1767.40
270.22	1968.10
270.43	1767.40
270.65	1630.18
270.87	1865.70
271.08	1941.47
271.30	1830.88
271.51	1816.55
271.73	1867.75
271.95	1865.70
272.16	1855.46
272.38	1818.60
272.59	1822.69
272.81	1847.27
273.02	1794.02
273.24	1761.25
273.46	1892.32
273.67	1771.49
273.89	1814.50
274.10	1789.92
274.32	1841.12
274.54	1804.26
274.75	1794.02
274.97	1763.30
275.18	1888.23
275.40	1875.94
275.61	1808.36
275.83	1896.42
276.05	1761.25
276.26	1812.45
276.48	1882.08
276.69	1753.06
276.91	1804.26
277.12	1828.84
277.34	1867.75
277.55	1802.21
277.77	1791.97
277.99	1857.51
278.20	1742.82
278.42	1753.06
278.63	1812.45
278.85	1796.07
279.06	1832.93
279.28	1916.90
279.49	1953.76
279.71	1900.52
279.93	1814.50
280.14	1800.16
280.36	1810.40
280.57	1857.51
280.79	1837.03
281.00	1763.30
281.22	1783.78
281.43	1906.66
281.65	1757.16
281.86	1701.86
282.08	1806.31
282.29	1816.55
282.51	1787.88
282.73	1804.26
282.94	1679.33
283.16	1865.70
283.37	1894.37
283.59	1787.88
283.80	1837.03
284.02	1837.03
284.23	1875.94
284.45	1773.54
284.66	1755.11
284.88	1708.01
285.09	1857.51
285.31	1839.08
285.52	1841.12
285.74	1662.95
285.95	1824.74
286.17	1861.60
286.38	1884.13
286.60	1810.40
286.81	1800.16
287.03	1832.93
287.24	1812.45
287.46	1849.32
287.67	1742.82
287.89	1968.10
288.10	1775.59
288.32	1828.84
288.53	1929.19
288.75	1796.07
288.96	1853.41
289.18	1765.35
289.39	1910.75
289.61	1890.28
289.82	1992.67
290.04	1929.19
290.25	1746.92
290.47	1894.37
290.68	1820.64
290.90	1937.38
291.11	1746.92
291.33	1812.45
291.54	1718.25
291.76	1830.88
291.97	1832.93
292.18	1861.60
292.40	1728.49
292.61	1796.07
292.83	1953.76
293.04	1894.37
293.26	1845.22
293.47	1812.45
293.69	1730.53
293.90	1789.92
294.12	1814.50
294.33	1785.83
294.55	1796.07
294.76	1865.70
294.97	1902.56
295.19	1978.34
295.40	1837.03
295.62	1843.17
295.83	1828.84
296.05	1757.16
296.26	1865.70
296.48	1798.12
296.69	1814.50
296.90	1865.70
297.12	1918.95
297.33	1839.08
297.55	1796.07
297.76	1857.51
297.98	1812.45
298.19	1789.92
298.41	1785.83
298.62	1712.10
298.83	1908.71
299.05	1867.75
299.26	1804.26
299.48	1751.01
299.69	1859.56
299.90	1789.92
300.12	1742.82
300.33	1818.60
300.55	1748.97
300.76	1867.75
300.98	1888.23
301.19	1773.54
301.40	1726.44
301.62	1787.88
301.83	1849.32
302.05	1867.75
302.26	1785.83
302.47	1763.30
302.69	1765.35
302.90	1763.30
303.12	1687.53
303.33	1906.66
303.54	1908.71
303.76	1796.07
303.97	1839.08
304.19	1839.08
304.40	1853.41
304.61	1935.33
304.83	1949.67
305.04	1902.56
305.26	1847.27
305.47	1953.76
305.68	1853.41
305.90	1726.44
306.11	1875.94
306.33	1775.59
306.54	1804.26
306.75	1771.49
306.97	1703.91
307.18	1796.07
307.39	1765.35
307.61	1904.61
307.82	1763.30
308.04	1820.64
308.25	1800.16
308.46	1724.39
308.68	1742.82
308.89	1789.92
309.10	1857.51
309.32	1880.04
309.53	1851.36
309.74	1886.18
309.96	1814.50
310.17	1882.08
310.39	1826.79
310.60	1847.27
310.81	1845.22
311.03	1736.68
311.24	1873.89
311.45	1843.17
311.67	1959.91
311.88	1810.40
312.09	1740.77
312.31	1736.68
312.52	1791.97
312.73	1808.36
312.95	1712.10
313.16	1804.26
313.37	1886.18
313.59	1857.51
313.80	1828.84
314.01	1978.34
314.23	1847.27
314.44	1753.06
314.65	1734.63
314.87	1746.92
315.08	1814.50
315.29	1724.39
315.51	1726.44
315.72	1703.91
315.93	1914.85
316.15	1906.66
316.36	1832.93
316.57	1796.07
316.79	1867.75
317.00	1828.84
317.21	1814.50
317.43	1794.02
317.64	1775.59
317.85	1732.58
318.07	1740.77
318.28	1839.08
318.49	1910.75
318.70	2136.03
318.92	2019.30
319.13	1992.67
319.34	1943.52
319.56	1978.34
319.77	1949.67
319.98	1972.19
320.20	1839.08
320.41	1959.91
320.62	1947.62
320.83	1783.78
321.05	1970.15
321.26	1898.47
321.47	1890.28
321.69	1894.37
321.90	1675.24
322.11	1763.30
322.32	1808.36
322.54	1935.33
322.75	1796.07
322.96	1972.19
323.18	1667.05
323.39	1667.05
323.60	1718.25
323.81	1884.13
324.03	1761.25
324.24	1798.12
324.45	1828.84
324.66	1865.70
324.88	1880.04
325.09	1947.62
325.30	1857.51
325.52	1853.41
325.73	1781.73
325.94	1748.97
326.15	1699.81
326.37	1748.97
326.58	1853.41
326.79	1908.71
327.00	1757.16
327.22	1902.56
327.43	1794.02
327.64	1744.87
327.85	1877.99
328.07	1806.31
328.28	1943.52
328.49	1791.97
328.70	1853.41
328.92	1775.59
329.13	1853.41
329.34	1896.42
329.55	1918.95
329.76	1920.99
329.98	1748.97
330.19	1869.80
330.40	1808.36
330.61	1789.92
330.83	1859.56
331.04	1769.44
331.25	1839.08
331.46	1773.54
331.68	1720.29
331.89	1910.75
332.10	1851.36
332.31	1763.30
332.52	1865.70
332.74	1931.23
332.95	1695.72
333.16	1796.07
333.37	1873.89
333.58	1730.53
333.80	1738.73
334.01	1677.29
334.22	1685.48
334.43	1796.07
334.64	1816.55
334.86	1798.12
335.07	1732.58
335.28	1877.99
335.49	1710.05
335.70	1896.42
335.92	1914.85
336.13	2002.91
336.34	1798.12
336.55	1886.18
336.76	1787.88
336.98	1693.67
337.19	1857.51
337.40	1951.71
337.61	1968.10
337.82	1789.92
338.04	1841.12
338.25	1722.34
338.46	1798.12
338.67	1849.32
338.88	1818.60
339.09	1769.44
339.31	1810.40
339.52	1832.93
339.73	1744.87
339.94	1894.37
340.15	1783.78
340.36	1855.46
340.58	1863.65
340.79	1744.87
341.00	1841.12
341.21	1740.77
341.42	1937.38
341.63	1740.77
341.85	1828.84
342.06	1810.40
342.27	1738.73
342.48	1851.36
342.69	1742.82
342.90	1834.98
343.12	1888.23
343.33	1796.07
343.54	1855.46
343.75	1849.32
343.96	1812.45
344.17	1773.54
344.38	1810.40
344.60	1775.59
344.81	1757.16
345.02	1837.03
345.23	1904.61
345.44	1957.86
345.65	1832.93
345.86	1746.92
346.07	1845.22
346.29	1812.45
346.50	1863.65
346.71	1902.56
346.92	1894.37
347.13	2017.25
347.34	1818.60
347.55	1845.22
347.76	1888.23
347.98	1714.15
348.19	1841.12
348.40	1875.94
348.61	1746.92
348.82	1906.66
349.03	1834.98
349.24	1816.55
349.45	1953.76
349.66	1806.31
349.88	1773.54
350.09	1765.35
350.30	1867.75
350.51	1935.33
350.72	1814.50
350.93	1828.84
351.14	1808.36
351.35	1865.70
351.56	1765.35
351.77	1914.85
351.99	1935.33
352.20	1849.32
352.41	1789.92
352.62	1621.99
352.83	1830.88
353.04	1765.35
353.25	1710.05
353.46	1865.70
353.67	1832.93
353.88	1630.18
354.09	1705.96
354.30	1810.40
354.52	1775.59
354.73	1820.64
354.94	1757.16
355.15	1841.12
355.36	1986.53
355.57	1748.97
355.78	1857.51
355.99	1734.63
356.20	1771.49
356.41	1869.80
356.62	1873.89
356.83	1789.92
357.04	1851.36
357.25	1738.73
357.46	1755.11
357.68	1689.57
357.89	1824.74
358.10	1800.16
358.31	1820.64
358.52	1830.88
358.73	1720.29
358.94	1701.86
359.15	1783.78
359.36	1791.97
359.57	1841.12
359.78	1837.03
359.99	1968.10
360.20	1748.97
360.41	1804.26
360.62	1783.78
360.83	1847.27
361.04	1830.88
361.25	1830.88
361.46	1863.65
361.67	1787.88
361.88	1875.94
362.09	1818.60
362.30	1849.32
362.51	1763.30
362.72	1853.41
362.93	1826.79
363.14	1880.04
363.35	1894.37
363.56	1736.68
363.78	1929.19
363.99	1863.65
364.20	1802.21
364.41	1787.88
364.62	1886.18
364.83	1871.84
365.04	1773.54
365.25	1794.02
365.46	1949.67
365.67	1728.49
365.88	1775.59
366.09	1834.98
366.30	1798.12
366.51	1798.12
366.72	1746.92
366.93	1759.21
367.14	1880.04
367.35	1900.52
367.56	1734.63
367.77	1902.56
367.98	1824.74
368.18	1859.56
368.39	1832.93
368.60	1710.05
368.81	1900.52
369.02	1933.28
369.23	1769.44
369.44	1716.20
369.65	1822.69
369.86	1894.37
370.07	1882.08
370.28	1794.02
370.49	1869.80
370.70	1820.64
370.91	1847.27
371.12	1777.64
371.33	1873.89
371.54	1777.64
371.75	1925.09
371.96	1718.25
372.17	1912.80
372.38	1828.84
372.59	1927.14
372.80	1755.11
373.01	1757.16
373.22	1890.28
373.43	1777.64
373.64	1767.40
373.85	1830.88
374.06	1943.52
374.26	1800.16
374.47	1857.51
374.68	1839.08
374.89	1775.59
375.10	1775.59
375.31	1871.84
375.52	1824.74
375.73	1794.02
375.94	1832.93
376.15	1818.60
376.36	1841.12
376.57	1738.73
376.78	1810.40
376.99	1822.69
377.20	1904.61
377.40	1796.07
377.61	1912.80
377.82	1787.88
378.03	1949.67
378.24	1804.26
378.45	1810.40
378.66	1824.74
378.87	1730.53
379.08	1677.29
379.29	1804.26
379.50	1920.99
379.71	1904.61
379.91	1834.98
380.12	1877.99
380.33	1796.07
380.54	1800.16
380.75	1845.22
380.96	1828.84
381.17	1896.42
381.38	1849.32
381.59	1910.75
381.80	1826.79
382.00	1939.43
382.21	1939.43
382.42	2056.16
382.63	2047.97
382.84	1884.13
383.05	1941.47
383.26	1947.62
383.47	1894.37
383.68	1906.66
383.88	1931.23
384.09	1837.03
384.30	1927.14
384.51	1832.93
384.72	1884.13
384.93	1808.36
385.14	1839.08
385.35	1900.52
385.55	1751.01
385.76	1867.75
385.97	1816.55
386.18	1726.44
386.39	1830.88
386.60	1849.32
386.81	1820.64
387.02	1775.59
387.22	1761.25
387.43	1834.98
387.64	1914.85
387.85	2074.59
388.06	2072.54
388.27	4220.86
388.48	8843.13
388.68	11755.34
388.89	13997.87
389.10	14788.38
389.31	13156.15
389.52	10485.60
389.73	8968.06
389.93	8290.18
390.14	7602.06
390.35	6780.82
390.56	6186.91
390.77	5109.68
390.98	4054.98
391.18	3100.62
391.39	2496.47
391.60	2103.26
391.81	2037.73
392.02	1837.03
392.23	1972.19
392.43	1890.28
392.64	1914.85
392.85	1849.32
393.06	1933.28
393.27	1794.02
393.47	1742.82
393.68	1863.65
393.89	1871.84
394.10	1880.04
394.31	1691.62
394.52	1808.36
394.72	1781.73
394.93	1951.71
395.14	1759.21
395.35	1798.12
395.56	1703.91
395.76	1894.37
395.97	1867.75
396.18	1949.67
396.39	2017.25
396.60	2193.37
396.80	2140.13
397.01	2004.96
397.22	1855.46
397.43	2039.78
397.64	1951.71
397.84	1947.62
398.05	2021.35
398.26	1865.70
398.47	1877.99
398.67	1859.56
398.88	1863.65
399.09	1882.08
399.30	1783.78
399.51	1773.54
399.71	1789.92
399.92	1826.79
400.13	1828.84
400.34	1828.84
400.54	1769.44
400.75	1953.76
400.96	1849.32
401.17	1925.09
401.37	1826.79
401.58	1832.93
401.79	1841.12
402.00	1912.80
402.21	2213.85
402.41	2146.27
402.62	2181.09
402.83	2336.73
403.04	2248.67
403.24	2281.44
403.45	1996.77
403.66	2082.78
403.87	2025.44
404.07	2011.11
404.28	2019.30
404.49	2043.87
404.70	1931.23
404.90	1861.60
405.11	1918.95
405.32	1869.80
405.52	1816.55
405.73	1691.62
405.94	1808.36
406.15	1765.35
406.35	1923.04
406.56	1904.61
406.77	1791.97
406.98	1810.40
407.18	1740.77
407.39	1918.95
407.60	1783.78
407.80	1857.51
408.01	1779.68
408.22	1845.22
408.43	1757.16
408.63	1861.60
408.84	1884.13
409.05	1863.65
409.25	1771.49
409.46	1714.15
409.67	1773.54
409.88	1740.77
410.08	1843.17
410.29	1798.12
410.50	1824.74
410.70	1804.26
410.91	1755.11
411.12	1849.32
411.32	1914.85
411.53	1777.64
411.74	1953.76
411.95	1896.42
412.15	1882.08
412.36	1875.94
412.57	1951.71
412.77	1925.09
412.98	1916.90
413.19	1822.69
413.39	1867.75
413.60	1853.41
413.81	1902.56
414.01	1820.64
414.22	1849.32
414.43	1939.43
414.63	1814.50
414.84	1857.51
415.05	1830.88
415.25	1718.25
415.46	1791.97
415.67	1736.68
415.87	1837.03
416.08	1808.36
416.29	1816.55
416.49	1796.07
416.70	1751.01
416.91	1787.88
417.11	1765.35
417.32	1837.03
417.53	1798.12
417.73	1894.37
417.94	1763.30
418.15	1888.23
418.35	1871.84
418.56	1798.12
418.77	2058.21
418.97	1869.80
419.18	1791.97
419.38	1665.00
419.59	1783.78
419.80	1890.28
420.00	1761.25
420.21	1857.51
420.42	1931.23
420.62	1861.60
420.83	1748.97
421.04	1744.87
421.24	1791.97
421.45	1875.94
421.65	1810.40
421.86	1812.45
422.07	1892.32
422.27	1822.69
422.48	1785.83
422.69	1773.54
422.89	1863.65
423.10	1830.88
423.30	1746.92
423.51	1953.76
423.72	1830.88
423.92	1855.46
424.13	1726.44
424.33	1826.79
424.54	1910.75
424.75	1775.59
424.95	1902.56
425.16	1828.84
425.36	1820.64
425.57	1873.89
425.78	1865.70
425.98	1916.90
426.19	1763.30
426.39	1757.16
426.60	1849.32
426.81	1837.03
427.01	1843.17
427.22	1828.84
427.42	1734.63
427.63	1730.53
427.83	1939.43
428.04	1900.52
428.25	1984.48
428.45	1898.47
428.66	1828.84
428.86	1828.84
429.07	1849.32
429.28	1851.36
429.48	1791.97
429.69	1814.50
429.89	1849.32
430.10	1728.49
430.30	1880.04
430.51	1824.74
430.71	1724.39
430.92	1818.60
431.13	1820.64
431.33	1863.65
431.54	1847.27
431.74	1910.75
431.95	1857.51
432.15	1730.53
432.36	1900.52
432.56	1832.93
432.77	1972.19
432.98	1959.91
433.18	1730.53
433.39	1781.73
433.59	1816.55
433.80	1898.47
434.00	2035.68
434.21	1859.56
434.41	1847.27
434.62	1972.19
434.82	1697.77
435.03	1787.88
435.23	1894.37
435.44	1738.73
435.64	1855.46
435.85	1904.61
436.06	1925.09
436.26	1918.95
436.47	1877.99
436.67	1767.40
436.88	1861.60
437.08	1841.12
437.29	1937.38
437.49	1859.56
437.70	1794.02
437.90	1746.92
438.11	1947.62
438.31	1875.94
438.52	1961.95
438.72	1980.39
438.93	2070.50
439.13	1978.34
439.34	1927.14
439.54	1894.37
439.75	1880.04
439.95	1869.80
440.16	1859.56
440.36	1865.70
440.57	1873.89
440.77	1937.38
440.98	1867.75
441.18	1949.67
441.39	1742.82
441.59	1779.68
441.80	1949.67
442.00	1783.78
442.21	1970.15
442.41	1767.40
442.62	1906.66
442.82	1771.49
443.02	1751.01
443.23	1796.07
443.43	1935.33
443.64	2027.49
443.84	1773.54
444.05	1992.67
444.25	1818.60
444.46	1787.88
444.66	1859.56
444.87	1957.86
445.07	1732.58
445.28	1851.36
445.48	1955.81
445.69	1841.12
445.89	2002.91
446.09	1871.84
446.30	2099.17
446.50	2609.11
446.71	4149.18
446.91	5355.44
447.12	5943.21
447.32	6395.81
447.53	5699.50
447.73	4636.60
447.93	4216.77
448.14	3868.61
448.34	3618.76
448.55	3248.08
448.75	3254.22
448.96	3080.14
449.16	2740.18
449.36	2584.54
449.57	2234.33
449.77	2062.30
449.98	1920.99
450.18	1949.67
450.39	1920.99
450.59	1904.61
450.79	1890.28
451.00	1791.97
451.20	2004.96
451.41	1820.64
451.61	1888.23
451.81	1863.65
452.02	1828.84
452.22	1830.88
452.43	1755.11
452.63	1845.22
