SpectraSuite Data File
++++++++++++++++++++++++++++++++++++
Date: Wed May 04 21:13:26 CEST 2016
User: root
Dark Spectrum Present: No
Reference Spectrum Present: No
Number of Sampled Component Spectra: 1
Spectrometers: USB4C02835
Integration Time (usec): 100000 (USB4C02835)
Spectra Averaged: 1 (USB4C02835)
Boxcar Smoothing: 0 (USB4C02835)
Correct for Electrical Dark: No (USB4C02835)
Strobe/Lamp Enabled: No (USB4C02835)
Correct for Detector Non-linearity: No (USB4C02835)
Correct for Stray Light: No (USB4C02835)
Number of Pixels in Processed Spectrum: 3648
>>>>>Begin Processed Spectral Data<<<<<
177.47	1540.07
177.69	1540.07
177.91	1540.07
178.13	1546.22
178.36	1499.11
178.58	1638.38
178.80	1822.69
179.02	1675.24
179.24	1673.19
179.46	1777.64
179.68	1961.95
179.90	1783.78
180.13	1751.01
180.35	1736.68
180.57	1773.54
180.79	1880.04
181.01	1802.21
181.23	1880.04
181.45	1964.00
181.67	1843.17
181.90	1869.80
182.12	1751.01
182.34	1669.09
182.56	1822.69
182.78	1767.40
183.00	1816.55
183.22	1781.73
183.44	1748.97
183.66	2019.30
183.89	1961.95
184.11	1783.78
184.33	1834.98
184.55	1849.32
184.77	1808.36
184.99	1869.80
185.21	1828.84
185.43	1972.19
185.65	1771.49
185.87	1779.68
186.10	1904.61
186.32	1937.38
186.54	1822.69
186.76	1814.50
186.98	1865.70
187.20	1744.87
187.42	1808.36
187.64	1794.02
187.86	1808.36
188.08	1855.46
188.30	1773.54
188.52	1871.84
188.75	1904.61
188.97	1984.48
189.19	1753.06
189.41	1810.40
189.63	1828.84
189.85	1814.50
190.07	1734.63
190.29	1730.53
190.51	1820.64
190.73	1740.77
190.95	1834.98
191.17	1775.59
191.39	1816.55
191.61	1771.49
191.84	1783.78
192.06	1804.26
192.28	1669.09
192.50	2015.20
192.72	1855.46
192.94	1859.56
193.16	1886.18
193.38	1800.16
193.60	1736.68
193.82	1716.20
194.04	1867.75
194.26	1832.93
194.48	1791.97
194.70	1802.21
194.92	1769.44
195.14	1783.78
195.36	1755.11
195.58	1789.92
195.80	1771.49
196.02	1732.58
196.24	1808.36
196.46	1802.21
196.69	1783.78
196.91	1970.15
197.13	1744.87
197.35	1738.73
197.57	1914.85
197.79	1857.51
198.01	1802.21
198.23	1775.59
198.45	1841.12
198.67	1724.39
198.89	1738.73
199.11	1789.92
199.33	1734.63
199.55	1652.71
199.77	1851.36
199.99	1888.23
200.21	1779.68
200.43	1841.12
200.65	1800.16
200.87	1705.96
201.09	1820.64
201.31	1785.83
201.53	1814.50
201.75	1748.97
201.97	1830.88
202.19	1771.49
202.41	1841.12
202.63	1968.10
202.85	1853.41
203.07	1789.92
203.29	1812.45
203.51	1800.16
203.73	1736.68
203.95	1931.23
204.17	1808.36
204.39	1814.50
204.61	1869.80
204.83	1787.88
205.05	1783.78
205.27	1877.99
205.49	1892.32
205.71	1820.64
205.93	1746.92
206.15	1814.50
206.37	1814.50
206.59	1806.31
206.81	1744.87
207.03	1746.92
207.25	1738.73
207.47	1818.60
207.69	1837.03
207.91	1945.57
208.13	1910.75
208.34	1748.97
208.56	1693.67
208.78	1824.74
209.00	1820.64
209.22	1771.49
209.44	1818.60
209.66	1738.73
209.88	1724.39
210.10	1794.02
210.32	1818.60
210.54	1943.52
210.76	1869.80
210.98	1935.33
211.20	1724.39
211.42	1787.88
211.64	1927.14
211.86	1839.08
212.08	1861.60
212.30	1861.60
212.52	1839.08
212.74	1832.93
212.96	1818.60
213.17	1861.60
213.39	1837.03
213.61	1814.50
213.83	1843.17
214.05	1781.73
214.27	1896.42
214.49	1744.87
214.71	1818.60
214.93	1931.23
215.15	1789.92
215.37	1824.74
215.59	1755.11
215.81	1834.98
216.03	1847.27
216.24	1855.46
216.46	1806.31
216.68	1814.50
216.90	1859.56
217.12	1918.95
217.34	1785.83
217.56	1890.28
217.78	1982.43
218.00	1837.03
218.22	1761.25
218.44	1828.84
218.66	1767.40
218.87	1974.24
219.09	1794.02
219.31	1832.93
219.53	1767.40
219.75	1822.69
219.97	1781.73
220.19	1843.17
220.41	1822.69
220.63	1904.61
220.85	1826.79
221.06	1787.88
221.28	1843.17
221.50	1787.88
221.72	1787.88
221.94	1773.54
222.16	1843.17
222.38	1855.46
222.60	1783.78
222.82	1826.79
223.03	1851.36
223.25	1740.77
223.47	1892.32
223.69	1931.23
223.91	1845.22
224.13	1861.60
224.35	1779.68
224.57	1800.16
224.78	1843.17
225.00	1763.30
225.22	1808.36
225.44	1867.75
225.66	1814.50
225.88	1818.60
226.10	1894.37
226.32	1802.21
226.53	1902.56
226.75	1728.49
226.97	1796.07
227.19	1832.93
227.41	1769.44
227.63	1806.31
227.85	1718.25
228.06	1830.88
228.28	1804.26
228.50	1910.75
228.72	1751.01
228.94	1796.07
229.16	1634.28
229.37	1738.73
229.59	1740.77
229.81	1877.99
230.03	1728.49
230.25	1646.57
230.47	1759.21
230.69	1779.68
230.90	1912.80
231.12	1740.77
231.34	1824.74
231.56	1884.13
231.78	1730.53
232.00	1851.36
232.21	1810.40
232.43	1812.45
232.65	1615.85
232.87	1812.45
233.09	1773.54
233.30	1816.55
233.52	1851.36
233.74	1736.68
233.96	1818.60
234.18	1820.64
234.40	1863.65
234.61	2007.01
234.83	1710.05
235.05	1665.00
235.27	1976.29
235.49	1904.61
235.70	1853.41
235.92	1861.60
236.14	1914.85
236.36	1978.34
236.58	1757.16
236.79	1812.45
237.01	1828.84
237.23	1812.45
237.45	1894.37
237.67	1767.40
237.88	1861.60
238.10	1923.04
238.32	1771.49
238.54	1757.16
238.76	1789.92
238.97	1791.97
239.19	1794.02
239.41	1871.84
239.63	1853.41
239.85	1697.77
240.06	1769.44
240.28	1740.77
240.50	1834.98
240.72	1751.01
240.93	1759.21
241.15	1822.69
241.37	1806.31
241.59	1906.66
241.81	1820.64
242.02	1759.21
242.24	1816.55
242.46	1914.85
242.68	1769.44
242.89	1806.31
243.11	1839.08
243.33	1871.84
243.55	1822.69
243.76	1847.27
243.98	1767.40
244.20	1826.79
244.42	1785.83
244.64	1857.51
244.85	1759.21
245.07	1726.44
245.29	1855.46
245.51	1740.77
245.72	1837.03
245.94	1849.32
246.16	1785.83
246.38	1882.08
246.59	1853.41
246.81	1755.11
247.03	1855.46
247.24	1751.01
247.46	1789.92
247.68	1773.54
247.90	1798.12
248.11	1863.65
248.33	1871.84
248.55	1886.18
248.77	1841.12
248.98	1923.04
249.20	1984.48
249.42	1822.69
249.64	1857.51
249.85	1824.74
250.07	1777.64
250.29	1816.55
250.50	1933.28
250.72	1693.67
250.94	1865.70
251.16	2009.06
251.37	1839.08
251.59	1871.84
251.81	1820.64
252.02	1892.32
252.24	1841.12
252.46	1845.22
252.68	1791.97
252.89	1783.78
253.11	1646.57
253.33	1916.90
253.54	1834.98
253.76	1609.70
253.98	1769.44
254.20	1837.03
254.41	1734.63
254.63	1775.59
254.85	1753.06
255.06	1808.36
255.28	1869.80
255.50	1804.26
255.71	1800.16
255.93	1736.68
256.15	1849.32
256.36	1837.03
256.58	1785.83
256.80	1777.64
257.02	1791.97
257.23	1826.79
257.45	1779.68
257.67	1894.37
257.88	1800.16
258.10	1875.94
258.32	1769.44
258.53	1832.93
258.75	1949.67
258.97	1718.25
259.18	1873.89
259.40	1839.08
259.62	1859.56
259.83	1798.12
260.05	1947.62
260.27	2109.41
260.48	1912.80
260.70	1773.54
260.92	1789.92
261.13	1851.36
261.35	1800.16
261.57	1896.42
261.78	1699.81
262.00	1751.01
262.22	1789.92
262.43	1853.41
262.65	1892.32
262.86	1808.36
263.08	1933.28
263.30	1746.92
263.51	1726.44
263.73	1853.41
263.95	1871.84
264.16	1775.59
264.38	1697.77
264.60	1834.98
264.81	1847.27
265.03	1910.75
265.25	1886.18
265.46	1771.49
265.68	1894.37
265.89	1837.03
266.11	1759.21
266.33	1884.13
266.54	1857.51
266.76	1820.64
266.98	1863.65
267.19	1923.04
267.41	1888.23
267.62	1767.40
267.84	1773.54
268.06	1832.93
268.27	1851.36
268.49	1871.84
268.70	1857.51
268.92	1791.97
269.14	1722.34
269.35	1718.25
269.57	1818.60
269.79	1816.55
270.00	1796.07
270.22	1888.23
270.43	1787.88
270.65	1708.01
270.87	1798.12
271.08	1791.97
271.30	1882.08
271.51	1814.50
271.73	1898.47
271.95	1906.66
272.16	1837.03
272.38	1943.52
272.59	1753.06
272.81	1849.32
273.02	1812.45
273.24	1828.84
273.46	1916.90
273.67	1796.07
273.89	1755.11
274.10	1804.26
274.32	1822.69
274.54	1855.46
274.75	1832.93
274.97	1722.34
275.18	1841.12
275.40	1894.37
275.61	1826.79
275.83	1736.68
276.05	1796.07
276.26	1691.62
276.48	1810.40
276.69	1810.40
276.91	1777.64
277.12	1886.18
277.34	1888.23
277.55	1890.28
277.77	1794.02
277.99	1806.31
278.20	1755.11
278.42	1794.02
278.63	1695.72
278.85	1800.16
279.06	1755.11
279.28	1865.70
279.49	1857.51
279.71	1845.22
279.93	1806.31
280.14	1789.92
280.36	1740.77
280.57	1861.60
280.79	1884.13
281.00	1777.64
281.22	1775.59
281.43	1902.56
281.65	1755.11
281.86	1808.36
282.08	1871.84
282.29	1953.76
282.51	1662.95
282.73	1777.64
282.94	1701.86
283.16	1779.68
283.37	1896.42
283.59	1820.64
283.80	1839.08
284.02	1816.55
284.23	1884.13
284.45	1775.59
284.66	1744.87
284.88	1789.92
285.09	1867.75
285.31	1882.08
285.52	1837.03
285.74	1724.39
285.95	1810.40
286.17	1841.12
286.38	1888.23
286.60	1720.29
286.81	1822.69
287.03	1757.16
287.24	1808.36
287.46	1824.74
287.67	1777.64
287.89	1927.14
288.10	1890.28
288.32	1820.64
288.53	1902.56
288.75	1923.04
288.96	1884.13
289.18	1751.01
289.39	1769.44
289.61	1896.42
289.82	1925.09
290.04	1910.75
290.25	1796.07
290.47	1781.73
290.68	1834.98
290.90	1931.23
291.11	1687.53
291.33	1877.99
291.54	1808.36
291.76	1769.44
291.97	1826.79
292.18	1806.31
292.40	1769.44
292.61	1742.82
292.83	1982.43
293.04	1884.13
293.26	1859.56
293.47	1740.77
293.69	1697.77
293.90	1796.07
294.12	1929.19
294.33	1892.32
294.55	1875.94
294.76	1853.41
294.97	1961.95
295.19	1947.62
295.40	1798.12
295.62	1806.31
295.83	1886.18
296.05	1746.92
296.26	1857.51
296.48	1714.15
296.69	1855.46
296.90	1796.07
297.12	1882.08
297.33	1918.95
297.55	1816.55
297.76	1839.08
297.98	1890.28
298.19	1830.88
298.41	1798.12
298.62	1789.92
298.83	1925.09
299.05	1769.44
299.26	1802.21
299.48	1746.92
299.69	1818.60
299.90	1796.07
300.12	1808.36
300.33	1847.27
300.55	1777.64
300.76	1861.60
300.98	1773.54
301.19	1916.90
301.40	1859.56
301.62	1839.08
301.83	1880.04
302.05	1861.60
302.26	1853.41
302.47	1849.32
302.69	1665.00
302.90	1867.75
303.12	1681.38
303.33	1839.08
303.54	1937.38
303.76	1746.92
303.97	1839.08
304.19	1910.75
304.40	1777.64
304.61	1845.22
304.83	1980.39
305.04	1863.65
305.26	1837.03
305.47	1763.30
305.68	1775.59
305.90	1755.11
306.11	1869.80
306.33	1810.40
306.54	1804.26
306.75	1753.06
306.97	1681.38
307.18	1718.25
307.39	1777.64
307.61	1800.16
307.82	1761.25
308.04	1841.12
308.25	1775.59
308.46	1769.44
308.68	1824.74
308.89	1763.30
309.10	1865.70
309.32	1871.84
309.53	1882.08
309.74	1818.60
309.96	1804.26
310.17	1843.17
310.39	1796.07
310.60	1882.08
310.81	1867.75
311.03	1755.11
311.24	1808.36
311.45	1877.99
311.67	1865.70
311.88	1798.12
312.09	1748.97
312.31	1789.92
312.52	1839.08
312.73	1771.49
312.95	1738.73
313.16	1710.05
313.37	1775.59
313.59	1855.46
313.80	1890.28
314.01	1845.22
314.23	1822.69
314.44	1783.78
314.65	1658.85
314.87	1722.34
315.08	1806.31
315.29	1773.54
315.51	1806.31
315.72	1785.83
315.93	1886.18
316.15	1877.99
316.36	1714.15
316.57	1904.61
316.79	1834.98
317.00	1820.64
317.21	1810.40
317.43	1734.63
317.64	1843.17
317.85	1691.62
318.07	1705.96
318.28	1826.79
318.49	1988.58
318.70	2193.37
318.92	2037.73
319.13	2035.68
319.34	2027.49
319.56	1953.76
319.77	2025.44
319.98	1945.57
320.20	1927.14
320.41	1886.18
320.62	1908.71
320.83	1898.47
321.05	1947.62
321.26	1832.93
321.47	1822.69
321.69	1869.80
321.90	1687.53
322.11	1828.84
322.32	1826.79
322.54	1863.65
322.75	1785.83
322.96	1968.10
323.18	1705.96
323.39	1689.57
323.60	1738.73
323.81	1949.67
324.03	1888.23
324.24	1783.78
324.45	1826.79
324.66	1781.73
324.88	1914.85
325.09	1939.43
325.30	1769.44
325.52	1851.36
325.73	1796.07
325.94	1783.78
326.15	1742.82
326.37	1853.41
326.58	1859.56
326.79	1925.09
327.00	1738.73
327.22	1828.84
327.43	1802.21
327.64	1736.68
327.85	1888.23
328.07	1800.16
328.28	1925.09
328.49	1781.73
328.70	1851.36
328.92	1841.12
329.13	1769.44
329.34	1839.08
329.55	1888.23
329.76	1834.98
329.98	1826.79
330.19	1822.69
330.40	1882.08
330.61	1814.50
330.83	1824.74
331.04	1800.16
331.25	1791.97
331.46	1789.92
331.68	1759.21
331.89	1894.37
332.10	1794.02
332.31	1677.29
332.52	1853.41
332.74	1871.84
332.95	1726.44
333.16	1751.01
333.37	1855.46
333.58	1761.25
333.80	1814.50
334.01	1699.81
334.22	1699.81
334.43	1773.54
334.64	1753.06
334.86	1718.25
335.07	1808.36
335.28	1839.08
335.49	1775.59
335.70	1867.75
335.92	1943.52
336.13	1976.29
336.34	1890.28
336.55	1828.84
336.76	1841.12
336.98	1738.73
337.19	1771.49
337.40	1884.13
337.61	1996.77
337.82	1724.39
338.04	1906.66
338.25	1757.16
338.46	1794.02
338.67	1861.60
338.88	1794.02
339.09	1716.20
339.31	1791.97
339.52	1697.77
339.73	1796.07
339.94	1820.64
340.15	1822.69
340.36	1757.16
340.58	1828.84
340.79	1726.44
341.00	1888.23
341.21	1763.30
341.42	1918.95
341.63	1828.84
341.85	1841.12
342.06	1877.99
342.27	1859.56
342.48	1908.71
342.69	1742.82
342.90	1841.12
343.12	1894.37
343.33	1828.84
343.54	1869.80
343.75	1910.75
343.96	1839.08
344.17	1751.01
344.38	1810.40
344.60	1832.93
344.81	1710.05
345.02	1822.69
345.23	1867.75
345.44	1980.39
345.65	1863.65
345.86	1849.32
346.07	1800.16
346.29	1798.12
346.50	1884.13
346.71	1820.64
346.92	1943.52
347.13	1984.48
347.34	1800.16
347.55	1773.54
347.76	1863.65
347.98	1722.34
348.19	1748.97
348.40	1931.23
348.61	1828.84
348.82	1882.08
349.03	1839.08
349.24	1722.34
349.45	1953.76
349.66	1691.62
349.88	1753.06
350.09	1800.16
350.30	1861.60
350.51	1828.84
350.72	1779.68
350.93	1808.36
351.14	1718.25
351.35	1828.84
351.56	1804.26
351.77	1816.55
351.99	1855.46
352.20	1869.80
352.41	1843.17
352.62	1681.38
352.83	1857.51
353.04	1830.88
353.25	1787.88
353.46	1873.89
353.67	1908.71
353.88	1724.39
354.09	1861.60
354.30	1816.55
354.52	1888.23
354.73	1759.21
354.94	1794.02
355.15	1765.35
355.36	1931.23
355.57	1771.49
355.78	1781.73
355.99	1769.44
356.20	1783.78
356.41	1910.75
356.62	1869.80
356.83	1914.85
357.04	1933.28
357.25	1730.53
357.46	1832.93
357.68	1781.73
357.89	1726.44
358.10	1812.45
358.31	1751.01
358.52	1804.26
358.73	1728.49
358.94	1732.58
359.15	1806.31
359.36	1816.55
359.57	1785.83
359.78	1775.59
359.99	1763.30
360.20	1759.21
360.41	1779.68
360.62	1808.36
360.83	1775.59
361.04	1820.64
361.25	1968.10
361.46	1937.38
361.67	1869.80
361.88	1873.89
362.09	1869.80
362.30	1902.56
362.51	1746.92
362.72	1927.14
362.93	1824.74
363.14	1900.52
363.35	1857.51
363.56	1839.08
363.78	1857.51
363.99	1894.37
364.20	1751.01
364.41	1800.16
364.62	1877.99
364.83	1740.77
365.04	1740.77
365.25	1796.07
365.46	1927.14
365.67	1720.29
365.88	1779.68
366.09	1820.64
366.30	1808.36
366.51	1847.27
366.72	1742.82
366.93	1820.64
367.14	1808.36
367.35	1943.52
367.56	1832.93
367.77	1859.56
367.98	1773.54
368.18	1896.42
368.39	1918.95
368.60	1730.53
368.81	1925.09
369.02	1884.13
369.23	1779.68
369.44	1681.38
369.65	1767.40
369.86	1796.07
370.07	1869.80
370.28	1812.45
370.49	1824.74
370.70	1837.03
370.91	1693.67
371.12	1697.77
371.33	1855.46
371.54	1742.82
371.75	1978.34
371.96	1673.19
372.17	1787.88
372.38	1861.60
372.59	1828.84
372.80	1798.12
373.01	1851.36
373.22	1873.89
373.43	1824.74
373.64	1716.20
373.85	1929.19
374.06	1898.47
374.26	1890.28
374.47	1851.36
374.68	1904.61
374.89	1869.80
375.10	1818.60
375.31	1914.85
375.52	1861.60
375.73	1808.36
375.94	1763.30
376.15	1855.46
376.36	1748.97
376.57	1826.79
376.78	1783.78
376.99	1884.13
377.20	1861.60
377.40	1849.32
377.61	1865.70
377.82	1718.25
378.03	1910.75
378.24	1845.22
378.45	1763.30
378.66	1812.45
378.87	1705.96
379.08	1716.20
379.29	1748.97
379.50	1877.99
379.71	1822.69
379.91	1853.41
380.12	1787.88
380.33	1832.93
380.54	1808.36
380.75	1771.49
380.96	1812.45
381.17	1853.41
381.38	1873.89
381.59	1820.64
381.80	1882.08
382.00	1972.19
382.21	1771.49
382.42	1920.99
382.63	1968.10
382.84	1929.19
383.05	1834.98
383.26	1968.10
383.47	1886.18
383.68	1888.23
383.88	1785.83
384.09	1871.84
384.30	1908.71
384.51	1877.99
384.72	1779.68
384.93	1765.35
385.14	1810.40
385.35	1843.17
385.55	1732.58
385.76	1906.66
385.97	1857.51
386.18	1781.73
386.39	1744.87
386.60	1847.27
386.81	1818.60
387.02	1720.29
387.22	1767.40
387.43	1955.81
387.64	1816.55
387.85	1990.63
388.06	2172.89
388.27	4270.01
388.48	8673.15
388.68	11683.66
388.89	13844.27
389.10	14851.87
389.31	13008.70
389.52	10139.49
389.73	9179.00
389.93	8193.92
390.14	7636.88
390.35	6832.02
390.56	6246.30
390.77	5058.48
390.98	3987.40
391.18	3074.00
391.39	2496.47
391.60	2035.68
391.81	2056.16
392.02	1812.45
392.23	2011.11
392.43	1886.18
392.64	1931.23
392.85	1873.89
393.06	1947.62
393.27	1796.07
393.47	1755.11
393.68	1804.26
393.89	1861.60
394.10	1945.57
394.31	1765.35
394.52	1724.39
394.72	1863.65
394.93	1939.43
395.14	1863.65
395.35	1816.55
395.56	1791.97
395.76	1888.23
395.97	1943.52
396.18	2002.91
396.39	2035.68
396.60	2230.24
396.80	2095.07
397.01	2021.35
397.22	1970.15
397.43	2023.39
397.64	1855.46
397.84	1949.67
398.05	2007.01
398.26	1814.50
398.47	1918.95
398.67	1902.56
398.88	1791.97
399.09	1837.03
399.30	1867.75
399.51	1845.22
399.71	1748.97
399.92	1773.54
400.13	1806.31
400.34	1812.45
400.54	1808.36
400.75	1943.52
400.96	1904.61
401.17	1927.14
401.37	1884.13
401.58	1798.12
401.79	1847.27
402.00	1972.19
402.21	2109.41
402.41	2164.70
402.62	2193.37
402.83	2314.20
403.04	2275.29
403.24	2209.76
403.45	2035.68
403.66	2076.64
403.87	1988.58
404.07	2095.07
404.28	2045.92
404.49	1968.10
404.70	1986.53
404.90	1945.57
405.11	1832.93
405.32	1896.42
405.52	1816.55
405.73	1755.11
405.94	1806.31
406.15	1816.55
406.35	1834.98
406.56	1869.80
406.77	1845.22
406.98	1867.75
407.18	1775.59
407.39	1890.28
407.60	1822.69
407.80	1814.50
408.01	1812.45
408.22	1931.23
408.43	1708.01
408.63	1896.42
408.84	1847.27
409.05	1869.80
409.25	1812.45
409.46	1734.63
409.67	1785.83
409.88	1730.53
410.08	1828.84
410.29	1724.39
410.50	1857.51
410.70	1884.13
410.91	1830.88
411.12	1738.73
411.32	1796.07
411.53	1763.30
411.74	2009.06
411.95	1918.95
412.15	1929.19
412.36	1886.18
412.57	1902.56
412.77	1951.71
412.98	1884.13
413.19	1767.40
413.39	1906.66
413.60	1900.52
413.81	1810.40
414.01	1830.88
414.22	1861.60
414.43	1898.47
414.63	1877.99
414.84	1886.18
415.05	1923.04
415.25	1693.67
415.46	1738.73
415.67	1843.17
415.87	1892.32
416.08	1832.93
416.29	1794.02
416.49	1832.93
416.70	1798.12
416.91	1742.82
417.11	1867.75
417.32	1812.45
417.53	1912.80
417.73	1810.40
417.94	1798.12
418.15	1824.74
418.35	1824.74
418.56	1810.40
418.77	1957.86
418.97	1841.12
419.18	1794.02
419.38	1718.25
419.59	1845.22
419.80	1988.58
420.00	1880.04
420.21	1796.07
420.42	1908.71
420.62	1888.23
420.83	1726.44
421.04	1822.69
421.24	1806.31
421.45	1906.66
421.65	1867.75
421.86	1841.12
422.07	1834.98
422.27	1918.95
422.48	1845.22
422.69	1732.58
422.89	1839.08
423.10	1775.59
423.30	1714.15
423.51	1779.68
423.72	1918.95
423.92	1849.32
424.13	1837.03
424.33	1841.12
424.54	1824.74
424.75	1742.82
424.95	1900.52
425.16	1820.64
425.36	1820.64
425.57	1886.18
425.78	1863.65
425.98	1791.97
426.19	1777.64
426.39	1773.54
426.60	1847.27
426.81	1832.93
427.01	1898.47
427.22	1804.26
427.42	1755.11
427.63	1771.49
427.83	1828.84
428.04	2021.35
428.25	1937.38
428.45	1841.12
428.66	1927.14
428.86	1789.92
429.07	1820.64
429.28	1851.36
429.48	1877.99
429.69	1763.30
429.89	1824.74
430.10	1738.73
430.30	1851.36
430.51	1906.66
430.71	1779.68
430.92	1814.50
431.13	1832.93
431.33	1814.50
431.54	1861.60
431.74	1906.66
431.95	1998.82
432.15	1705.96
432.36	1783.78
432.56	1808.36
432.77	1966.05
432.98	1869.80
433.18	1873.89
433.39	1832.93
433.59	1783.78
433.80	1974.24
434.00	2017.25
434.21	1744.87
434.41	1771.49
434.62	1990.63
434.82	1757.16
435.03	1810.40
435.23	1880.04
435.44	1730.53
435.64	1822.69
435.85	1832.93
436.06	1824.74
436.26	1869.80
436.47	1820.64
436.67	1773.54
436.88	1769.44
437.08	1888.23
437.29	1898.47
437.49	1791.97
437.70	1896.42
437.90	1843.17
438.11	1918.95
438.31	1957.86
438.52	2017.25
438.72	2007.01
438.93	2101.22
439.13	1900.52
439.34	1943.52
439.54	1853.41
439.75	1869.80
439.95	1865.70
440.16	1746.92
440.36	1916.90
440.57	1816.55
440.77	1892.32
440.98	1812.45
441.18	1871.84
441.39	1802.21
441.59	1781.73
441.80	1990.63
442.00	1849.32
442.21	2004.96
442.41	1771.49
442.62	1855.46
442.82	1759.21
443.02	1824.74
443.23	1822.69
443.43	1806.31
443.64	1898.47
443.84	1781.73
444.05	1896.42
444.25	1845.22
444.46	1853.41
444.66	1832.93
444.87	1939.43
445.07	1789.92
445.28	1828.84
445.48	1873.89
445.69	1900.52
445.89	2031.58
446.09	1779.68
446.30	2115.55
446.50	2594.78
446.71	4057.03
446.91	5156.79
447.12	5816.23
447.32	6141.86
447.53	5613.48
447.73	4632.51
447.93	4128.70
448.14	3796.93
448.34	3602.38
448.55	3303.37
448.75	3264.46
448.96	3053.52
449.16	2719.70
449.36	2572.25
449.57	2185.18
449.77	2070.50
449.98	1908.71
450.18	2037.73
450.39	1927.14
450.59	1929.19
450.79	1800.16
451.00	1916.90
451.20	1908.71
451.41	1875.94
451.61	1857.51
451.81	1867.75
452.02	1781.73
452.22	1882.08
452.43	1818.60
452.63	1785.83
