SpectraSuite Data File
++++++++++++++++++++++++++++++++++++
Date: Wed May 04 21:13:52 CEST 2016
User: root
Dark Spectrum Present: No
Reference Spectrum Present: No
Number of Sampled Component Spectra: 1
Spectrometers: USB4C02835
Integration Time (usec): 100000 (USB4C02835)
Spectra Averaged: 1 (USB4C02835)
Boxcar Smoothing: 0 (USB4C02835)
Correct for Electrical Dark: No (USB4C02835)
Strobe/Lamp Enabled: No (USB4C02835)
Correct for Detector Non-linearity: No (USB4C02835)
Correct for Stray Light: No (USB4C02835)
Number of Pixels in Processed Spectrum: 3648
>>>>>Begin Processed Spectral Data<<<<<
177.47	1517.54
177.69	1517.54
177.91	1517.54
178.13	1523.69
178.36	1546.22
178.58	1783.78
178.80	1853.41
179.02	1755.11
179.24	1736.68
179.46	1800.16
179.68	1890.28
179.90	1785.83
180.13	1785.83
180.35	1738.73
180.57	1832.93
180.79	1800.16
181.01	1810.40
181.23	1914.85
181.45	1845.22
181.67	1900.52
181.90	1853.41
182.12	1787.88
182.34	1665.00
182.56	1845.22
182.78	1871.84
183.00	1810.40
183.22	1873.89
183.44	1710.05
183.66	1994.72
183.89	1877.99
184.11	1806.31
184.33	1849.32
184.55	1896.42
184.77	1796.07
184.99	1777.64
185.21	1787.88
185.43	1990.63
185.65	1839.08
185.87	1865.70
186.10	1892.32
186.32	1959.91
186.54	1820.64
186.76	1798.12
186.98	1882.08
187.20	1800.16
187.42	1822.69
187.64	1814.50
187.86	1826.79
188.08	1830.88
188.30	1798.12
188.52	1863.65
188.75	1959.91
188.97	1892.32
189.19	1818.60
189.41	1716.20
189.63	1787.88
189.85	1751.01
190.07	1755.11
190.29	1705.96
190.51	1826.79
190.73	1642.47
190.95	1841.12
191.17	1791.97
191.39	1718.25
191.61	1859.56
191.84	1763.30
192.06	1841.12
192.28	1771.49
192.50	1974.24
192.72	1849.32
192.94	1806.31
193.16	1849.32
193.38	1880.04
193.60	1736.68
193.82	1810.40
194.04	1916.90
194.26	1789.92
194.48	1867.75
194.70	1812.45
194.92	1824.74
195.14	1820.64
195.36	1765.35
195.58	1769.44
195.80	1724.39
196.02	1765.35
196.24	1783.78
196.46	1857.51
196.69	1812.45
196.91	1984.48
197.13	1826.79
197.35	1814.50
197.57	1867.75
197.79	1877.99
198.01	1863.65
198.23	1859.56
198.45	1880.04
198.67	1681.38
198.89	1767.40
199.11	1804.26
199.33	1753.06
199.55	1710.05
199.77	1839.08
199.99	1861.60
200.21	1738.73
200.43	1861.60
200.65	1724.39
200.87	1656.81
201.09	1892.32
201.31	1806.31
201.53	1847.27
201.75	1882.08
201.97	1828.84
202.19	1828.84
202.41	1837.03
202.63	1904.61
202.85	1845.22
203.07	1830.88
203.29	1839.08
203.51	1777.64
203.73	1761.25
203.95	1982.43
204.17	1777.64
204.39	1814.50
204.61	1787.88
204.83	1783.78
205.05	1802.21
205.27	1900.52
205.49	1939.43
205.71	1837.03
205.93	1708.01
206.15	1773.54
206.37	1837.03
206.59	1771.49
206.81	1777.64
207.03	1798.12
207.25	1720.29
207.47	1800.16
207.69	1751.01
207.91	1886.18
208.13	1935.33
208.34	1736.68
208.56	1777.64
208.78	1984.48
209.00	1847.27
209.22	1804.26
209.44	1763.30
209.66	1718.25
209.88	1869.80
210.10	1808.36
210.32	1826.79
210.54	1820.64
210.76	1812.45
210.98	1875.94
211.20	1615.85
211.42	1798.12
211.64	1834.98
211.86	1804.26
212.08	1865.70
212.30	1839.08
212.52	1841.12
212.74	1861.60
212.96	1834.98
213.17	1814.50
213.39	1890.28
213.61	1886.18
213.83	1779.68
214.05	1816.55
214.27	1816.55
214.49	1775.59
214.71	1781.73
214.93	1894.37
215.15	1841.12
215.37	1855.46
215.59	1644.52
215.81	1853.41
216.03	1869.80
216.24	1863.65
216.46	1822.69
216.68	1816.55
216.90	1888.23
217.12	1857.51
217.34	1787.88
217.56	1902.56
217.78	1882.08
218.00	1845.22
218.22	1742.82
218.44	1771.49
218.66	1843.17
218.87	1894.37
219.09	1832.93
219.31	1863.65
219.53	1820.64
219.75	1757.16
219.97	1806.31
220.19	1818.60
220.41	1820.64
220.63	1902.56
220.85	1769.44
221.06	1755.11
221.28	1867.75
221.50	1808.36
221.72	1853.41
221.94	1783.78
222.16	1777.64
222.38	1818.60
222.60	1841.12
222.82	1791.97
223.03	1818.60
223.25	1726.44
223.47	1843.17
223.69	1959.91
223.91	1908.71
224.13	1873.89
224.35	1820.64
224.57	1865.70
224.78	1800.16
225.00	1701.86
225.22	1777.64
225.44	1730.53
225.66	1873.89
225.88	1787.88
226.10	1888.23
226.32	1824.74
226.53	1888.23
226.75	1794.02
226.97	1820.64
227.19	1732.58
227.41	1761.25
227.63	1779.68
227.85	1705.96
228.06	1853.41
228.28	1875.94
228.50	1861.60
228.72	1726.44
228.94	1722.34
229.16	1748.97
229.37	1757.16
229.59	1744.87
229.81	1900.52
230.03	1783.78
230.25	1691.62
230.47	1714.15
230.69	1718.25
230.90	1910.75
231.12	1742.82
231.34	1884.13
231.56	1832.93
231.78	1791.97
232.00	1771.49
232.21	1765.35
232.43	1769.44
232.65	1687.53
232.87	1804.26
233.09	1734.63
233.30	1812.45
233.52	1810.40
233.74	1859.56
233.96	1775.59
234.18	1828.84
234.40	1728.49
234.61	1933.28
234.83	1734.63
235.05	1695.72
235.27	2031.58
235.49	1869.80
235.70	1849.32
235.92	1886.18
236.14	1845.22
236.36	1935.33
236.58	1712.10
236.79	1822.69
237.01	1771.49
237.23	1818.60
237.45	1908.71
237.67	1722.34
237.88	1804.26
238.10	1953.76
238.32	1755.11
238.54	1839.08
238.76	1898.47
238.97	1757.16
239.19	1746.92
239.41	1845.22
239.63	1896.42
239.85	1712.10
240.06	1798.12
240.28	1837.03
240.50	1863.65
240.72	1759.21
240.93	1816.55
241.15	1902.56
241.37	1808.36
241.59	1863.65
241.81	1839.08
242.02	1769.44
242.24	1904.61
242.46	1791.97
242.68	1740.77
242.89	1859.56
243.11	1886.18
243.33	1845.22
243.55	1804.26
243.76	1867.75
243.98	1816.55
244.20	1830.88
244.42	1777.64
244.64	1802.21
244.85	1748.97
245.07	1773.54
245.29	1824.74
245.51	1841.12
245.72	1791.97
245.94	1877.99
246.16	1832.93
246.38	1816.55
246.59	1808.36
246.81	1759.21
247.03	1779.68
247.24	1681.38
247.46	1820.64
247.68	1877.99
247.90	1783.78
248.11	1767.40
248.33	1781.73
248.55	1773.54
248.77	1769.44
248.98	1798.12
249.20	1906.66
249.42	1789.92
249.64	1875.94
249.85	1781.73
250.07	1824.74
250.29	1857.51
250.50	1882.08
250.72	1783.78
250.94	1865.70
251.16	1998.82
251.37	1884.13
251.59	1798.12
251.81	1877.99
252.02	1943.52
252.24	1783.78
252.46	1853.41
252.68	1753.06
252.89	1755.11
253.11	1724.39
253.33	1937.38
253.54	1933.28
253.76	1834.98
253.98	1826.79
254.20	1808.36
254.41	1755.11
254.63	1761.25
254.85	1771.49
255.06	1853.41
255.28	1824.74
255.50	1779.68
255.71	1826.79
255.93	1740.77
256.15	1755.11
256.36	1810.40
256.58	1791.97
256.80	1814.50
257.02	1763.30
257.23	1736.68
257.45	1751.01
257.67	1771.49
257.88	1802.21
258.10	1863.65
258.32	1783.78
258.53	1847.27
258.75	1896.42
258.97	1718.25
259.18	1769.44
259.40	1818.60
259.62	1951.71
259.83	1877.99
260.05	1841.12
260.27	2084.83
260.48	1873.89
260.70	1718.25
260.92	1771.49
261.13	1761.25
261.35	1802.21
261.57	1816.55
261.78	1705.96
262.00	1845.22
262.22	1933.28
262.43	1787.88
262.65	1890.28
262.86	1824.74
263.08	2009.06
263.30	1845.22
263.51	1753.06
263.73	1744.87
263.95	1925.09
264.16	1820.64
264.38	1787.88
264.60	1822.69
264.81	1865.70
265.03	1867.75
265.25	1839.08
265.46	1849.32
265.68	1886.18
265.89	1918.95
266.11	1687.53
266.33	1855.46
266.54	1912.80
266.76	1845.22
266.98	1751.01
267.19	1873.89
267.41	1918.95
267.62	1798.12
267.84	1724.39
268.06	1902.56
268.27	1865.70
268.49	1912.80
268.70	1920.99
268.92	1830.88
269.14	1779.68
269.35	1705.96
269.57	1783.78
269.79	1861.60
270.00	1794.02
270.22	1857.51
270.43	1742.82
270.65	1681.38
270.87	1787.88
271.08	1853.41
271.30	1865.70
271.51	1820.64
271.73	1798.12
271.95	1933.28
272.16	1806.31
272.38	1886.18
272.59	1695.72
272.81	1873.89
273.02	1834.98
273.24	1859.56
273.46	1865.70
273.67	1761.25
273.89	1767.40
274.10	1742.82
274.32	1904.61
274.54	1857.51
274.75	1757.16
274.97	1775.59
275.18	1859.56
275.40	1783.78
275.61	1834.98
275.83	1824.74
276.05	1753.06
276.26	1789.92
276.48	1798.12
276.69	1834.98
276.91	1816.55
277.12	1839.08
277.34	1834.98
277.55	1853.41
277.77	1781.73
277.99	1789.92
278.20	1757.16
278.42	1804.26
278.63	1701.86
278.85	1822.69
279.06	1771.49
279.28	1771.49
279.49	1800.16
279.71	1843.17
279.93	1763.30
280.14	1859.56
280.36	1824.74
280.57	1886.18
280.79	1884.13
281.00	1718.25
281.22	1753.06
281.43	1863.65
281.65	1716.20
281.86	1730.53
282.08	1843.17
282.29	1970.15
282.51	1753.06
282.73	1722.34
282.94	1665.00
283.16	1882.08
283.37	1980.39
283.59	1843.17
283.80	1824.74
284.02	1787.88
284.23	1882.08
284.45	1746.92
284.66	1726.44
284.88	1761.25
285.09	1773.54
285.31	1867.75
285.52	1791.97
285.74	1712.10
285.95	1890.28
286.17	1816.55
286.38	1826.79
286.60	1820.64
286.81	1814.50
287.03	1824.74
287.24	1787.88
287.46	1931.23
287.67	1869.80
287.89	1959.91
288.10	1695.72
288.32	1851.36
288.53	1937.38
288.75	1765.35
288.96	1900.52
289.18	1804.26
289.39	1845.22
289.61	1896.42
289.82	1951.71
290.04	1914.85
290.25	1783.78
290.47	1763.30
290.68	1800.16
290.90	1923.04
291.11	1718.25
291.33	1839.08
291.54	1759.21
291.76	1796.07
291.97	1808.36
292.18	1861.60
292.40	1765.35
292.61	1781.73
292.83	1998.82
293.04	1839.08
293.26	1880.04
293.47	1765.35
293.69	1685.48
293.90	1769.44
294.12	1875.94
294.33	1841.12
294.55	1794.02
294.76	1822.69
294.97	1867.75
295.19	1925.09
295.40	1787.88
295.62	1898.47
295.83	1806.31
296.05	1779.68
296.26	1855.46
296.48	1742.82
296.69	1800.16
296.90	1796.07
297.12	1769.44
297.33	1820.64
297.55	1816.55
297.76	1841.12
297.98	1845.22
298.19	1853.41
298.41	1798.12
298.62	1767.40
298.83	1841.12
299.05	1861.60
299.26	1814.50
299.48	1798.12
299.69	1861.60
299.90	1892.32
300.12	1767.40
300.33	1826.79
300.55	1855.46
300.76	1841.12
300.98	1734.63
301.19	1880.04
301.40	1773.54
301.62	1834.98
301.83	1896.42
302.05	1789.92
302.26	1908.71
302.47	1828.84
302.69	1785.83
302.90	1787.88
303.12	1744.87
303.33	1832.93
303.54	1910.75
303.76	1794.02
303.97	1830.88
304.19	1896.42
304.40	1783.78
304.61	1794.02
304.83	1925.09
305.04	1822.69
305.26	1873.89
305.47	1890.28
305.68	1789.92
305.90	1730.53
306.11	1841.12
306.33	1826.79
306.54	1798.12
306.75	1763.30
306.97	1691.62
307.18	1738.73
307.39	1785.83
307.61	1834.98
307.82	1812.45
308.04	1935.33
308.25	1796.07
308.46	1837.03
308.68	1832.93
308.89	1841.12
309.10	1900.52
309.32	1824.74
309.53	1796.07
309.74	1910.75
309.96	1800.16
310.17	1877.99
310.39	1855.46
310.60	1845.22
310.81	1826.79
311.03	1783.78
311.24	1873.89
311.45	1847.27
311.67	1945.57
311.88	1845.22
312.09	1728.49
312.31	1765.35
312.52	1759.21
312.73	1791.97
312.95	1783.78
313.16	1822.69
313.37	1908.71
313.59	1910.75
313.80	1968.10
314.01	1943.52
314.23	1863.65
314.44	1789.92
314.65	1726.44
314.87	1693.67
315.08	1791.97
315.29	1798.12
315.51	1732.58
315.72	1751.01
315.93	1880.04
316.15	1902.56
316.36	1806.31
316.57	1808.36
316.79	1855.46
317.00	1828.84
317.21	1902.56
317.43	1791.97
317.64	1890.28
317.85	1710.05
318.07	1705.96
318.28	1847.27
318.49	2000.87
318.70	2054.11
318.92	2025.44
319.13	1988.58
319.34	2023.39
319.56	1931.23
319.77	1916.90
319.98	1968.10
320.20	1910.75
320.41	1863.65
320.62	1875.94
320.83	1755.11
321.05	1968.10
321.26	1837.03
321.47	1830.88
321.69	1902.56
321.90	1677.29
322.11	1769.44
322.32	1863.65
322.54	1890.28
322.75	1767.40
322.96	1972.19
323.18	1669.09
323.39	1718.25
323.60	1775.59
323.81	1855.46
324.03	1769.44
324.24	1900.52
324.45	1834.98
324.66	1751.01
324.88	1931.23
325.09	1945.57
325.30	1798.12
325.52	1894.37
325.73	1894.37
325.94	1724.39
326.15	1726.44
326.37	1730.53
326.58	1832.93
326.79	1859.56
327.00	1767.40
327.22	1808.36
327.43	1822.69
327.64	1820.64
327.85	1906.66
328.07	1820.64
328.28	1896.42
328.49	1789.92
328.70	1794.02
328.92	1830.88
329.13	1802.21
329.34	1841.12
329.55	1888.23
329.76	1886.18
329.98	1810.40
330.19	1865.70
330.40	1869.80
330.61	1757.16
330.83	1849.32
331.04	1738.73
331.25	1824.74
331.46	1785.83
331.68	1771.49
331.89	1859.56
332.10	1800.16
332.31	1705.96
332.52	1865.70
332.74	1877.99
332.95	1740.77
333.16	1873.89
333.37	1894.37
333.58	1773.54
333.80	1787.88
334.01	1748.97
334.22	1779.68
334.43	1769.44
334.64	1744.87
334.86	1746.92
335.07	1769.44
335.28	1916.90
335.49	1832.93
335.70	1826.79
335.92	1916.90
336.13	1923.04
336.34	1873.89
336.55	1777.64
336.76	1818.60
336.98	1748.97
337.19	1759.21
337.40	1949.67
337.61	1947.62
337.82	1783.78
338.04	1867.75
338.25	1714.15
338.46	1847.27
338.67	1818.60
338.88	1839.08
339.09	1755.11
339.31	1787.88
339.52	1689.57
339.73	1734.63
339.94	1730.53
340.15	1886.18
340.36	1863.65
340.58	1818.60
340.79	1734.63
341.00	1849.32
341.21	1726.44
341.42	1884.13
341.63	1865.70
341.85	1888.23
342.06	1869.80
342.27	1738.73
342.48	1865.70
342.69	1734.63
342.90	1800.16
343.12	1861.60
343.33	1767.40
343.54	1849.32
343.75	1898.47
343.96	1732.58
344.17	1785.83
344.38	1738.73
344.60	1800.16
344.81	1687.53
345.02	1837.03
345.23	1882.08
345.44	1920.99
345.65	1859.56
345.86	1851.36
346.07	1787.88
346.29	1773.54
346.50	1877.99
346.71	1884.13
346.92	1923.04
347.13	1925.09
347.34	1820.64
347.55	1791.97
347.76	1830.88
347.98	1732.58
348.19	1789.92
348.40	1871.84
348.61	1812.45
348.82	1857.51
349.03	1832.93
349.24	1728.49
349.45	1914.85
349.66	1683.43
349.88	1820.64
350.09	1765.35
350.30	1900.52
350.51	1841.12
350.72	1755.11
350.93	1791.97
351.14	1775.59
351.35	1843.17
351.56	1771.49
351.77	1843.17
351.99	1888.23
352.20	1984.48
352.41	1851.36
352.62	1699.81
352.83	1794.02
353.04	1853.41
353.25	1732.58
353.46	1929.19
353.67	1939.43
353.88	1738.73
354.09	1830.88
354.30	1847.27
354.52	1867.75
354.73	1753.06
354.94	1724.39
355.15	1849.32
355.36	1896.42
355.57	1781.73
355.78	1814.50
355.99	1787.88
356.20	1802.21
356.41	1822.69
356.62	1853.41
356.83	1751.01
357.04	1853.41
357.25	1681.38
357.46	1732.58
357.68	1755.11
357.89	1718.25
358.10	1832.93
358.31	1785.83
358.52	1820.64
358.73	1730.53
358.94	1851.36
359.15	1820.64
359.36	1832.93
359.57	1812.45
359.78	1847.27
359.99	1791.97
360.20	1691.62
360.41	1753.06
360.62	1841.12
360.83	1800.16
361.04	1830.88
361.25	1824.74
361.46	1961.95
361.67	1898.47
361.88	1863.65
362.09	1847.27
362.30	1847.27
362.51	1742.82
362.72	1843.17
362.93	1857.51
363.14	1871.84
363.35	1814.50
363.56	1714.15
363.78	1822.69
363.99	1873.89
364.20	1705.96
364.41	1804.26
364.62	1945.57
364.83	1822.69
365.04	1757.16
365.25	1845.22
365.46	1988.58
365.67	1798.12
365.88	1703.91
366.09	1765.35
366.30	1814.50
366.51	1877.99
366.72	1714.15
366.93	1810.40
367.14	1757.16
367.35	1892.32
367.56	1822.69
367.77	1896.42
367.98	1826.79
368.18	1810.40
368.39	1839.08
368.60	1777.64
368.81	1816.55
369.02	1783.78
369.23	1828.84
369.44	1716.20
369.65	1759.21
369.86	1834.98
370.07	1845.22
370.28	1726.44
370.49	1908.71
370.70	1890.28
370.91	1783.78
371.12	1744.87
371.33	1880.04
371.54	1755.11
371.75	1904.61
371.96	1683.43
372.17	1837.03
372.38	1755.11
372.59	1857.51
372.80	1816.55
373.01	1730.53
373.22	1814.50
373.43	1783.78
373.64	1640.42
373.85	1906.66
374.06	1939.43
374.26	1873.89
374.47	1810.40
374.68	1875.94
374.89	1877.99
375.10	1834.98
375.31	1853.41
375.52	1816.55
375.73	1839.08
375.94	1785.83
376.15	1927.14
376.36	1808.36
376.57	1761.25
376.78	1761.25
376.99	1892.32
377.20	1912.80
377.40	1718.25
377.61	1974.24
377.82	1757.16
378.03	1898.47
378.24	1853.41
378.45	1841.12
378.66	1796.07
378.87	1755.11
379.08	1683.43
379.29	1812.45
379.50	1892.32
379.71	1816.55
379.91	1828.84
380.12	1849.32
380.33	1802.21
380.54	1794.02
380.75	1746.92
380.96	1771.49
381.17	1873.89
381.38	1812.45
381.59	1871.84
381.80	1804.26
382.00	1982.43
382.21	1898.47
382.42	2002.91
382.63	1951.71
382.84	1982.43
383.05	1929.19
383.26	1923.04
383.47	1943.52
383.68	1916.90
383.88	1861.60
384.09	1845.22
384.30	1914.85
384.51	1806.31
384.72	1785.83
384.93	1716.20
385.14	1886.18
385.35	1824.74
385.55	1718.25
385.76	1902.56
385.97	1810.40
386.18	1783.78
386.39	1755.11
386.60	1769.44
386.81	1808.36
387.02	1763.30
387.22	1734.63
387.43	1916.90
387.64	1910.75
387.85	2041.82
388.06	2240.48
388.27	4165.57
388.48	8789.88
388.68	11759.44
388.89	13707.05
389.10	14581.54
389.31	12947.26
389.52	10149.73
389.73	8970.10
389.93	8173.44
390.14	7638.92
390.35	6872.98
390.56	6141.86
390.77	5119.92
390.98	3999.68
391.18	3162.06
391.39	2435.03
391.60	2095.07
391.81	1912.80
392.02	1853.41
392.23	1939.43
392.43	1824.74
392.64	1943.52
392.85	1861.60
393.06	2029.54
393.27	1863.65
393.47	1742.82
393.68	1812.45
393.89	1851.36
394.10	1896.42
394.31	1820.64
394.52	1798.12
394.72	1742.82
394.93	1918.95
395.14	1816.55
395.35	1849.32
395.56	1759.21
395.76	1753.06
395.97	1912.80
396.18	1984.48
396.39	2011.11
396.60	2240.48
396.80	2131.94
397.01	2029.54
397.22	1990.63
397.43	1882.08
397.64	1912.80
397.84	1939.43
398.05	2058.21
398.26	1794.02
398.47	1910.75
398.67	1871.84
398.88	1845.22
399.09	1818.60
399.30	1837.03
399.51	1914.85
399.71	1765.35
399.92	1837.03
400.13	1826.79
400.34	1808.36
400.54	1828.84
400.75	1968.10
400.96	1933.28
401.17	1980.39
401.37	1857.51
401.58	1798.12
401.79	1933.28
402.00	1961.95
402.21	2232.29
402.41	2160.61
402.62	2164.70
402.83	2242.53
403.04	2285.53
403.24	2273.25
403.45	2029.54
403.66	2107.36
403.87	2045.92
404.07	2011.11
404.28	2058.21
404.49	1994.72
404.70	1947.62
404.90	1959.91
405.11	1853.41
405.32	1898.47
405.52	1824.74
405.73	1798.12
405.94	1740.77
406.15	1771.49
406.35	1888.23
406.56	1886.18
406.77	1904.61
406.98	1796.07
407.18	1755.11
407.39	1908.71
407.60	1740.77
407.80	1834.98
408.01	1794.02
408.22	1824.74
408.43	1804.26
408.63	1943.52
408.84	1877.99
409.05	1904.61
409.25	1712.10
409.46	1783.78
409.67	1849.32
409.88	1787.88
410.08	1873.89
410.29	1757.16
410.50	1861.60
410.70	1818.60
410.91	1738.73
411.12	1863.65
411.32	1886.18
411.53	1794.02
411.74	1929.19
411.95	1877.99
412.15	1906.66
412.36	1916.90
412.57	1865.70
412.77	1980.39
412.98	1892.32
413.19	1855.46
413.39	1886.18
413.60	1896.42
413.81	1941.47
414.01	1767.40
414.22	1871.84
414.43	1925.09
414.63	1794.02
414.84	1941.47
415.05	1871.84
415.25	1708.01
415.46	1873.89
415.67	1765.35
415.87	1855.46
416.08	1855.46
416.29	1806.31
416.49	1853.41
416.70	1820.64
416.91	1796.07
417.11	1738.73
417.32	1832.93
417.53	1871.84
417.73	1830.88
417.94	1845.22
418.15	1765.35
418.35	1800.16
418.56	1787.88
418.77	1943.52
418.97	1765.35
419.18	1791.97
419.38	1712.10
419.59	1859.56
419.80	1976.29
420.00	1804.26
420.21	1839.08
420.42	1902.56
420.62	1877.99
420.83	1767.40
421.04	1728.49
421.24	1851.36
421.45	1853.41
421.65	1802.21
421.86	1802.21
422.07	1783.78
422.27	1808.36
422.48	1910.75
422.69	1716.20
422.89	1744.87
423.10	1855.46
423.30	1718.25
423.51	1822.69
423.72	1785.83
423.92	1882.08
424.13	1789.92
424.33	1841.12
424.54	1880.04
424.75	1773.54
424.95	1933.28
425.16	1787.88
425.36	1843.17
425.57	1886.18
425.78	1927.14
425.98	1888.23
426.19	1787.88
426.39	1712.10
426.60	1845.22
426.81	1927.14
427.01	1837.03
427.22	1742.82
427.42	1701.86
427.63	1783.78
427.83	1845.22
428.04	1890.28
428.25	1982.43
428.45	1906.66
428.66	1875.94
428.86	1810.40
429.07	1867.75
429.28	1820.64
429.48	1769.44
429.69	1726.44
429.89	1837.03
430.10	1818.60
430.30	1900.52
430.51	1841.12
430.71	1736.68
430.92	1763.30
431.13	1800.16
431.33	1865.70
431.54	1855.46
431.74	1886.18
431.95	1916.90
432.15	1812.45
432.36	1890.28
432.56	1890.28
432.77	1961.95
432.98	1933.28
433.18	1814.50
433.39	1765.35
433.59	1738.73
433.80	1894.37
434.00	1955.81
434.21	1812.45
434.41	1724.39
434.62	2029.54
434.82	1744.87
435.03	1820.64
435.23	1857.51
435.44	1703.91
435.64	1853.41
435.85	1849.32
436.06	1849.32
436.26	1832.93
436.47	1814.50
436.67	1765.35
436.88	1855.46
437.08	1892.32
437.29	1906.66
437.49	1820.64
437.70	1904.61
437.90	1820.64
438.11	1966.05
438.31	1959.91
438.52	2007.01
438.72	2064.35
438.93	2043.87
439.13	2025.44
439.34	1992.67
439.54	1906.66
439.75	1816.55
439.95	1847.27
440.16	1847.27
440.36	1796.07
440.57	1871.84
440.77	1853.41
440.98	1843.17
441.18	1890.28
441.39	1830.88
441.59	1779.68
441.80	1976.29
442.00	1828.84
442.21	1918.95
442.41	1662.95
442.62	1896.42
442.82	1804.26
443.02	1814.50
443.23	1828.84
443.43	1851.36
443.64	1947.62
443.84	1806.31
444.05	1955.81
444.25	1841.12
444.46	1841.12
444.66	1849.32
444.87	1980.39
445.07	1697.77
445.28	1810.40
445.48	1888.23
445.69	1894.37
445.89	2019.30
446.09	1837.03
446.30	2099.17
446.50	2645.98
446.71	4169.66
446.91	5181.36
447.12	6012.84
447.32	6377.37
447.53	5734.31
447.73	4575.16
447.93	4184.00
448.14	3870.66
448.34	3585.99
448.55	3278.80
448.75	3190.74
448.96	3049.43
449.16	2752.47
449.36	2473.95
449.57	2242.53
449.77	2068.45
449.98	1912.80
450.18	1972.19
450.39	1884.13
450.59	1847.27
450.79	1853.41
451.00	1802.21
451.20	1925.09
451.41	1828.84
451.61	1832.93
451.81	1802.21
452.02	1794.02
452.22	1843.17
452.43	1746.92
452.63	1830.88
