SpectraSuite Data File
++++++++++++++++++++++++++++++++++++
Date: Wed May 04 21:13:39 CEST 2016
User: root
Dark Spectrum Present: No
Reference Spectrum Present: No
Number of Sampled Component Spectra: 1
Spectrometers: USB4C02835
Integration Time (usec): 100000 (USB4C02835)
Spectra Averaged: 1 (USB4C02835)
Boxcar Smoothing: 0 (USB4C02835)
Correct for Electrical Dark: No (USB4C02835)
Strobe/Lamp Enabled: No (USB4C02835)
Correct for Detector Non-linearity: No (USB4C02835)
Correct for Stray Light: No (USB4C02835)
Number of Pixels in Processed Spectrum: 3648
>>>>>Begin Processed Spectral Data<<<<<
177.47	1521.64
177.69	1521.64
177.91	1521.64
178.13	1544.17
178.36	1533.93
178.58	1734.63
178.80	1824.74
179.02	1796.07
179.24	1708.01
179.46	1771.49
179.68	1877.99
179.90	1845.22
180.13	1847.27
180.35	1791.97
180.57	1832.93
180.79	1894.37
181.01	1869.80
181.23	1861.60
181.45	1841.12
181.67	1873.89
181.90	1871.84
182.12	1712.10
182.34	1755.11
182.56	1734.63
182.78	1822.69
183.00	1802.21
183.22	1890.28
183.44	1691.62
183.66	2017.25
183.89	1910.75
184.11	1808.36
184.33	1869.80
184.55	1845.22
184.77	1773.54
184.99	1818.60
185.21	1841.12
185.43	1918.95
185.65	1746.92
185.87	1888.23
186.10	1980.39
186.32	1925.09
186.54	1818.60
186.76	1898.47
186.98	1882.08
187.20	1822.69
187.42	1816.55
187.64	1882.08
187.86	1849.32
188.08	1961.95
188.30	1781.73
188.52	1832.93
188.75	1847.27
188.97	1853.41
189.19	1732.58
189.41	1773.54
189.63	1908.71
189.85	1808.36
190.07	1820.64
190.29	1742.82
190.51	1910.75
190.73	1738.73
190.95	1832.93
191.17	1791.97
191.39	1779.68
191.61	1779.68
191.84	1810.40
192.06	1871.84
192.28	1636.33
192.50	2050.02
192.72	1853.41
192.94	1808.36
193.16	1843.17
193.38	1925.09
193.60	1777.64
193.82	1810.40
194.04	1945.57
194.26	1828.84
194.48	1755.11
194.70	1791.97
194.92	1789.92
195.14	1806.31
195.36	1812.45
195.58	1863.65
195.80	1816.55
196.02	1820.64
196.24	1808.36
196.46	1871.84
196.69	1808.36
196.91	1980.39
197.13	1703.91
197.35	1718.25
197.57	1865.70
197.79	1822.69
198.01	1830.88
198.23	1798.12
198.45	1765.35
198.67	1708.01
198.89	1742.82
199.11	1925.09
199.33	1802.21
199.55	1701.86
199.77	1748.97
199.99	1894.37
200.21	1777.64
200.43	1845.22
200.65	1701.86
200.87	1685.48
201.09	1755.11
201.31	1722.34
201.53	1806.31
201.75	1824.74
201.97	1847.27
202.19	1751.01
202.41	1898.47
202.63	1898.47
202.85	1820.64
203.07	1767.40
203.29	1798.12
203.51	1787.88
203.73	1820.64
203.95	2009.06
204.17	1867.75
204.39	1763.30
204.61	1841.12
204.83	1794.02
205.05	1855.46
205.27	1894.37
205.49	1923.04
205.71	1746.92
205.93	1744.87
206.15	1753.06
206.37	1777.64
206.59	1798.12
206.81	1697.77
207.03	1771.49
207.25	1796.07
207.47	1880.04
207.69	1767.40
207.91	1837.03
208.13	1982.43
208.34	1738.73
208.56	1742.82
208.78	1859.56
209.00	1880.04
209.22	1783.78
209.44	1812.45
209.66	1794.02
209.88	1814.50
210.10	1800.16
210.32	1761.25
210.54	1933.28
210.76	1789.92
210.98	1767.40
211.20	1691.62
211.42	1826.79
211.64	1894.37
211.86	1798.12
212.08	1839.08
212.30	1839.08
212.52	1712.10
212.74	1869.80
212.96	1826.79
213.17	1873.89
213.39	1845.22
213.61	1912.80
213.83	1783.78
214.05	1892.32
214.27	1841.12
214.49	1800.16
214.71	1839.08
214.93	1824.74
215.15	1808.36
215.37	1828.84
215.59	1783.78
215.81	1802.21
216.03	1929.19
216.24	1851.36
216.46	1785.83
216.68	1875.94
216.90	1834.98
217.12	1834.98
217.34	1828.84
217.56	1832.93
217.78	1931.23
218.00	1910.75
218.22	1794.02
218.44	1853.41
218.66	1863.65
218.87	1914.85
219.09	1837.03
219.31	1841.12
219.53	1810.40
219.75	1761.25
219.97	1804.26
220.19	1810.40
220.41	1814.50
220.63	1945.57
220.85	1898.47
221.06	1722.34
221.28	1841.12
221.50	1820.64
221.72	1804.26
221.94	1826.79
222.16	1834.98
222.38	1861.60
222.60	1826.79
222.82	1847.27
223.03	1892.32
223.25	1716.20
223.47	1783.78
223.69	1976.29
223.91	1826.79
224.13	1791.97
224.35	1761.25
224.57	1843.17
224.78	1890.28
225.00	1755.11
225.22	1767.40
225.44	1806.31
225.66	1820.64
225.88	1820.64
226.10	1966.05
226.32	1824.74
226.53	1941.47
226.75	1771.49
226.97	1771.49
227.19	1834.98
227.41	1726.44
227.63	1708.01
227.85	1703.91
228.06	1779.68
228.28	1837.03
228.50	1865.70
228.72	1638.38
228.94	1759.21
229.16	1755.11
229.37	1794.02
229.59	1814.50
229.81	1910.75
230.03	1810.40
230.25	1742.82
230.47	1716.20
230.69	1714.15
230.90	1863.65
231.12	1802.21
231.34	1781.73
231.56	1847.27
231.78	1757.16
232.00	1755.11
232.21	1767.40
232.43	1773.54
232.65	1712.10
232.87	1841.12
233.09	1738.73
233.30	1812.45
233.52	1841.12
233.74	1832.93
233.96	1802.21
234.18	1828.84
234.40	1775.59
234.61	1920.99
234.83	1777.64
235.05	1791.97
235.27	1947.62
235.49	1822.69
235.70	1798.12
235.92	1882.08
236.14	1822.69
236.36	1976.29
236.58	1660.90
236.79	1873.89
237.01	1779.68
237.23	1806.31
237.45	1890.28
237.67	1802.21
237.88	1806.31
238.10	1925.09
238.32	1802.21
238.54	1726.44
238.76	1832.93
238.97	1816.55
239.19	1710.05
239.41	1918.95
239.63	1841.12
239.85	1757.16
240.06	1845.22
240.28	1767.40
240.50	1902.56
240.72	1806.31
240.93	1812.45
241.15	1920.99
241.37	1796.07
241.59	1906.66
241.81	1810.40
242.02	1855.46
242.24	1820.64
242.46	1851.36
242.68	1759.21
242.89	1863.65
243.11	1802.21
243.33	1763.30
243.55	1837.03
243.76	1828.84
243.98	1794.02
244.20	1822.69
244.42	1834.98
244.64	1845.22
244.85	1748.97
245.07	1779.68
245.29	1853.41
245.51	1771.49
245.72	1800.16
245.94	1869.80
246.16	1845.22
246.38	1794.02
246.59	1812.45
246.81	1796.07
247.03	1716.20
247.24	1744.87
247.46	1710.05
247.68	1851.36
247.90	1785.83
248.11	1740.77
248.33	1808.36
248.55	1843.17
248.77	1808.36
248.98	1779.68
249.20	1923.04
249.42	1800.16
249.64	1894.37
249.85	1832.93
250.07	1812.45
250.29	1822.69
250.50	1832.93
250.72	1771.49
250.94	1820.64
251.16	1931.23
251.37	1869.80
251.59	1794.02
251.81	1824.74
252.02	1966.05
252.24	1751.01
252.46	1865.70
252.68	1781.73
252.89	1869.80
253.11	1685.48
253.33	1877.99
253.54	1884.13
253.76	1697.77
253.98	1712.10
254.20	1771.49
254.41	1744.87
254.63	1787.88
254.85	1744.87
255.06	1904.61
255.28	1824.74
255.50	1855.46
255.71	1720.29
255.93	1746.92
256.15	1814.50
256.36	1814.50
256.58	1691.62
256.80	1820.64
257.02	1816.55
257.23	1726.44
257.45	1849.32
257.67	1847.27
257.88	1787.88
258.10	1900.52
258.32	1820.64
258.53	1834.98
258.75	1912.80
258.97	1783.78
259.18	1822.69
259.40	1798.12
259.62	1943.52
259.83	1886.18
260.05	1808.36
260.27	2209.76
260.48	1873.89
260.70	1742.82
260.92	1806.31
261.13	1855.46
261.35	1779.68
261.57	1814.50
261.78	1697.77
262.00	1751.01
262.22	1832.93
262.43	1884.13
262.65	1812.45
262.86	1828.84
263.08	2029.54
263.30	1785.83
263.51	1597.42
263.73	1763.30
263.95	1918.95
264.16	1748.97
264.38	1728.49
264.60	1785.83
264.81	1755.11
265.03	1884.13
265.25	1884.13
265.46	1800.16
265.68	1859.56
265.89	1865.70
266.11	1748.97
266.33	1824.74
266.54	1849.32
266.76	1830.88
266.98	1779.68
267.19	1955.81
267.41	1841.12
267.62	1837.03
267.84	1761.25
268.06	1822.69
268.27	1877.99
268.49	1894.37
268.70	1863.65
268.92	1816.55
269.14	1730.53
269.35	1714.15
269.57	1810.40
269.79	1888.23
270.00	1789.92
270.22	1834.98
270.43	1765.35
270.65	1679.33
270.87	1830.88
271.08	1849.32
271.30	1871.84
271.51	1812.45
271.73	1855.46
271.95	1920.99
272.16	1818.60
272.38	1877.99
272.59	1732.58
272.81	1886.18
273.02	1826.79
273.24	1933.28
273.46	1869.80
273.67	1779.68
273.89	1732.58
274.10	1757.16
274.32	1947.62
274.54	1771.49
274.75	1918.95
274.97	1800.16
275.18	1880.04
275.40	1828.84
275.61	1775.59
275.83	1800.16
276.05	1740.77
276.26	1794.02
276.48	1808.36
276.69	1755.11
276.91	1732.58
277.12	1970.15
277.34	1869.80
277.55	1910.75
277.77	1824.74
277.99	1798.12
278.20	1673.19
278.42	1724.39
278.63	1789.92
278.85	1710.05
279.06	1736.68
279.28	1787.88
279.49	1826.79
279.71	1871.84
279.93	1875.94
280.14	1779.68
280.36	1812.45
280.57	1927.14
280.79	1904.61
281.00	1769.44
281.22	1738.73
281.43	1837.03
281.65	1669.09
281.86	1800.16
282.08	1877.99
282.29	1853.41
282.51	1759.21
282.73	1765.35
282.94	1796.07
283.16	1886.18
283.37	1880.04
283.59	1839.08
283.80	1767.40
284.02	1806.31
284.23	1828.84
284.45	1877.99
284.66	1705.96
284.88	1810.40
285.09	1834.98
285.31	1880.04
285.52	1869.80
285.74	1742.82
285.95	1822.69
286.17	1843.17
286.38	1767.40
286.60	1726.44
286.81	1736.68
287.03	1734.63
287.24	1748.97
287.46	1869.80
287.67	1726.44
287.89	1857.51
288.10	1802.21
288.32	1839.08
288.53	1841.12
288.75	1839.08
288.96	1890.28
289.18	1697.77
289.39	1802.21
289.61	1837.03
289.82	1949.67
290.04	1918.95
290.25	1798.12
290.47	1744.87
290.68	1802.21
290.90	1886.18
291.11	1689.57
291.33	1908.71
291.54	1742.82
291.76	1710.05
291.97	1781.73
292.18	1824.74
292.40	1744.87
292.61	1742.82
292.83	1898.47
293.04	1908.71
293.26	1859.56
293.47	1789.92
293.69	1714.15
293.90	1832.93
294.12	1871.84
294.33	1775.59
294.55	1781.73
294.76	1902.56
294.97	1824.74
295.19	1857.51
295.40	1818.60
295.62	1843.17
295.83	1794.02
296.05	1736.68
296.26	1855.46
296.48	1755.11
296.69	1830.88
296.90	1771.49
297.12	1845.22
297.33	1902.56
297.55	1808.36
297.76	1863.65
297.98	1845.22
298.19	1796.07
298.41	1812.45
298.62	1677.29
298.83	1884.13
299.05	1763.30
299.26	1789.92
299.48	1789.92
299.69	1865.70
299.90	1800.16
300.12	1746.92
300.33	1873.89
300.55	1787.88
300.76	1861.60
300.98	1746.92
301.19	1851.36
301.40	1798.12
301.62	1804.26
301.83	1808.36
302.05	1845.22
302.26	1814.50
302.47	1863.65
302.69	1662.95
302.90	1861.60
303.12	1640.42
303.33	1867.75
303.54	1906.66
303.76	1845.22
303.97	1775.59
304.19	1914.85
304.40	1759.21
304.61	1894.37
304.83	1968.10
305.04	1923.04
305.26	1888.23
305.47	1734.63
305.68	1818.60
305.90	1705.96
306.11	1908.71
306.33	1816.55
306.54	1708.01
306.75	1791.97
306.97	1773.54
307.18	1677.29
307.39	1810.40
307.61	1865.70
307.82	1746.92
308.04	1812.45
308.25	1699.81
308.46	1845.22
308.68	1826.79
308.89	1816.55
309.10	1949.67
309.32	1859.56
309.53	1748.97
309.74	1869.80
309.96	1798.12
310.17	1929.19
310.39	1771.49
310.60	1867.75
310.81	1796.07
311.03	1761.25
311.24	1912.80
311.45	1771.49
311.67	1939.43
311.88	1824.74
312.09	1806.31
312.31	1759.21
312.52	1808.36
312.73	1796.07
312.95	1708.01
313.16	1794.02
313.37	1886.18
313.59	1865.70
313.80	1892.32
314.01	1890.28
314.23	1818.60
314.44	1787.88
314.65	1681.38
314.87	1785.83
315.08	1777.64
315.29	1841.12
315.51	1771.49
315.72	1738.73
315.93	1857.51
316.15	1882.08
316.36	1773.54
316.57	1822.69
316.79	1912.80
317.00	1804.26
317.21	1818.60
317.43	1775.59
317.64	1800.16
317.85	1785.83
318.07	1814.50
318.28	1898.47
318.49	2033.63
318.70	2121.70
318.92	1955.81
319.13	2013.15
319.34	2029.54
319.56	1953.76
319.77	1961.95
319.98	1929.19
320.20	1957.86
320.41	1918.95
320.62	1927.14
320.83	1755.11
321.05	1966.05
321.26	1859.56
321.47	1849.32
321.69	1837.03
321.90	1718.25
322.11	1738.73
322.32	1816.55
322.54	1927.14
322.75	1767.40
322.96	1931.23
323.18	1779.68
323.39	1734.63
323.60	1816.55
323.81	1789.92
324.03	1824.74
324.24	1824.74
324.45	1851.36
324.66	1744.87
324.88	1910.75
325.09	1914.85
325.30	1779.68
325.52	1865.70
325.73	1789.92
325.94	1712.10
326.15	1708.01
326.37	1751.01
326.58	1837.03
326.79	1918.95
327.00	1765.35
327.22	1841.12
327.43	1759.21
327.64	1777.64
327.85	1816.55
328.07	1865.70
328.28	1929.19
328.49	1722.34
328.70	1757.16
328.92	1751.01
329.13	1931.23
329.34	1871.84
329.55	1951.71
329.76	1877.99
329.98	1777.64
330.19	1980.39
330.40	1845.22
330.61	1865.70
330.83	1834.98
331.04	1849.32
331.25	1853.41
331.46	1859.56
331.68	1742.82
331.89	1888.23
332.10	1843.17
332.31	1738.73
332.52	1806.31
332.74	1949.67
332.95	1718.25
333.16	1841.12
333.37	1867.75
333.58	1806.31
333.80	1818.60
334.01	1755.11
334.22	1849.32
334.43	1685.48
334.64	1812.45
334.86	1662.95
335.07	1724.39
335.28	1945.57
335.49	1763.30
335.70	1845.22
335.92	1894.37
336.13	2068.45
336.34	1888.23
336.55	1806.31
336.76	1781.73
336.98	1669.09
337.19	1771.49
337.40	1902.56
337.61	2013.15
337.82	1806.31
338.04	1832.93
338.25	1753.06
338.46	1892.32
338.67	1800.16
338.88	1771.49
339.09	1800.16
339.31	1744.87
339.52	1740.77
339.73	1787.88
339.94	1832.93
340.15	1875.94
340.36	1798.12
340.58	1816.55
340.79	1763.30
341.00	1832.93
341.21	1765.35
341.42	1959.91
341.63	1712.10
341.85	1927.14
342.06	1791.97
342.27	1720.29
342.48	1824.74
342.69	1767.40
342.90	1859.56
343.12	1824.74
343.33	1812.45
343.54	1880.04
343.75	1910.75
343.96	1812.45
344.17	1748.97
344.38	1730.53
344.60	1767.40
344.81	1767.40
345.02	1843.17
345.23	1884.13
345.44	1941.47
345.65	1820.64
345.86	1837.03
346.07	1886.18
346.29	1746.92
346.50	1843.17
346.71	1841.12
346.92	1992.67
347.13	1994.72
347.34	1832.93
347.55	1806.31
347.76	1834.98
347.98	1699.81
348.19	1722.34
348.40	1912.80
348.61	1767.40
348.82	1900.52
349.03	1916.90
349.24	1771.49
349.45	1945.57
349.66	1755.11
349.88	1791.97
350.09	1767.40
350.30	1904.61
350.51	1898.47
350.72	1847.27
350.93	1802.21
351.14	1769.44
351.35	1896.42
351.56	1759.21
351.77	1769.44
351.99	1865.70
352.20	1888.23
352.41	1882.08
352.62	1718.25
352.83	1814.50
353.04	1847.27
353.25	1701.86
353.46	1853.41
353.67	1898.47
353.88	1742.82
354.09	1773.54
354.30	1845.22
354.52	1794.02
354.73	1734.63
354.94	1783.78
355.15	1875.94
355.36	1943.52
355.57	1796.07
355.78	1812.45
355.99	1757.16
356.20	1812.45
356.41	1853.41
356.62	1849.32
356.83	1845.22
357.04	1939.43
357.25	1728.49
357.46	1787.88
357.68	1689.57
357.89	1748.97
358.10	1757.16
358.31	1808.36
358.52	1834.98
358.73	1785.83
358.94	1722.34
359.15	1705.96
359.36	1912.80
359.57	1796.07
359.78	1804.26
359.99	1918.95
360.20	1810.40
360.41	1798.12
360.62	1755.11
360.83	1761.25
361.04	1816.55
361.25	1851.36
361.46	1931.23
361.67	1869.80
361.88	1845.22
362.09	1906.66
362.30	1771.49
362.51	1832.93
362.72	1794.02
362.93	1900.52
363.14	1859.56
363.35	1826.79
363.56	1712.10
363.78	1877.99
363.99	1808.36
364.20	1775.59
364.41	1880.04
364.62	1906.66
364.83	1800.16
365.04	1755.11
365.25	1802.21
365.46	2007.01
365.67	1761.25
365.88	1789.92
366.09	1861.60
366.30	1804.26
366.51	1775.59
366.72	1712.10
366.93	1834.98
367.14	1845.22
367.35	1839.08
367.56	1837.03
367.77	1820.64
367.98	1787.88
368.18	1845.22
368.39	1859.56
368.60	1818.60
368.81	1914.85
369.02	1877.99
369.23	1820.64
369.44	1730.53
369.65	1777.64
369.86	1841.12
370.07	1832.93
370.28	1820.64
370.49	1847.27
370.70	1894.37
370.91	1736.68
371.12	1697.77
371.33	1906.66
371.54	1796.07
371.75	1918.95
371.96	1740.77
372.17	1861.60
372.38	1808.36
372.59	1828.84
372.80	1767.40
373.01	1746.92
373.22	1781.73
373.43	1759.21
373.64	1824.74
373.85	1898.47
374.06	1849.32
374.26	1972.19
374.47	1820.64
374.68	1939.43
374.89	1830.88
375.10	1865.70
375.31	1824.74
375.52	1896.42
375.73	1832.93
375.94	1732.58
376.15	1902.56
376.36	1748.97
376.57	1753.06
376.78	1767.40
376.99	1779.68
377.20	1857.51
377.40	1759.21
377.61	1957.86
377.82	1732.58
378.03	1955.81
378.24	1849.32
378.45	1824.74
378.66	1853.41
378.87	1662.95
379.08	1753.06
379.29	1732.58
379.50	1880.04
379.71	1757.16
379.91	1898.47
380.12	1777.64
380.33	1806.31
380.54	1828.84
380.75	1804.26
380.96	1820.64
381.17	1869.80
381.38	1837.03
381.59	1849.32
381.80	1845.22
382.00	1961.95
382.21	1828.84
382.42	1955.81
382.63	1992.67
382.84	1894.37
383.05	1964.00
383.26	1890.28
383.47	1820.64
383.68	1845.22
383.88	1859.56
384.09	1812.45
384.30	1939.43
384.51	1791.97
384.72	1703.91
384.93	1767.40
385.14	1914.85
385.35	1865.70
385.55	1660.90
385.76	1980.39
385.97	1820.64
386.18	1839.08
386.39	1718.25
386.60	1757.16
386.81	1818.60
387.02	1796.07
387.22	1744.87
387.43	1873.89
387.64	1898.47
387.85	2019.30
388.06	2179.04
388.27	4241.34
388.48	8742.78
388.68	11966.28
388.89	13612.85
389.10	14892.83
389.31	13025.08
389.52	10327.91
389.73	9230.20
389.93	8322.94
390.14	7520.14
390.35	6862.74
390.56	6129.57
390.77	5058.48
390.98	3901.38
391.18	3057.62
391.39	2432.99
391.60	2043.87
391.81	1998.82
392.02	1830.88
392.23	2045.92
392.43	1851.36
392.64	1888.23
392.85	1892.32
393.06	1951.71
393.27	1873.89
393.47	1834.98
393.68	1863.65
393.89	1746.92
394.10	1923.04
394.31	1822.69
394.52	1751.01
394.72	1826.79
394.93	1863.65
395.14	1806.31
395.35	1863.65
395.56	1798.12
395.76	1818.60
395.97	1818.60
396.18	1968.10
396.39	1974.24
396.60	2156.51
396.80	2076.64
397.01	2035.68
397.22	2035.68
397.43	1974.24
397.64	1920.99
397.84	1923.04
398.05	2011.11
398.26	1884.13
398.47	1923.04
398.67	1896.42
398.88	1791.97
399.09	1826.79
399.30	1880.04
399.51	1880.04
399.71	1763.30
399.92	1787.88
400.13	1847.27
400.34	1763.30
400.54	1804.26
400.75	1992.67
400.96	1863.65
401.17	1945.57
401.37	1902.56
401.58	1761.25
401.79	1791.97
402.00	1955.81
402.21	2197.47
402.41	2179.04
402.62	2201.57
402.83	2318.30
403.04	2326.49
403.24	2322.40
403.45	2013.15
403.66	2041.82
403.87	1964.00
404.07	2058.21
404.28	2119.65
404.49	2103.26
404.70	1918.95
404.90	1888.23
405.11	1857.51
405.32	1869.80
405.52	1718.25
405.73	1757.16
405.94	1771.49
406.15	1810.40
406.35	1851.36
406.56	1918.95
406.77	1767.40
406.98	1896.42
407.18	1808.36
407.39	1947.62
407.60	1751.01
407.80	1837.03
408.01	1693.67
408.22	1888.23
408.43	1783.78
408.63	1849.32
408.84	1867.75
409.05	1828.84
409.25	1734.63
409.46	1845.22
409.67	1769.44
409.88	1832.93
410.08	1806.31
410.29	1755.11
410.50	1845.22
410.70	1843.17
410.91	1818.60
411.12	1880.04
411.32	1820.64
411.53	1804.26
411.74	1918.95
411.95	1918.95
412.15	1791.97
412.36	1943.52
412.57	1947.62
412.77	1888.23
412.98	1875.94
413.19	1906.66
413.39	1824.74
413.60	1816.55
413.81	1990.63
414.01	1841.12
414.22	1814.50
414.43	1916.90
414.63	1763.30
414.84	1824.74
415.05	1769.44
415.25	1728.49
415.46	1804.26
415.67	1722.34
415.87	1861.60
416.08	1765.35
416.29	1804.26
416.49	1869.80
416.70	1783.78
416.91	1822.69
417.11	1787.88
417.32	1894.37
417.53	1912.80
417.73	1873.89
417.94	1822.69
418.15	1869.80
418.35	1830.88
418.56	1865.70
418.77	1959.91
418.97	1777.64
419.18	1814.50
419.38	1646.57
419.59	1861.60
419.80	1820.64
420.00	1773.54
420.21	1861.60
420.42	1931.23
420.62	1824.74
420.83	1769.44
421.04	1796.07
421.24	1783.78
421.45	1882.08
421.65	1908.71
421.86	1869.80
422.07	1861.60
422.27	1791.97
422.48	1834.98
422.69	1775.59
422.89	1841.12
423.10	1751.01
423.30	1689.57
423.51	1839.08
423.72	1820.64
423.92	1857.51
424.13	1796.07
424.33	1763.30
424.54	1828.84
424.75	1810.40
424.95	1957.86
425.16	1900.52
425.36	1802.21
425.57	1816.55
425.78	1761.25
425.98	1882.08
426.19	1753.06
426.39	1839.08
426.60	1845.22
426.81	1959.91
427.01	1877.99
427.22	1746.92
427.42	1650.66
427.63	1791.97
427.83	1837.03
428.04	1970.15
428.25	1929.19
428.45	1918.95
428.66	1968.10
428.86	1791.97
429.07	1806.31
429.28	1843.17
429.48	1781.73
429.69	1726.44
429.89	1824.74
430.10	1681.38
430.30	1822.69
430.51	1900.52
430.71	1773.54
430.92	1769.44
431.13	1798.12
431.33	1859.56
431.54	1822.69
431.74	1880.04
431.95	1892.32
432.15	1656.81
432.36	1849.32
432.56	1845.22
432.77	1959.91
432.98	1912.80
433.18	1871.84
433.39	1845.22
433.59	1794.02
433.80	1908.71
434.00	1980.39
434.21	1689.57
434.41	1796.07
434.62	1947.62
434.82	1718.25
435.03	1806.31
435.23	1892.32
435.44	1748.97
435.64	1853.41
435.85	1828.84
436.06	1935.33
436.26	1898.47
436.47	1806.31
436.67	1816.55
436.88	1857.51
437.08	1867.75
437.29	1898.47
437.49	1837.03
437.70	1912.80
437.90	1843.17
438.11	1927.14
438.31	1902.56
438.52	1982.43
438.72	2021.35
438.93	2064.35
439.13	1984.48
439.34	1982.43
439.54	1931.23
439.75	1923.04
439.95	1890.28
440.16	1804.26
440.36	1925.09
440.57	1884.13
440.77	1871.84
440.98	1837.03
441.18	1898.47
441.39	1873.89
441.59	1765.35
441.80	2002.91
442.00	1875.94
442.21	1882.08
442.41	1722.34
442.62	1976.29
442.82	1849.32
443.02	1791.97
443.23	1837.03
443.43	1869.80
443.64	1949.67
443.84	1808.36
444.05	1968.10
444.25	1812.45
444.46	1765.35
444.66	1888.23
444.87	1980.39
445.07	1816.55
445.28	1832.93
445.48	1857.51
445.69	1859.56
445.89	2011.11
446.09	1892.32
446.30	2045.92
446.50	2598.87
446.71	4169.66
446.91	5164.98
447.12	5969.83
447.32	6281.12
447.53	5648.30
447.73	4712.38
447.93	3975.11
448.14	3715.02
448.34	3520.46
448.55	3231.69
448.75	3157.97
448.96	3067.86
449.16	2752.47
449.36	2596.82
449.57	2263.01
449.77	2054.11
449.98	1910.75
450.18	1937.38
450.39	1951.71
450.59	1904.61
450.79	1882.08
451.00	1820.64
451.20	1871.84
451.41	1818.60
451.61	1849.32
451.81	1837.03
452.02	1812.45
452.22	1789.92
452.43	1742.82
452.63	1783.78
