SpectraSuite Data File
++++++++++++++++++++++++++++++++++++
Date: Wed May 04 21:12:56 CEST 2016
User: root
Dark Spectrum Present: No
Reference Spectrum Present: No
Number of Sampled Component Spectra: 1
Spectrometers: USB4C02835
Integration Time (usec): 100000 (USB4C02835)
Spectra Averaged: 1 (USB4C02835)
Boxcar Smoothing: 0 (USB4C02835)
Correct for Electrical Dark: No (USB4C02835)
Strobe/Lamp Enabled: No (USB4C02835)
Correct for Detector Non-linearity: No (USB4C02835)
Correct for Stray Light: No (USB4C02835)
Number of Pixels in Processed Spectrum: 3648
>>>>>Begin Processed Spectral Data<<<<<
177.47	1521.64
177.69	1521.64
177.91	1521.64
178.13	1587.18
178.36	1525.74
178.58	1765.35
178.80	1806.31
179.02	1771.49
179.24	1775.59
179.46	1800.16
179.68	1865.70
179.90	1779.68
180.13	1839.08
180.35	1812.45
180.57	1800.16
180.79	1818.60
181.01	1765.35
181.23	1857.51
181.45	1863.65
181.67	1822.69
181.90	1890.28
182.12	1753.06
182.34	1742.82
182.56	1906.66
182.78	1828.84
183.00	1791.97
183.22	1818.60
183.44	1673.19
183.66	1978.34
183.89	1826.79
184.11	1877.99
184.33	1851.36
184.55	1939.43
184.77	1820.64
184.99	1796.07
185.21	1742.82
185.43	1937.38
185.65	1816.55
185.87	1824.74
186.10	1894.37
186.32	1978.34
186.54	1832.93
186.76	1839.08
186.98	1902.56
187.20	1779.68
187.42	1814.50
187.64	1837.03
187.86	1888.23
188.08	1824.74
188.30	1730.53
188.52	1800.16
188.75	1939.43
188.97	1892.32
189.19	1779.68
189.41	1814.50
189.63	1857.51
189.85	1765.35
190.07	1708.01
190.29	1681.38
190.51	1841.12
190.73	1753.06
190.95	1880.04
191.17	1785.83
191.39	1779.68
191.61	1744.87
191.84	1722.34
192.06	1820.64
192.28	1716.20
192.50	2052.06
192.72	1857.51
192.94	1820.64
193.16	1904.61
193.38	1837.03
193.60	1800.16
193.82	1771.49
194.04	1912.80
194.26	1869.80
194.48	1828.84
194.70	1773.54
194.92	1834.98
195.14	1830.88
195.36	1755.11
195.58	1884.13
195.80	1763.30
196.02	1736.68
196.24	1841.12
196.46	1800.16
196.69	1769.44
196.91	1947.62
197.13	1839.08
197.35	1877.99
197.57	1861.60
197.79	1812.45
198.01	1861.60
198.23	1779.68
198.45	1787.88
198.67	1748.97
198.89	1794.02
199.11	1916.90
199.33	1769.44
199.55	1656.81
199.77	1783.78
199.99	1861.60
200.21	1800.16
200.43	1877.99
200.65	1775.59
200.87	1753.06
201.09	1728.49
201.31	1884.13
201.53	1904.61
201.75	1816.55
201.97	1806.31
202.19	1839.08
202.41	1787.88
202.63	1943.52
202.85	1798.12
203.07	1820.64
203.29	1779.68
203.51	1761.25
203.73	1802.21
203.95	2037.73
204.17	1814.50
204.39	1863.65
204.61	1894.37
204.83	1810.40
205.05	1796.07
205.27	1839.08
205.49	1957.86
205.71	1767.40
205.93	1755.11
206.15	1767.40
206.37	1847.27
206.59	1773.54
206.81	1732.58
207.03	1734.63
207.25	1791.97
207.47	1830.88
207.69	1824.74
207.91	1877.99
208.13	1912.80
208.34	1755.11
208.56	1748.97
208.78	1820.64
209.00	1716.20
209.22	1765.35
209.44	1820.64
209.66	1843.17
209.88	1880.04
210.10	1777.64
210.32	1841.12
210.54	1849.32
210.76	1787.88
210.98	1896.42
211.20	1685.48
211.42	1806.31
211.64	1947.62
211.86	1824.74
212.08	1832.93
212.30	1755.11
212.52	1779.68
212.74	1849.32
212.96	1853.41
213.17	1859.56
213.39	1822.69
213.61	1918.95
213.83	1847.27
214.05	1757.16
214.27	1927.14
214.49	1806.31
214.71	1800.16
214.93	1828.84
215.15	1834.98
215.37	1779.68
215.59	1689.57
215.81	1892.32
216.03	1877.99
216.24	1869.80
216.46	1746.92
216.68	1769.44
216.90	1800.16
217.12	1888.23
217.34	1767.40
217.56	1822.69
217.78	1847.27
218.00	1855.46
218.22	1849.32
218.44	1865.70
218.66	1875.94
218.87	1947.62
219.09	1779.68
219.31	1925.09
219.53	1875.94
219.75	1761.25
219.97	1783.78
220.19	1841.12
220.41	1775.59
220.63	1935.33
220.85	1808.36
221.06	1773.54
221.28	1880.04
221.50	1822.69
221.72	1796.07
221.94	1828.84
222.16	1781.73
222.38	1806.31
222.60	1832.93
222.82	1839.08
223.03	1908.71
223.25	1748.97
223.47	1791.97
223.69	1896.42
223.91	1845.22
224.13	1853.41
224.35	1734.63
224.57	1853.41
224.78	1814.50
225.00	1712.10
225.22	1714.15
225.44	1830.88
225.66	1875.94
225.88	1761.25
226.10	1861.60
226.32	1828.84
226.53	1955.81
226.75	1863.65
226.97	1765.35
227.19	1775.59
227.41	1755.11
227.63	1773.54
227.85	1632.23
228.06	1779.68
228.28	1794.02
228.50	1830.88
228.72	1744.87
228.94	1771.49
229.16	1718.25
229.37	1693.67
229.59	1689.57
229.81	1953.76
230.03	1814.50
230.25	1738.73
230.47	1787.88
230.69	1703.91
230.90	1804.26
231.12	1820.64
231.34	1820.64
231.56	1914.85
231.78	1716.20
232.00	1808.36
232.21	1730.53
232.43	1738.73
232.65	1708.01
232.87	1830.88
233.09	1804.26
233.30	1787.88
233.52	1841.12
233.74	1837.03
233.96	1755.11
234.18	1796.07
234.40	1798.12
234.61	1951.71
234.83	1734.63
235.05	1728.49
235.27	1937.38
235.49	1871.84
235.70	1771.49
235.92	1898.47
236.14	1884.13
236.36	1964.00
236.58	1726.44
236.79	1884.13
237.01	1789.92
237.23	1794.02
237.45	1935.33
237.67	1767.40
237.88	1800.16
238.10	1970.15
238.32	1783.78
238.54	1857.51
238.76	1853.41
238.97	1787.88
239.19	1728.49
239.41	1882.08
239.63	1837.03
239.85	1732.58
240.06	1767.40
240.28	1794.02
240.50	1904.61
240.72	1865.70
240.93	1830.88
241.15	1861.60
241.37	1740.77
241.59	1912.80
241.81	1832.93
242.02	1837.03
242.24	1853.41
242.46	1859.56
242.68	1785.83
242.89	1798.12
243.11	1877.99
243.33	1873.89
243.55	1744.87
243.76	1853.41
243.98	1841.12
244.20	1769.44
244.42	1806.31
244.64	1834.98
244.85	1718.25
245.07	1708.01
245.29	1839.08
245.51	1757.16
245.72	1892.32
245.94	1937.38
246.16	1816.55
246.38	1892.32
246.59	1730.53
246.81	1746.92
247.03	1775.59
247.24	1757.16
247.46	1777.64
247.68	1798.12
247.90	1791.97
248.11	1826.79
248.33	1800.16
248.55	1751.01
248.77	1796.07
248.98	1898.47
249.20	1923.04
249.42	1802.21
249.64	1843.17
249.85	1808.36
250.07	1767.40
250.29	1851.36
250.50	1857.51
250.72	1708.01
250.94	1800.16
251.16	1910.75
251.37	1781.73
251.59	1783.78
251.81	1927.14
252.02	1826.79
252.24	1810.40
252.46	1812.45
252.68	1789.92
252.89	1853.41
253.11	1714.15
253.33	1939.43
253.54	1943.52
253.76	1785.83
253.98	1751.01
254.20	1804.26
254.41	1734.63
254.63	1804.26
254.85	1769.44
255.06	1787.88
255.28	1791.97
255.50	1775.59
255.71	1738.73
255.93	1716.20
256.15	1822.69
256.36	1908.71
256.58	1763.30
256.80	1839.08
257.02	1841.12
257.23	1810.40
257.45	1775.59
257.67	1880.04
257.88	1816.55
258.10	1863.65
258.32	1767.40
258.53	1810.40
258.75	1933.28
258.97	1708.01
259.18	1902.56
259.40	1800.16
259.62	1923.04
259.83	1828.84
260.05	1918.95
260.27	2041.82
260.48	1859.56
260.70	1746.92
260.92	1742.82
261.13	1845.22
261.35	1851.36
261.57	1855.46
261.78	1779.68
262.00	1802.21
262.22	1837.03
262.43	1789.92
262.65	1775.59
262.86	1771.49
263.08	1986.53
263.30	1810.40
263.51	1791.97
263.73	1802.21
263.95	1961.95
264.16	1763.30
264.38	1730.53
264.60	1791.97
264.81	1787.88
265.03	1857.51
265.25	1902.56
265.46	1861.60
265.68	1892.32
265.89	1882.08
266.11	1738.73
266.33	1847.27
266.54	1906.66
266.76	1945.57
266.98	1869.80
267.19	1953.76
267.41	1890.28
267.62	1853.41
267.84	1665.00
268.06	1861.60
268.27	1791.97
268.49	1855.46
268.70	1865.70
268.92	1894.37
269.14	1763.30
269.35	1773.54
269.57	1816.55
269.79	1935.33
270.00	1775.59
270.22	1933.28
270.43	1796.07
270.65	1613.80
270.87	1800.16
271.08	1912.80
271.30	1841.12
271.51	1779.68
271.73	1861.60
271.95	1886.18
272.16	1820.64
272.38	1855.46
272.59	1806.31
272.81	1841.12
273.02	1839.08
273.24	1855.46
273.46	1906.66
273.67	1728.49
273.89	1773.54
274.10	1814.50
274.32	1853.41
274.54	1923.04
274.75	1826.79
274.97	1814.50
275.18	1929.19
275.40	1845.22
275.61	1712.10
275.83	1806.31
276.05	1736.68
276.26	1832.93
276.48	1834.98
276.69	1751.01
276.91	1742.82
277.12	1918.95
277.34	1931.23
277.55	1865.70
277.77	1763.30
277.99	1812.45
278.20	1742.82
278.42	1787.88
278.63	1742.82
278.85	1740.77
279.06	1687.53
279.28	1943.52
279.49	1834.98
279.71	1863.65
279.93	1812.45
280.14	1804.26
280.36	1730.53
280.57	1910.75
280.79	1845.22
281.00	1873.89
281.22	1765.35
281.43	1863.65
281.65	1665.00
281.86	1734.63
282.08	1900.52
282.29	1898.47
282.51	1685.48
282.73	1769.44
282.94	1724.39
283.16	1869.80
283.37	1875.94
283.59	1783.78
283.80	1855.46
284.02	1804.26
284.23	1796.07
284.45	1755.11
284.66	1822.69
284.88	1687.53
285.09	1832.93
285.31	1791.97
285.52	1816.55
285.74	1660.90
285.95	1886.18
286.17	1861.60
286.38	1853.41
286.60	1812.45
286.81	1839.08
287.03	1765.35
287.24	1748.97
287.46	1834.98
287.67	1853.41
287.89	1982.43
288.10	1781.73
288.32	1789.92
288.53	1902.56
288.75	1873.89
288.96	1834.98
289.18	1757.16
289.39	1779.68
289.61	1839.08
289.82	1945.57
290.04	1920.99
290.25	1683.43
290.47	1808.36
290.68	1849.32
290.90	1834.98
291.11	1712.10
291.33	1845.22
291.54	1826.79
291.76	1740.77
291.97	1863.65
292.18	1828.84
292.40	1814.50
292.61	1779.68
292.83	1996.77
293.04	1822.69
293.26	1923.04
293.47	1738.73
293.69	1781.73
293.90	1806.31
294.12	1867.75
294.33	1798.12
294.55	1728.49
294.76	1822.69
294.97	1847.27
295.19	1974.24
295.40	1791.97
295.62	1806.31
295.83	1886.18
296.05	1794.02
296.26	1847.27
296.48	1681.38
296.69	1828.84
296.90	1769.44
297.12	1849.32
297.33	1929.19
297.55	1791.97
297.76	1828.84
297.98	1859.56
298.19	1763.30
298.41	1847.27
298.62	1746.92
298.83	1902.56
299.05	1916.90
299.26	1837.03
299.48	1771.49
299.69	1871.84
299.90	1818.60
300.12	1777.64
300.33	1818.60
300.55	1761.25
300.76	1888.23
300.98	1656.81
301.19	1837.03
301.40	1865.70
301.62	1779.68
301.83	1824.74
302.05	1818.60
302.26	1804.26
302.47	1783.78
302.69	1839.08
302.90	1853.41
303.12	1671.14
303.33	1830.88
303.54	1970.15
303.76	1796.07
303.97	1837.03
304.19	1935.33
304.40	1736.68
304.61	1800.16
304.83	1933.28
305.04	1867.75
305.26	1875.94
305.47	1796.07
305.68	1853.41
305.90	1734.63
306.11	1863.65
306.33	1826.79
306.54	1751.01
306.75	1746.92
306.97	1640.42
307.18	1785.83
307.39	1701.86
307.61	1855.46
307.82	1722.34
308.04	1800.16
308.25	1773.54
308.46	1769.44
308.68	1894.37
308.89	1810.40
309.10	1822.69
309.32	1855.46
309.53	1746.92
309.74	1783.78
309.96	1746.92
310.17	1867.75
310.39	1814.50
310.60	1802.21
310.81	1808.36
311.03	1773.54
311.24	1873.89
311.45	1794.02
311.67	1937.38
311.88	1810.40
312.09	1800.16
312.31	1763.30
312.52	1861.60
312.73	1787.88
312.95	1738.73
313.16	1880.04
313.37	1920.99
313.59	1820.64
313.80	1832.93
314.01	1890.28
314.23	1716.20
314.44	1800.16
314.65	1710.05
314.87	1779.68
315.08	1822.69
315.29	1767.40
315.51	1710.05
315.72	1755.11
315.93	1925.09
316.15	1839.08
316.36	1753.06
316.57	1820.64
316.79	1763.30
317.00	1730.53
317.21	1873.89
317.43	1761.25
317.64	1791.97
317.85	1769.44
318.07	1775.59
318.28	1861.60
318.49	2029.54
318.70	2131.94
318.92	2002.91
319.13	1996.77
319.34	2107.36
319.56	1998.82
319.77	1976.29
319.98	1927.14
320.20	1945.57
320.41	1994.72
320.62	1931.23
320.83	1808.36
321.05	1976.29
321.26	1828.84
321.47	1832.93
321.69	1869.80
321.90	1720.29
322.11	1800.16
322.32	1816.55
322.54	1882.08
322.75	1830.88
322.96	1966.05
323.18	1699.81
323.39	1730.53
323.60	1718.25
323.81	1814.50
324.03	1779.68
324.24	1812.45
324.45	1785.83
324.66	1820.64
324.88	1802.21
325.09	1888.23
325.30	1744.87
325.52	1812.45
325.73	1837.03
325.94	1781.73
326.15	1693.67
326.37	1800.16
326.58	1894.37
326.79	1953.76
327.00	1763.30
327.22	1771.49
327.43	1828.84
327.64	1810.40
327.85	1916.90
328.07	1855.46
328.28	1966.05
328.49	1751.01
328.70	1767.40
328.92	1814.50
329.13	1843.17
329.34	1806.31
329.55	1920.99
329.76	1865.70
329.98	1718.25
330.19	1880.04
330.40	1861.60
330.61	1832.93
330.83	1859.56
331.04	1765.35
331.25	1832.93
331.46	1861.60
331.68	1691.62
331.89	1914.85
332.10	1810.40
332.31	1798.12
332.52	1767.40
332.74	1882.08
332.95	1736.68
333.16	1800.16
333.37	1914.85
333.58	1767.40
333.80	1869.80
334.01	1722.34
334.22	1804.26
334.43	1710.05
334.64	1777.64
334.86	1746.92
335.07	1800.16
335.28	1918.95
335.49	1720.29
335.70	1845.22
335.92	1880.04
336.13	2029.54
336.34	1818.60
336.55	1804.26
336.76	1794.02
336.98	1681.38
337.19	1812.45
337.40	1949.67
337.61	1912.80
337.82	1771.49
338.04	1830.88
338.25	1673.19
338.46	1804.26
338.67	1740.77
338.88	1767.40
339.09	1689.57
339.31	1757.16
339.52	1869.80
339.73	1714.15
339.94	1783.78
340.15	1898.47
340.36	1777.64
340.58	1757.16
340.79	1820.64
341.00	1837.03
341.21	1773.54
341.42	1873.89
341.63	1804.26
341.85	1877.99
342.06	1828.84
342.27	1794.02
342.48	1882.08
342.69	1681.38
342.90	1751.01
343.12	1900.52
343.33	1783.78
343.54	1896.42
343.75	1914.85
343.96	1775.59
344.17	1796.07
344.38	1755.11
344.60	1722.34
344.81	1740.77
345.02	1828.84
345.23	1888.23
345.44	2050.02
345.65	1859.56
345.86	1810.40
346.07	1785.83
346.29	1818.60
346.50	1830.88
346.71	1920.99
346.92	1873.89
347.13	2037.73
347.34	1779.68
347.55	1845.22
347.76	1820.64
347.98	1675.24
348.19	1806.31
348.40	1945.57
348.61	1871.84
348.82	1918.95
349.03	1933.28
349.24	1742.82
349.45	1875.94
349.66	1794.02
349.88	1800.16
350.09	1849.32
350.30	1865.70
350.51	1906.66
350.72	1812.45
350.93	1777.64
351.14	1732.58
351.35	1816.55
351.56	1828.84
351.77	1832.93
351.99	1855.46
352.20	1882.08
352.41	1978.34
352.62	1720.29
352.83	1828.84
353.04	1822.69
353.25	1753.06
353.46	1900.52
353.67	1978.34
353.88	1613.80
354.09	1767.40
354.30	1771.49
354.52	1863.65
354.73	1775.59
354.94	1769.44
355.15	1787.88
355.36	1953.76
355.57	1845.22
355.78	1724.39
355.99	1751.01
356.20	1748.97
356.41	1855.46
356.62	1794.02
356.83	1753.06
357.04	1923.04
357.25	1705.96
357.46	1697.77
357.68	1783.78
357.89	1802.21
358.10	1845.22
358.31	1843.17
358.52	1771.49
358.73	1791.97
358.94	1824.74
359.15	1714.15
359.36	1839.08
359.57	1853.41
359.78	1853.41
359.99	1918.95
360.20	1820.64
360.41	1839.08
360.62	1898.47
360.83	1806.31
361.04	1851.36
361.25	1900.52
361.46	1966.05
361.67	1927.14
361.88	1828.84
362.09	1857.51
362.30	1877.99
362.51	1812.45
362.72	1796.07
362.93	1845.22
363.14	1865.70
363.35	1785.83
363.56	1751.01
363.78	1828.84
363.99	1898.47
364.20	1769.44
364.41	1830.88
364.62	1929.19
364.83	1884.13
365.04	1834.98
365.25	1802.21
365.46	1976.29
365.67	1839.08
365.88	1755.11
366.09	1816.55
366.30	1734.63
366.51	1761.25
366.72	1777.64
366.93	1775.59
367.14	1761.25
367.35	1941.47
367.56	1812.45
367.77	1820.64
367.98	1779.68
368.18	1857.51
368.39	1863.65
368.60	1740.77
368.81	1867.75
369.02	1832.93
369.23	1904.61
369.44	1667.05
369.65	1808.36
369.86	1826.79
370.07	1839.08
370.28	1767.40
370.49	1933.28
370.70	1855.46
370.91	1826.79
371.12	1734.63
371.33	1875.94
371.54	1824.74
371.75	1898.47
371.96	1726.44
372.17	1820.64
372.38	1794.02
372.59	1822.69
372.80	1824.74
373.01	1781.73
373.22	1845.22
373.43	1777.64
373.64	1769.44
373.85	1896.42
374.06	1931.23
374.26	1873.89
374.47	1802.21
374.68	1839.08
374.89	1847.27
375.10	1873.89
375.31	1935.33
375.52	1724.39
375.73	1834.98
375.94	1775.59
376.15	1914.85
376.36	1777.64
376.57	1779.68
376.78	1773.54
376.99	1806.31
377.20	1918.95
377.40	1769.44
377.61	1865.70
377.82	1728.49
378.03	1875.94
378.24	1867.75
378.45	1837.03
378.66	1824.74
378.87	1771.49
379.08	1689.57
379.29	1810.40
379.50	1906.66
379.71	1771.49
379.91	1912.80
380.12	1822.69
380.33	1820.64
380.54	1785.83
380.75	1816.55
380.96	1736.68
381.17	1892.32
381.38	1783.78
381.59	1937.38
381.80	1855.46
382.00	2002.91
382.21	1871.84
382.42	2004.96
382.63	2002.91
382.84	1775.59
383.05	1914.85
383.26	1947.62
383.47	1757.16
383.68	1877.99
383.88	1834.98
384.09	1820.64
384.30	1935.33
384.51	1892.32
384.72	1798.12
384.93	1773.54
385.14	1843.17
385.35	1861.60
385.55	1751.01
385.76	1845.22
385.97	1777.64
386.18	1738.73
386.39	1812.45
386.60	1822.69
386.81	1802.21
387.02	1761.25
387.22	1755.11
387.43	1884.13
387.64	1974.24
387.85	2027.49
388.06	2260.96
388.27	4339.65
388.48	9049.97
388.68	12148.55
388.89	14059.31
389.10	15445.78
389.31	13573.94
389.52	10639.20
389.73	9252.72
389.93	8423.30
390.14	7763.85
390.35	7184.27
390.56	6328.22
390.77	5177.26
390.98	4048.83
391.18	3252.17
391.39	2482.14
391.60	2080.74
391.81	1998.82
392.02	1845.22
392.23	1972.19
392.43	1875.94
392.64	1906.66
392.85	1865.70
393.06	1988.58
393.27	1884.13
393.47	1830.88
393.68	1841.12
393.89	1775.59
394.10	1861.60
394.31	1851.36
394.52	1746.92
394.72	1761.25
394.93	1875.94
395.14	1763.30
395.35	1824.74
395.56	1777.64
395.76	1789.92
395.97	1935.33
396.18	1943.52
396.39	1978.34
396.60	2201.57
396.80	2066.40
397.01	1964.00
397.22	1949.67
397.43	2035.68
397.64	1867.75
397.84	1986.53
398.05	1972.19
398.26	1834.98
398.47	1906.66
398.67	1904.61
398.88	1791.97
399.09	1855.46
399.30	1783.78
399.51	1808.36
399.71	1748.97
399.92	1816.55
400.13	1779.68
400.34	1796.07
400.54	1877.99
400.75	1939.43
400.96	1802.21
401.17	1906.66
401.37	1820.64
401.58	1857.51
401.79	1808.36
402.00	1896.42
402.21	2240.48
402.41	2181.09
402.62	2125.79
402.83	2230.24
403.04	2240.48
403.24	2291.68
403.45	2047.97
403.66	2076.64
403.87	2021.35
404.07	2050.02
404.28	2119.65
404.49	2002.91
404.70	1896.42
404.90	1935.33
405.11	1873.89
405.32	1857.51
405.52	1816.55
405.73	1742.82
405.94	1759.21
406.15	1837.03
406.35	1839.08
406.56	1892.32
406.77	1826.79
406.98	1882.08
407.18	1742.82
407.39	1945.57
407.60	1824.74
407.80	1875.94
408.01	1822.69
408.22	1904.61
408.43	1767.40
408.63	1898.47
408.84	1853.41
409.05	1890.28
409.25	1779.68
409.46	1783.78
409.67	1845.22
409.88	1834.98
410.08	1824.74
410.29	1828.84
410.50	1863.65
410.70	1890.28
410.91	1781.73
411.12	1853.41
411.32	1837.03
411.53	1791.97
411.74	1906.66
411.95	1972.19
412.15	1949.67
412.36	1996.77
412.57	1959.91
412.77	1910.75
412.98	1902.56
413.19	1785.83
413.39	1920.99
413.60	1890.28
413.81	1996.77
414.01	1796.07
414.22	1849.32
414.43	1984.48
414.63	1785.83
414.84	1871.84
415.05	1806.31
415.25	1767.40
415.46	1808.36
415.67	1777.64
415.87	1861.60
416.08	1837.03
416.29	1796.07
416.49	1779.68
416.70	1824.74
416.91	1791.97
417.11	1826.79
417.32	1849.32
417.53	1841.12
417.73	1794.02
417.94	1779.68
418.15	1888.23
418.35	1785.83
418.56	1789.92
418.77	2015.20
418.97	1761.25
419.18	1759.21
419.38	1689.57
419.59	1808.36
419.80	1970.15
420.00	1867.75
420.21	1886.18
420.42	1910.75
420.62	1849.32
420.83	1705.96
421.04	1796.07
421.24	1820.64
421.45	1839.08
421.65	1845.22
421.86	1781.73
422.07	1861.60
422.27	1867.75
422.48	1789.92
422.69	1761.25
422.89	1787.88
423.10	1826.79
423.30	1742.82
423.51	1828.84
423.72	1845.22
423.92	1882.08
424.13	1771.49
424.33	1843.17
424.54	1826.79
424.75	1830.88
424.95	1904.61
425.16	1834.98
425.36	1867.75
425.57	1837.03
425.78	1894.37
425.98	1916.90
426.19	1851.36
426.39	1781.73
426.60	1763.30
426.81	1929.19
427.01	1753.06
427.22	1789.92
427.42	1693.67
427.63	1851.36
427.83	1931.23
428.04	1949.67
428.25	1847.27
428.45	1865.70
428.66	1923.04
428.86	1865.70
429.07	1806.31
429.28	1824.74
429.48	1789.92
429.69	1849.32
429.89	1785.83
430.10	1779.68
430.30	1834.98
430.51	1867.75
430.71	1783.78
430.92	1814.50
431.13	1828.84
431.33	1843.17
431.54	1877.99
431.74	1957.86
431.95	1886.18
432.15	1826.79
432.36	1777.64
432.56	1882.08
432.77	2015.20
432.98	1929.19
433.18	1832.93
433.39	1789.92
433.59	1814.50
433.80	1875.94
434.00	1980.39
434.21	1810.40
434.41	1685.48
434.62	2045.92
434.82	1742.82
435.03	1714.15
435.23	1845.22
435.44	1695.72
435.64	1800.16
435.85	1857.51
436.06	1882.08
436.26	1857.51
436.47	1767.40
436.67	1771.49
436.88	1812.45
437.08	1910.75
437.29	1955.81
437.49	1837.03
437.70	1884.13
437.90	1810.40
438.11	1953.76
438.31	1890.28
438.52	1994.72
438.72	2041.82
438.93	2093.02
439.13	1984.48
439.34	1998.82
439.54	1880.04
439.75	1906.66
439.95	1892.32
440.16	1757.16
440.36	1826.79
440.57	1908.71
440.77	1871.84
440.98	1812.45
441.18	1877.99
441.39	1751.01
441.59	1742.82
441.80	1920.99
442.00	1820.64
442.21	1906.66
442.41	1808.36
442.62	1845.22
442.82	1849.32
443.02	1898.47
443.23	1771.49
443.43	1820.64
443.64	1880.04
443.84	1830.88
444.05	1863.65
444.25	1808.36
444.46	1820.64
444.66	1787.88
444.87	1935.33
445.07	1697.77
445.28	1820.64
445.48	1974.24
445.69	1877.99
445.89	1998.82
446.09	1837.03
446.30	2000.87
446.50	2590.68
446.71	4296.64
446.91	5308.34
447.12	5910.44
447.32	6236.06
447.53	5730.22
447.73	4859.83
447.93	4237.25
448.14	3819.46
448.34	3786.69
448.55	3180.50
448.75	3293.13
448.96	3157.97
449.16	2746.33
449.36	2586.58
449.57	2211.81
449.77	2015.20
449.98	1855.46
450.18	1914.85
450.39	1939.43
450.59	1906.66
450.79	1791.97
451.00	1791.97
451.20	1894.37
451.41	1853.41
451.61	1853.41
451.81	1802.21
452.02	1816.55
452.22	1794.02
452.43	1849.32
452.63	1804.26
