SpectraSuite Data File
++++++++++++++++++++++++++++++++++++
Date: Wed May 04 21:13:25 CEST 2016
User: root
Dark Spectrum Present: No
Reference Spectrum Present: No
Number of Sampled Component Spectra: 1
Spectrometers: USB4C02835
Integration Time (usec): 100000 (USB4C02835)
Spectra Averaged: 1 (USB4C02835)
Boxcar Smoothing: 0 (USB4C02835)
Correct for Electrical Dark: No (USB4C02835)
Strobe/Lamp Enabled: No (USB4C02835)
Correct for Detector Non-linearity: No (USB4C02835)
Correct for Stray Light: No (USB4C02835)
Number of Pixels in Processed Spectrum: 3648
>>>>>Begin Processed Spectral Data<<<<<
177.47	1566.70
177.69	1566.70
177.91	1566.70
178.13	1585.13
178.36	1468.39
178.58	1740.77
178.80	1781.73
179.02	1738.73
179.24	1736.68
179.46	1746.92
179.68	1871.84
179.90	1843.17
180.13	1839.08
180.35	1794.02
180.57	1779.68
180.79	1849.32
181.01	1787.88
181.23	1910.75
181.45	1851.36
181.67	1826.79
181.90	1890.28
182.12	1810.40
182.34	1771.49
182.56	1849.32
182.78	1806.31
183.00	1789.92
183.22	1820.64
183.44	1605.61
183.66	2019.30
183.89	1927.14
184.11	1810.40
184.33	1886.18
184.55	1826.79
184.77	1855.46
184.99	1779.68
185.21	1810.40
185.43	1992.67
185.65	1789.92
185.87	1810.40
186.10	1892.32
186.32	1935.33
186.54	1808.36
186.76	1822.69
186.98	1851.36
187.20	1871.84
187.42	1763.30
187.64	1769.44
187.86	1755.11
188.08	1851.36
188.30	1783.78
188.52	1824.74
188.75	1896.42
188.97	1865.70
189.19	1722.34
189.41	1779.68
189.63	1791.97
189.85	1779.68
190.07	1738.73
190.29	1675.24
190.51	1888.23
190.73	1730.53
190.95	1902.56
191.17	1824.74
191.39	1724.39
191.61	1724.39
191.84	1814.50
192.06	1763.30
192.28	1708.01
192.50	1986.53
192.72	1808.36
192.94	1824.74
193.16	1875.94
193.38	1789.92
193.60	1800.16
193.82	1800.16
194.04	1898.47
194.26	1853.41
194.48	1802.21
194.70	1751.01
194.92	1763.30
195.14	1810.40
195.36	1802.21
195.58	1851.36
195.80	1851.36
196.02	1861.60
196.24	1857.51
196.46	1865.70
196.69	1843.17
196.91	2033.63
197.13	1783.78
197.35	1794.02
197.57	1871.84
197.79	1869.80
198.01	1796.07
198.23	1875.94
198.45	1857.51
198.67	1751.01
198.89	1832.93
199.11	1877.99
199.33	1761.25
199.55	1746.92
199.77	1841.12
199.99	1837.03
200.21	1734.63
200.43	1837.03
200.65	1748.97
200.87	1730.53
201.09	1816.55
201.31	1810.40
201.53	1798.12
201.75	1826.79
201.97	1746.92
202.19	1796.07
202.41	1830.88
202.63	1937.38
202.85	1849.32
203.07	1812.45
203.29	1812.45
203.51	1777.64
203.73	1771.49
203.95	1970.15
204.17	1787.88
204.39	1830.88
204.61	1794.02
204.83	1832.93
205.05	1875.94
205.27	1880.04
205.49	1871.84
205.71	1853.41
205.93	1757.16
206.15	1769.44
206.37	1834.98
206.59	1804.26
206.81	1683.43
207.03	1718.25
207.25	1738.73
207.47	1853.41
207.69	1746.92
207.91	1892.32
208.13	1818.60
208.34	1732.58
208.56	1775.59
208.78	1744.87
209.00	1796.07
209.22	1806.31
209.44	1845.22
209.66	1781.73
209.88	1769.44
210.10	1873.89
210.32	1761.25
210.54	1875.94
210.76	1800.16
210.98	1927.14
211.20	1695.72
211.42	1791.97
211.64	1916.90
211.86	1740.77
212.08	1849.32
212.30	1826.79
212.52	1888.23
212.74	1875.94
212.96	1873.89
213.17	1828.84
213.39	1912.80
213.61	1937.38
213.83	1828.84
214.05	1880.04
214.27	1824.74
214.49	1757.16
214.71	1732.58
214.93	1877.99
215.15	1832.93
215.37	1849.32
215.59	1740.77
215.81	1918.95
216.03	1886.18
216.24	1818.60
216.46	1781.73
216.68	1837.03
216.90	1800.16
217.12	1861.60
217.34	1820.64
217.56	1925.09
217.78	1935.33
218.00	1845.22
218.22	1777.64
218.44	1828.84
218.66	1865.70
218.87	1882.08
219.09	1837.03
219.31	1859.56
219.53	1814.50
219.75	1718.25
219.97	1802.21
220.19	1798.12
220.41	1837.03
220.63	1914.85
220.85	1787.88
221.06	1851.36
221.28	1945.57
221.50	1820.64
221.72	1800.16
221.94	1814.50
222.16	1884.13
222.38	1898.47
222.60	1869.80
222.82	1742.82
223.03	1890.28
223.25	1710.05
223.47	1841.12
223.69	1990.63
223.91	1880.04
224.13	1902.56
224.35	1777.64
224.57	1873.89
224.78	1839.08
225.00	1734.63
225.22	1791.97
225.44	1841.12
225.66	1853.41
225.88	1877.99
226.10	1796.07
226.32	1820.64
226.53	1890.28
226.75	1763.30
226.97	1757.16
227.19	1800.16
227.41	1828.84
227.63	1705.96
227.85	1736.68
228.06	1777.64
228.28	1857.51
228.50	1861.60
228.72	1738.73
228.94	1779.68
229.16	1677.29
229.37	1714.15
229.59	1726.44
229.81	1904.61
230.03	1765.35
230.25	1703.91
230.47	1677.29
230.69	1783.78
230.90	1871.84
231.12	1763.30
231.34	1847.27
231.56	1966.05
231.78	1771.49
232.00	1841.12
232.21	1761.25
232.43	1736.68
232.65	1728.49
232.87	1806.31
233.09	1779.68
233.30	1816.55
233.52	1830.88
233.74	1738.73
233.96	1794.02
234.18	1824.74
234.40	1841.12
234.61	1923.04
234.83	1757.16
235.05	1722.34
235.27	1949.67
235.49	1896.42
235.70	1843.17
235.92	1865.70
236.14	1804.26
236.36	1904.61
236.58	1744.87
236.79	1837.03
237.01	1759.21
237.23	1763.30
237.45	1880.04
237.67	1798.12
237.88	1808.36
238.10	1986.53
238.32	1736.68
238.54	1810.40
238.76	1828.84
238.97	1794.02
239.19	1775.59
239.41	1886.18
239.63	1873.89
239.85	1839.08
240.06	1845.22
240.28	1740.77
240.50	1810.40
240.72	1830.88
240.93	1773.54
241.15	1929.19
241.37	1837.03
241.59	1832.93
241.81	1755.11
242.02	1744.87
242.24	1814.50
242.46	1861.60
242.68	1765.35
242.89	1832.93
243.11	1834.98
243.33	1851.36
243.55	1867.75
243.76	1826.79
243.98	1796.07
244.20	1920.99
244.42	1742.82
244.64	1910.75
244.85	1699.81
245.07	1759.21
245.29	1800.16
245.51	1808.36
245.72	1810.40
245.94	1900.52
246.16	1865.70
246.38	1886.18
246.59	1816.55
246.81	1757.16
247.03	1863.65
247.24	1570.79
247.46	1826.79
247.68	1824.74
247.90	1722.34
248.11	1765.35
248.33	1869.80
248.55	1789.92
248.77	1816.55
248.98	1873.89
249.20	1908.71
249.42	1873.89
249.64	1798.12
249.85	1746.92
250.07	1667.05
250.29	1869.80
250.50	1814.50
250.72	1763.30
250.94	1789.92
251.16	1957.86
251.37	1798.12
251.59	1787.88
251.81	1826.79
252.02	1961.95
252.24	1855.46
252.46	1902.56
252.68	1693.67
252.89	1738.73
253.11	1796.07
253.33	1896.42
253.54	1837.03
253.76	1736.68
253.98	1777.64
254.20	1798.12
254.41	1738.73
254.63	1777.64
254.85	1718.25
255.06	1771.49
255.28	1830.88
255.50	1787.88
255.71	1732.58
255.93	1665.00
256.15	1785.83
256.36	1908.71
256.58	1804.26
256.80	1843.17
257.02	1775.59
257.23	1808.36
257.45	1767.40
257.67	1800.16
257.88	1765.35
258.10	1867.75
258.32	1820.64
258.53	1800.16
258.75	1855.46
258.97	1773.54
259.18	1779.68
259.40	1761.25
259.62	1884.13
259.83	1882.08
260.05	1857.51
260.27	2136.03
260.48	1880.04
260.70	1746.92
260.92	1777.64
261.13	1748.97
261.35	1785.83
261.57	1896.42
261.78	1757.16
262.00	1753.06
262.22	1904.61
262.43	1759.21
262.65	1824.74
262.86	1785.83
263.08	1877.99
263.30	1814.50
263.51	1679.33
263.73	1783.78
263.95	1877.99
264.16	1851.36
264.38	1759.21
264.60	1761.25
264.81	1800.16
265.03	1798.12
265.25	1804.26
265.46	1796.07
265.68	1918.95
265.89	1863.65
266.11	1714.15
266.33	1865.70
266.54	1849.32
266.76	1849.32
266.98	1806.31
267.19	1861.60
267.41	1935.33
267.62	1800.16
267.84	1697.77
268.06	1900.52
268.27	1880.04
268.49	1910.75
268.70	1791.97
268.92	1875.94
269.14	1748.97
269.35	1691.62
269.57	1763.30
269.79	1816.55
270.00	1771.49
270.22	1970.15
270.43	1763.30
270.65	1732.58
270.87	1830.88
271.08	1812.45
271.30	1834.98
271.51	1822.69
271.73	1900.52
271.95	1861.60
272.16	1775.59
272.38	1867.75
272.59	1796.07
272.81	1824.74
273.02	1834.98
273.24	1763.30
273.46	1804.26
273.67	1738.73
273.89	1863.65
274.10	1841.12
274.32	1877.99
274.54	1806.31
274.75	1853.41
274.97	1695.72
275.18	1839.08
275.40	1939.43
275.61	1828.84
275.83	1798.12
276.05	1777.64
276.26	1767.40
276.48	1900.52
276.69	1763.30
276.91	1724.39
277.12	1861.60
277.34	1929.19
277.55	1859.56
277.77	1800.16
277.99	1775.59
278.20	1736.68
278.42	1796.07
278.63	1746.92
278.85	1779.68
279.06	1722.34
279.28	1886.18
279.49	1853.41
279.71	1875.94
279.93	1830.88
280.14	1775.59
280.36	1734.63
280.57	1871.84
280.79	1863.65
281.00	1816.55
281.22	1718.25
281.43	1808.36
281.65	1710.05
281.86	1781.73
282.08	1851.36
282.29	1929.19
282.51	1738.73
282.73	1722.34
282.94	1794.02
283.16	1794.02
283.37	1941.47
283.59	1742.82
283.80	1746.92
284.02	1812.45
284.23	1869.80
284.45	1794.02
284.66	1730.53
284.88	1689.57
285.09	1789.92
285.31	1736.68
285.52	1871.84
285.74	1767.40
285.95	1744.87
286.17	1832.93
286.38	1814.50
286.60	1763.30
286.81	1767.40
287.03	1843.17
287.24	1830.88
287.46	1877.99
287.67	1849.32
287.89	1955.81
288.10	1826.79
288.32	1755.11
288.53	1859.56
288.75	1865.70
288.96	1886.18
289.18	1769.44
289.39	1800.16
289.61	1908.71
289.82	1964.00
290.04	1902.56
290.25	1820.64
290.47	1843.17
290.68	1814.50
290.90	1853.41
291.11	1730.53
291.33	1804.26
291.54	1802.21
291.76	1755.11
291.97	1857.51
292.18	1785.83
292.40	1781.73
292.61	1824.74
292.83	1902.56
293.04	1800.16
293.26	1798.12
293.47	1804.26
293.69	1800.16
293.90	1720.29
294.12	1861.60
294.33	1791.97
294.55	1810.40
294.76	1914.85
294.97	1929.19
295.19	1972.19
295.40	1751.01
295.62	1890.28
295.83	1902.56
296.05	1763.30
296.26	1851.36
296.48	1769.44
296.69	1814.50
296.90	1830.88
297.12	1857.51
297.33	1935.33
297.55	1845.22
297.76	1880.04
297.98	1861.60
298.19	1849.32
298.41	1783.78
298.62	1820.64
298.83	1941.47
299.05	1779.68
299.26	1816.55
299.48	1775.59
299.69	1830.88
299.90	1769.44
300.12	1787.88
300.33	1847.27
300.55	1812.45
300.76	1849.32
300.98	1714.15
301.19	1875.94
301.40	1798.12
301.62	1765.35
301.83	1851.36
302.05	1863.65
302.26	1744.87
302.47	1816.55
302.69	1757.16
302.90	1789.92
303.12	1630.18
303.33	1918.95
303.54	1912.80
303.76	1734.63
303.97	1785.83
304.19	1951.71
304.40	1730.53
304.61	1865.70
304.83	1929.19
305.04	1933.28
305.26	1843.17
305.47	1837.03
305.68	1822.69
305.90	1714.15
306.11	1923.04
306.33	1771.49
306.54	1744.87
306.75	1724.39
306.97	1660.90
307.18	1789.92
307.39	1746.92
307.61	1853.41
307.82	1765.35
308.04	1812.45
308.25	1783.78
308.46	1857.51
308.68	1748.97
308.89	1796.07
309.10	1898.47
309.32	1794.02
309.53	1773.54
309.74	1828.84
309.96	1830.88
310.17	1894.37
310.39	1853.41
310.60	1787.88
310.81	1808.36
311.03	1705.96
311.24	1869.80
311.45	1800.16
311.67	1953.76
311.88	1837.03
312.09	1832.93
312.31	1761.25
312.52	1732.58
312.73	1755.11
312.95	1710.05
313.16	1705.96
313.37	1863.65
313.59	1853.41
313.80	1847.27
314.01	1894.37
314.23	1808.36
314.44	1726.44
314.65	1769.44
314.87	1716.20
315.08	1837.03
315.29	1810.40
315.51	1746.92
315.72	1763.30
315.93	1914.85
316.15	1826.79
316.36	1816.55
316.57	1849.32
316.79	1834.98
317.00	1804.26
317.21	1910.75
317.43	1738.73
317.64	1855.46
317.85	1720.29
318.07	1814.50
318.28	1800.16
318.49	1998.82
318.70	2029.54
318.92	2023.39
319.13	2021.35
319.34	1957.86
319.56	1992.67
319.77	1898.47
319.98	1927.14
320.20	1943.52
320.41	1951.71
320.62	1839.08
320.83	1820.64
321.05	2021.35
321.26	1802.21
321.47	1785.83
321.69	1871.84
321.90	1748.97
322.11	1675.24
322.32	1783.78
322.54	1929.19
322.75	1773.54
322.96	1970.15
323.18	1718.25
323.39	1687.53
323.60	1828.84
323.81	1970.15
324.03	1808.36
324.24	1894.37
324.45	1826.79
324.66	1806.31
324.88	1949.67
325.09	1916.90
325.30	1841.12
325.52	1800.16
325.73	1892.32
325.94	1757.16
326.15	1714.15
326.37	1781.73
326.58	1920.99
326.79	1914.85
327.00	1736.68
327.22	1804.26
327.43	1791.97
327.64	1853.41
327.85	1812.45
328.07	1783.78
328.28	1898.47
328.49	1705.96
328.70	1757.16
328.92	1841.12
329.13	1834.98
329.34	1888.23
329.55	1886.18
329.76	1830.88
329.98	1802.21
330.19	1949.67
330.40	1787.88
330.61	1849.32
330.83	1830.88
331.04	1785.83
331.25	1845.22
331.46	1800.16
331.68	1767.40
331.89	1916.90
332.10	1839.08
332.31	1740.77
332.52	1894.37
332.74	1880.04
332.95	1699.81
333.16	1802.21
333.37	1933.28
333.58	1767.40
333.80	1759.21
334.01	1718.25
334.22	1841.12
334.43	1800.16
334.64	1748.97
334.86	1757.16
335.07	1699.81
335.28	1937.38
335.49	1722.34
335.70	1841.12
335.92	1886.18
336.13	1992.67
336.34	1832.93
336.55	1916.90
336.76	1869.80
336.98	1705.96
337.19	1781.73
337.40	1953.76
337.61	1906.66
337.82	1804.26
338.04	1804.26
338.25	1748.97
338.46	1837.03
338.67	1826.79
338.88	1763.30
339.09	1777.64
339.31	1814.50
339.52	1730.53
339.73	1822.69
339.94	1800.16
340.15	1849.32
340.36	1824.74
340.58	1726.44
340.79	1773.54
341.00	1898.47
341.21	1800.16
341.42	1959.91
341.63	1839.08
341.85	1873.89
342.06	1777.64
342.27	1705.96
342.48	1871.84
342.69	1730.53
342.90	1812.45
343.12	1853.41
343.33	1740.77
343.54	1822.69
343.75	1886.18
343.96	1800.16
344.17	1763.30
344.38	1751.01
344.60	1839.08
344.81	1679.33
345.02	1787.88
345.23	1802.21
345.44	1927.14
345.65	1882.08
345.86	1849.32
346.07	1849.32
346.29	1798.12
346.50	1843.17
346.71	1843.17
346.92	1900.52
347.13	1937.38
347.34	1851.36
347.55	1775.59
347.76	1845.22
347.98	1804.26
348.19	1726.44
348.40	1845.22
348.61	1769.44
348.82	1998.82
349.03	1886.18
349.24	1804.26
349.45	1867.75
349.66	1720.29
349.88	1808.36
350.09	1693.67
350.30	1865.70
350.51	1845.22
350.72	1753.06
350.93	1818.60
351.14	1703.91
351.35	1888.23
351.56	1765.35
351.77	1781.73
351.99	1925.09
352.20	1888.23
352.41	1929.19
352.62	1744.87
352.83	1808.36
353.04	1773.54
353.25	1751.01
353.46	1861.60
353.67	1873.89
353.88	1667.05
354.09	1937.38
354.30	1814.50
354.52	1796.07
354.73	1826.79
354.94	1742.82
355.15	1832.93
355.36	1941.47
355.57	1808.36
355.78	1798.12
355.99	1714.15
356.20	1804.26
356.41	1912.80
356.62	1765.35
356.83	1775.59
357.04	1877.99
357.25	1865.70
357.46	1857.51
357.68	1771.49
357.89	1783.78
358.10	1814.50
358.31	1787.88
358.52	1806.31
358.73	1714.15
358.94	1742.82
359.15	1822.69
359.36	1841.12
359.57	1832.93
359.78	1789.92
359.99	1886.18
360.20	1787.88
360.41	1814.50
360.62	1865.70
360.83	1830.88
361.04	1810.40
361.25	1839.08
361.46	1918.95
361.67	1888.23
361.88	1828.84
362.09	1886.18
362.30	1830.88
362.51	1777.64
362.72	1839.08
362.93	1837.03
363.14	1789.92
363.35	1808.36
363.56	1699.81
363.78	1796.07
363.99	1853.41
364.20	1851.36
364.41	1853.41
364.62	1947.62
364.83	1843.17
365.04	1810.40
365.25	1751.01
365.46	1916.90
365.67	1771.49
365.88	1763.30
366.09	1712.10
366.30	1820.64
366.51	1806.31
366.72	1777.64
366.93	1771.49
367.14	1841.12
367.35	1869.80
367.56	1826.79
367.77	1900.52
367.98	1759.21
368.18	1816.55
368.39	1800.16
368.60	1757.16
368.81	1859.56
369.02	1804.26
369.23	1843.17
369.44	1777.64
369.65	1781.73
369.86	1834.98
370.07	1810.40
370.28	1742.82
370.49	1902.56
370.70	1914.85
370.91	1828.84
371.12	1746.92
371.33	1875.94
371.54	1824.74
371.75	1886.18
371.96	1714.15
372.17	1898.47
372.38	1800.16
372.59	1837.03
372.80	1841.12
373.01	1771.49
373.22	1843.17
373.43	1808.36
373.64	1728.49
373.85	1837.03
374.06	1910.75
374.26	1898.47
374.47	1875.94
374.68	1935.33
374.89	1796.07
375.10	1828.84
375.31	1902.56
375.52	1810.40
375.73	1830.88
375.94	1748.97
376.15	1908.71
376.36	1779.68
376.57	1722.34
376.78	1837.03
376.99	1847.27
377.20	1923.04
377.40	1855.46
377.61	1916.90
377.82	1751.01
378.03	1914.85
378.24	1845.22
378.45	1814.50
378.66	1900.52
378.87	1708.01
379.08	1714.15
379.29	1814.50
379.50	1884.13
379.71	1820.64
379.91	1837.03
380.12	1808.36
380.33	1902.56
380.54	1837.03
380.75	1810.40
380.96	1884.13
381.17	1861.60
381.38	1849.32
381.59	1865.70
381.80	1916.90
382.00	1998.82
382.21	1953.76
382.42	1972.19
382.63	2025.44
382.84	1896.42
383.05	1851.36
383.26	2007.01
383.47	1824.74
383.68	1933.28
383.88	1886.18
384.09	1820.64
384.30	1943.52
384.51	1820.64
384.72	1820.64
384.93	1748.97
385.14	1810.40
385.35	1904.61
385.55	1705.96
385.76	1853.41
385.97	1898.47
386.18	1800.16
386.39	1794.02
386.60	1806.31
386.81	1818.60
387.02	1716.20
387.22	1783.78
387.43	1869.80
387.64	1873.89
387.85	1996.77
388.06	2170.85
388.27	4194.24
388.48	8912.76
388.68	11943.75
388.89	13889.32
389.10	14941.98
389.31	13332.28
389.52	10585.95
389.73	9224.05
389.93	8497.02
390.14	7778.19
390.35	6938.52
390.56	6215.59
390.77	5250.99
390.98	3968.96
391.18	3139.54
391.39	2461.66
391.60	2078.69
391.81	1939.43
392.02	1894.37
392.23	2076.64
392.43	1761.25
392.64	1873.89
392.85	1781.73
393.06	1943.52
393.27	1804.26
393.47	1824.74
393.68	1904.61
393.89	1841.12
394.10	1865.70
394.31	1804.26
394.52	1800.16
394.72	1718.25
394.93	1880.04
395.14	1730.53
395.35	1855.46
395.56	1849.32
395.76	1804.26
395.97	1832.93
396.18	1964.00
396.39	2074.59
396.60	2238.43
396.80	2007.01
397.01	1953.76
397.22	1892.32
397.43	2015.20
397.64	1810.40
397.84	1927.14
398.05	1933.28
398.26	1845.22
398.47	1898.47
398.67	1955.81
398.88	1857.51
399.09	1871.84
399.30	1798.12
399.51	1894.37
399.71	1787.88
399.92	1841.12
400.13	1869.80
400.34	1855.46
400.54	1746.92
400.75	1890.28
400.96	1884.13
401.17	1939.43
401.37	1951.71
401.58	1843.17
401.79	1814.50
402.00	1976.29
402.21	2193.37
402.41	2156.51
402.62	2179.04
402.83	2344.92
403.04	2213.85
403.24	2306.01
403.45	1974.24
403.66	2021.35
403.87	2054.11
404.07	2007.01
404.28	2095.07
404.49	2045.92
404.70	1949.67
404.90	1916.90
405.11	1882.08
405.32	1888.23
405.52	1775.59
405.73	1777.64
405.94	1763.30
406.15	1820.64
406.35	1830.88
406.56	1826.79
406.77	1830.88
406.98	1773.54
407.18	1773.54
407.39	1877.99
407.60	1841.12
407.80	1781.73
408.01	1822.69
408.22	1736.68
408.43	1777.64
408.63	1785.83
408.84	1843.17
409.05	1845.22
409.25	1746.92
409.46	1796.07
409.67	1806.31
409.88	1726.44
410.08	1798.12
410.29	1894.37
410.50	1867.75
410.70	1863.65
410.91	1759.21
411.12	1888.23
411.32	1777.64
411.53	1789.92
411.74	1880.04
411.95	1923.04
412.15	1918.95
412.36	1986.53
412.57	1841.12
412.77	1908.71
412.98	1834.98
413.19	1837.03
413.39	1863.65
413.60	1851.36
413.81	1902.56
414.01	1820.64
414.22	1906.66
414.43	1851.36
414.63	1814.50
414.84	1861.60
415.05	1806.31
415.25	1734.63
415.46	1824.74
415.67	1853.41
415.87	1841.12
416.08	1834.98
416.29	1820.64
416.49	1816.55
416.70	1789.92
416.91	1748.97
417.11	1783.78
417.32	1890.28
417.53	1964.00
417.73	1888.23
417.94	1855.46
418.15	1837.03
418.35	1787.88
418.56	1873.89
418.77	1949.67
418.97	1912.80
419.18	1804.26
419.38	1677.29
419.59	1785.83
419.80	1865.70
420.00	1771.49
420.21	1857.51
420.42	1882.08
420.62	1910.75
420.83	1806.31
421.04	1800.16
421.24	1814.50
421.45	1832.93
421.65	1828.84
421.86	1804.26
422.07	1845.22
422.27	1802.21
422.48	1861.60
422.69	1791.97
422.89	1761.25
423.10	1843.17
423.30	1701.86
423.51	1818.60
423.72	1867.75
423.92	1898.47
424.13	1773.54
424.33	1810.40
424.54	1830.88
424.75	1826.79
424.95	1894.37
425.16	1816.55
425.36	1812.45
425.57	1902.56
425.78	1824.74
425.98	1859.56
426.19	1771.49
426.39	1779.68
426.60	1847.27
426.81	1869.80
427.01	1861.60
427.22	1740.77
427.42	1734.63
427.63	1841.12
427.83	1837.03
428.04	1925.09
428.25	1890.28
428.45	1929.19
428.66	1912.80
428.86	1869.80
429.07	1783.78
429.28	1800.16
429.48	1783.78
429.69	1738.73
429.89	1779.68
430.10	1779.68
430.30	1808.36
430.51	1869.80
430.71	1781.73
430.92	1841.12
431.13	1796.07
431.33	1812.45
431.54	1781.73
431.74	1902.56
431.95	1976.29
432.15	1791.97
432.36	1832.93
432.56	1892.32
432.77	1929.19
432.98	1980.39
433.18	1873.89
433.39	1845.22
433.59	1808.36
433.80	1984.48
434.00	1953.76
434.21	1787.88
434.41	1796.07
434.62	1959.91
434.82	1832.93
435.03	1773.54
435.23	1863.65
435.44	1701.86
435.64	1779.68
435.85	1824.74
436.06	1851.36
436.26	1914.85
436.47	1716.20
436.67	1845.22
436.88	1837.03
437.08	1912.80
437.29	1994.72
437.49	1863.65
437.70	1898.47
437.90	1783.78
438.11	1951.71
438.31	1877.99
438.52	2025.44
438.72	2050.02
438.93	2050.02
439.13	1961.95
439.34	1937.38
439.54	1843.17
439.75	1882.08
439.95	1902.56
440.16	1871.84
440.36	1857.51
440.57	1888.23
440.77	1886.18
440.98	1877.99
441.18	1902.56
441.39	1843.17
441.59	1746.92
441.80	2013.15
442.00	1859.56
442.21	1935.33
442.41	1783.78
442.62	1869.80
442.82	1779.68
443.02	1871.84
443.23	1884.13
443.43	1824.74
443.64	1980.39
443.84	1771.49
444.05	1964.00
444.25	1884.13
444.46	1796.07
444.66	1820.64
444.87	1937.38
445.07	1734.63
445.28	1869.80
445.48	1923.04
445.69	1937.38
445.89	1992.67
446.09	1877.99
446.30	2074.59
446.50	2645.98
446.71	4095.94
446.91	5357.49
447.12	6029.22
447.32	6313.89
447.53	5695.40
447.73	4634.55
447.93	4249.54
448.14	3876.80
448.34	3594.19
448.55	3348.43
448.75	3289.04
448.96	3071.95
449.16	2641.88
449.36	2574.30
449.57	2314.20
449.77	2031.58
449.98	1902.56
450.18	1892.32
450.39	1955.81
450.59	1886.18
450.79	1847.27
451.00	1791.97
451.20	1826.79
451.41	1847.27
451.61	1849.32
451.81	1916.90
452.02	1796.07
452.22	1806.31
452.43	1740.77
452.63	1841.12
