SpectraSuite Data File
++++++++++++++++++++++++++++++++++++
Date: Wed May 04 21:13:28 CEST 2016
User: root
Dark Spectrum Present: No
Reference Spectrum Present: No
Number of Sampled Component Spectra: 1
Spectrometers: USB4C02835
Integration Time (usec): 100000 (USB4C02835)
Spectra Averaged: 1 (USB4C02835)
Boxcar Smoothing: 0 (USB4C02835)
Correct for Electrical Dark: No (USB4C02835)
Strobe/Lamp Enabled: No (USB4C02835)
Correct for Detector Non-linearity: No (USB4C02835)
Correct for Stray Light: No (USB4C02835)
Number of Pixels in Processed Spectrum: 3648
>>>>>Begin Processed Spectral Data<<<<<
177.47	1511.40
177.69	1511.40
177.91	1511.40
178.13	1482.73
178.36	1576.94
178.58	1742.82
178.80	1814.50
179.02	1763.30
179.24	1730.53
179.46	1734.63
179.68	1822.69
179.90	1791.97
180.13	1845.22
180.35	1761.25
180.57	1781.73
180.79	1822.69
181.01	1740.77
181.23	1861.60
181.45	1789.92
181.67	1865.70
181.90	1853.41
182.12	1816.55
182.34	1783.78
182.56	1806.31
182.78	1892.32
183.00	1808.36
183.22	1855.46
183.44	1742.82
183.66	1966.05
183.89	1933.28
184.11	1796.07
184.33	1851.36
184.55	1886.18
184.77	1791.97
184.99	1845.22
185.21	1832.93
185.43	1951.71
185.65	1810.40
185.87	1775.59
186.10	1886.18
186.32	1914.85
186.54	1886.18
186.76	1804.26
186.98	1849.32
187.20	1769.44
187.42	1787.88
187.64	1837.03
187.86	1863.65
188.08	1890.28
188.30	1826.79
188.52	1855.46
188.75	1947.62
188.97	1884.13
189.19	1757.16
189.41	1787.88
189.63	1767.40
189.85	1857.51
190.07	1712.10
190.29	1746.92
190.51	1892.32
190.73	1740.77
190.95	1826.79
191.17	1783.78
191.39	1718.25
191.61	1781.73
191.84	1789.92
192.06	1771.49
192.28	1732.58
192.50	1980.39
192.72	1859.56
192.94	1724.39
193.16	1845.22
193.38	1834.98
193.60	1755.11
193.82	1783.78
194.04	1865.70
194.26	1802.21
194.48	1791.97
194.70	1742.82
194.92	1783.78
195.14	1884.13
195.36	1771.49
195.58	1798.12
195.80	1912.80
196.02	1802.21
196.24	1714.15
196.46	1808.36
196.69	1828.84
196.91	1984.48
197.13	1777.64
197.35	1759.21
197.57	1912.80
197.79	1867.75
198.01	1820.64
198.23	1853.41
198.45	1841.12
198.67	1763.30
198.89	1742.82
199.11	1871.84
199.33	1861.60
199.55	1691.62
199.77	1824.74
199.99	1837.03
200.21	1824.74
200.43	1855.46
200.65	1720.29
200.87	1703.91
201.09	1808.36
201.31	1787.88
201.53	1826.79
201.75	1779.68
201.97	1820.64
202.19	1849.32
202.41	1873.89
202.63	1955.81
202.85	1880.04
203.07	1834.98
203.29	1873.89
203.51	1742.82
203.73	1726.44
203.95	2009.06
204.17	1804.26
204.39	1849.32
204.61	1857.51
204.83	1794.02
205.05	1859.56
205.27	1894.37
205.49	2013.15
205.71	1755.11
205.93	1671.14
206.15	1769.44
206.37	1761.25
206.59	1800.16
206.81	1800.16
207.03	1669.09
207.25	1705.96
207.47	1949.67
207.69	1798.12
207.91	1998.82
208.13	1877.99
208.34	1773.54
208.56	1783.78
208.78	1751.01
209.00	1810.40
209.22	1798.12
209.44	1779.68
209.66	1767.40
209.88	1777.64
210.10	1810.40
210.32	1767.40
210.54	1888.23
210.76	1812.45
210.98	1857.51
211.20	1697.77
211.42	1857.51
211.64	1894.37
211.86	1830.88
212.08	1834.98
212.30	1841.12
212.52	1867.75
212.74	1804.26
212.96	1814.50
213.17	1894.37
213.39	1890.28
213.61	1935.33
213.83	1808.36
214.05	1808.36
214.27	1857.51
214.49	1705.96
214.71	1800.16
214.93	1806.31
215.15	1810.40
215.37	1884.13
215.59	1703.91
215.81	1812.45
216.03	1843.17
216.24	1847.27
216.46	1787.88
216.68	1894.37
216.90	1816.55
217.12	1847.27
217.34	1816.55
217.56	1849.32
217.78	1910.75
218.00	1849.32
218.22	1794.02
218.44	1826.79
218.66	1804.26
218.87	1863.65
219.09	1765.35
219.31	1796.07
219.53	1869.80
219.75	1777.64
219.97	1841.12
220.19	1810.40
220.41	1794.02
220.63	1920.99
220.85	1826.79
221.06	1757.16
221.28	1843.17
221.50	1861.60
221.72	1736.68
221.94	1759.21
222.16	1839.08
222.38	1802.21
222.60	1869.80
222.82	1806.31
223.03	1910.75
223.25	1785.83
223.47	1888.23
223.69	1970.15
223.91	1882.08
224.13	1808.36
224.35	1859.56
224.57	1867.75
224.78	1791.97
225.00	1718.25
225.22	1814.50
225.44	1832.93
225.66	1824.74
225.88	1771.49
226.10	1865.70
226.32	1826.79
226.53	1871.84
226.75	1789.92
226.97	1853.41
227.19	1748.97
227.41	1779.68
227.63	1769.44
227.85	1751.01
228.06	1796.07
228.28	1828.84
228.50	1832.93
228.72	1763.30
228.94	1794.02
229.16	1646.57
229.37	1687.53
229.59	1806.31
229.81	1894.37
230.03	1804.26
230.25	1767.40
230.47	1748.97
230.69	1705.96
230.90	1843.17
231.12	1775.59
231.34	1832.93
231.56	1834.98
231.78	1712.10
232.00	1818.60
232.21	1828.84
232.43	1779.68
232.65	1755.11
232.87	1783.78
233.09	1734.63
233.30	1830.88
233.52	1824.74
233.74	1802.21
233.96	1904.61
234.18	1818.60
234.40	1789.92
234.61	1943.52
234.83	1728.49
235.05	1681.38
235.27	2037.73
235.49	1964.00
235.70	1742.82
235.92	1867.75
236.14	1869.80
236.36	1970.15
236.58	1703.91
236.79	1861.60
237.01	1779.68
237.23	1808.36
237.45	1988.58
237.67	1722.34
237.88	1863.65
238.10	1974.24
238.32	1800.16
238.54	1843.17
238.76	1861.60
238.97	1820.64
239.19	1753.06
239.41	1875.94
239.63	1888.23
239.85	1839.08
240.06	1824.74
240.28	1845.22
240.50	1849.32
240.72	1791.97
240.93	1804.26
241.15	1912.80
241.37	1849.32
241.59	1855.46
241.81	1751.01
242.02	1822.69
242.24	1820.64
242.46	1894.37
242.68	1738.73
242.89	1785.83
243.11	1847.27
243.33	1871.84
243.55	1753.06
243.76	1849.32
243.98	1763.30
244.20	1843.17
244.42	1843.17
244.64	1771.49
244.85	1712.10
245.07	1755.11
245.29	1888.23
245.51	1855.46
245.72	1773.54
245.94	1820.64
246.16	1820.64
246.38	1843.17
246.59	1730.53
246.81	1773.54
247.03	1728.49
247.24	1718.25
247.46	1771.49
247.68	1851.36
247.90	1775.59
248.11	1701.86
248.33	1882.08
248.55	1736.68
248.77	1875.94
248.98	1853.41
249.20	1923.04
249.42	1775.59
249.64	1843.17
249.85	1703.91
250.07	1736.68
250.29	1820.64
250.50	1925.09
250.72	1773.54
250.94	1837.03
251.16	1888.23
251.37	1847.27
251.59	1859.56
251.81	1857.51
252.02	1820.64
252.24	1742.82
252.46	1910.75
252.68	1736.68
252.89	1871.84
253.11	1675.24
253.33	1923.04
253.54	1867.75
253.76	1775.59
253.98	1769.44
254.20	1804.26
254.41	1798.12
254.63	1918.95
254.85	1810.40
255.06	1845.22
255.28	1816.55
255.50	1769.44
255.71	1763.30
255.93	1732.58
256.15	1746.92
256.36	1839.08
256.58	1834.98
256.80	1847.27
257.02	1781.73
257.23	1814.50
257.45	1789.92
257.67	1837.03
257.88	1810.40
258.10	1779.68
258.32	1783.78
258.53	1830.88
258.75	1898.47
258.97	1798.12
259.18	1794.02
259.40	1722.34
259.62	1910.75
259.83	1920.99
260.05	1853.41
260.27	2095.07
260.48	1804.26
260.70	1759.21
260.92	1748.97
261.13	1873.89
261.35	1806.31
261.57	1896.42
261.78	1718.25
262.00	1828.84
262.22	1869.80
262.43	1773.54
262.65	1869.80
262.86	1834.98
263.08	1910.75
263.30	1740.77
263.51	1724.39
263.73	1810.40
263.95	1873.89
264.16	1701.86
264.38	1751.01
264.60	1865.70
264.81	1761.25
265.03	1873.89
265.25	1855.46
265.46	1814.50
265.68	1867.75
265.89	1806.31
266.11	1777.64
266.33	1849.32
266.54	1888.23
266.76	1912.80
266.98	1779.68
267.19	1914.85
267.41	1859.56
267.62	1861.60
267.84	1656.81
268.06	1880.04
268.27	1892.32
268.49	1830.88
268.70	1875.94
268.92	1839.08
269.14	1796.07
269.35	1757.16
269.57	1818.60
269.79	1806.31
270.00	1759.21
270.22	1877.99
270.43	1730.53
270.65	1603.56
270.87	1837.03
271.08	1914.85
271.30	1873.89
271.51	1787.88
271.73	1880.04
271.95	1806.31
272.16	1880.04
272.38	1861.60
272.59	1824.74
272.81	1812.45
273.02	1808.36
273.24	1873.89
273.46	1841.12
273.67	1724.39
273.89	1767.40
274.10	1734.63
274.32	1920.99
274.54	1871.84
274.75	1873.89
274.97	1763.30
275.18	1882.08
275.40	1843.17
275.61	1861.60
275.83	1869.80
276.05	1785.83
276.26	1892.32
276.48	1855.46
276.69	1777.64
276.91	1781.73
277.12	1869.80
277.34	1880.04
277.55	1865.70
277.77	1859.56
277.99	1683.43
278.20	1712.10
278.42	1806.31
278.63	1800.16
278.85	1699.81
279.06	1755.11
279.28	1851.36
279.49	1826.79
279.71	1908.71
279.93	1822.69
280.14	1916.90
280.36	1722.34
280.57	1933.28
280.79	1902.56
281.00	1755.11
281.22	1773.54
281.43	1853.41
281.65	1687.53
281.86	1769.44
282.08	1871.84
282.29	1966.05
282.51	1765.35
282.73	1734.63
282.94	1660.90
283.16	1890.28
283.37	1849.32
283.59	1818.60
283.80	1845.22
284.02	1839.08
284.23	1869.80
284.45	1837.03
284.66	1826.79
284.88	1728.49
285.09	1865.70
285.31	1871.84
285.52	1927.14
285.74	1714.15
285.95	1923.04
286.17	1818.60
286.38	1830.88
286.60	1785.83
286.81	1781.73
287.03	1798.12
287.24	1781.73
287.46	1781.73
287.67	1763.30
287.89	1902.56
288.10	1826.79
288.32	1804.26
288.53	1894.37
288.75	1796.07
288.96	1796.07
289.18	1789.92
289.39	1810.40
289.61	1861.60
289.82	1988.58
290.04	1869.80
290.25	1716.20
290.47	1794.02
290.68	1855.46
290.90	1804.26
291.11	1695.72
291.33	1886.18
291.54	1814.50
291.76	1800.16
291.97	1781.73
292.18	1880.04
292.40	1849.32
292.61	1830.88
292.83	1920.99
293.04	1746.92
293.26	1832.93
293.47	1773.54
293.69	1679.33
293.90	1826.79
294.12	1875.94
294.33	1712.10
294.55	1843.17
294.76	1877.99
294.97	1898.47
295.19	1966.05
295.40	1839.08
295.62	1941.47
295.83	1832.93
296.05	1755.11
296.26	1959.91
296.48	1728.49
296.69	1886.18
296.90	1796.07
297.12	1845.22
297.33	1804.26
297.55	1804.26
297.76	1896.42
297.98	1892.32
298.19	1826.79
298.41	1796.07
298.62	1687.53
298.83	1884.13
299.05	1742.82
299.26	1855.46
299.48	1765.35
299.69	1857.51
299.90	1892.32
300.12	1789.92
300.33	1814.50
300.55	1849.32
300.76	1859.56
300.98	1802.21
301.19	1900.52
301.40	1783.78
301.62	1816.55
301.83	1830.88
302.05	1828.84
302.26	1759.21
302.47	1832.93
302.69	1746.92
302.90	1875.94
303.12	1728.49
303.33	1939.43
303.54	1925.09
303.76	1808.36
303.97	1853.41
304.19	1908.71
304.40	1757.16
304.61	1865.70
304.83	1988.58
305.04	1886.18
305.26	1845.22
305.47	1781.73
305.68	1814.50
305.90	1748.97
306.11	1808.36
306.33	1812.45
306.54	1812.45
306.75	1726.44
306.97	1671.14
307.18	1736.68
307.39	1759.21
307.61	1912.80
307.82	1884.13
308.04	1785.83
308.25	1767.40
308.46	1839.08
308.68	1722.34
308.89	1757.16
309.10	1824.74
309.32	1877.99
309.53	1857.51
309.74	1783.78
309.96	1806.31
310.17	1904.61
310.39	1767.40
310.60	1783.78
310.81	1783.78
311.03	1738.73
311.24	1826.79
311.45	1851.36
311.67	1937.38
311.88	1771.49
312.09	1767.40
312.31	1861.60
312.52	1806.31
312.73	1816.55
312.95	1781.73
313.16	1755.11
313.37	1853.41
313.59	1814.50
313.80	1828.84
314.01	1947.62
314.23	1804.26
314.44	1775.59
314.65	1726.44
314.87	1806.31
315.08	1802.21
315.29	1808.36
315.51	1693.67
315.72	1767.40
315.93	1890.28
316.15	1824.74
316.36	1783.78
316.57	1777.64
316.79	1839.08
317.00	1769.44
317.21	1806.31
317.43	1789.92
317.64	1890.28
317.85	1703.91
318.07	1746.92
318.28	1871.84
318.49	1968.10
318.70	2111.46
318.92	1982.43
319.13	2076.64
319.34	1976.29
319.56	1957.86
319.77	1931.23
319.98	1980.39
320.20	1920.99
320.41	1902.56
320.62	1896.42
320.83	1814.50
321.05	1957.86
321.26	1843.17
321.47	1800.16
321.69	1847.27
321.90	1722.34
322.11	1763.30
322.32	1865.70
322.54	1908.71
322.75	1814.50
322.96	1890.28
323.18	1714.15
323.39	1703.91
323.60	1777.64
323.81	1834.98
324.03	1800.16
324.24	1818.60
324.45	1863.65
324.66	1839.08
324.88	1877.99
325.09	1849.32
325.30	1851.36
325.52	1814.50
325.73	1867.75
325.94	1824.74
326.15	1761.25
326.37	1826.79
326.58	1869.80
326.79	1916.90
327.00	1820.64
327.22	1834.98
327.43	1796.07
327.64	1798.12
327.85	1841.12
328.07	1841.12
328.28	1898.47
328.49	1869.80
328.70	1834.98
328.92	1794.02
329.13	1777.64
329.34	1804.26
329.55	1986.53
329.76	1931.23
329.98	1837.03
330.19	1847.27
330.40	1796.07
330.61	1800.16
330.83	1851.36
331.04	1748.97
331.25	1763.30
331.46	1826.79
331.68	1710.05
331.89	1869.80
332.10	1888.23
332.31	1722.34
332.52	1783.78
332.74	1857.51
332.95	1714.15
333.16	1824.74
333.37	1875.94
333.58	1765.35
333.80	1810.40
334.01	1771.49
334.22	1746.92
334.43	1837.03
334.64	1830.88
334.86	1761.25
335.07	1734.63
335.28	1972.19
335.49	1730.53
335.70	1769.44
335.92	1888.23
336.13	1947.62
336.34	1818.60
336.55	1847.27
336.76	1820.64
336.98	1687.53
337.19	1822.69
337.40	1916.90
337.61	2043.87
337.82	1787.88
338.04	1849.32
338.25	1677.29
338.46	1781.73
338.67	1806.31
338.88	1720.29
339.09	1742.82
339.31	1744.87
339.52	1730.53
339.73	1638.38
339.94	1818.60
340.15	1912.80
340.36	1761.25
340.58	1841.12
340.79	1789.92
341.00	1857.51
341.21	1802.21
341.42	1884.13
341.63	1798.12
341.85	1914.85
342.06	1814.50
342.27	1761.25
342.48	1818.60
342.69	1683.43
342.90	1822.69
343.12	1853.41
343.33	1814.50
343.54	1902.56
343.75	1918.95
343.96	1822.69
344.17	1763.30
344.38	1837.03
344.60	1781.73
344.81	1734.63
345.02	1804.26
345.23	1843.17
345.44	2004.96
345.65	1906.66
345.86	1816.55
346.07	1794.02
346.29	1810.40
346.50	1902.56
346.71	1902.56
346.92	1837.03
347.13	2019.30
347.34	1865.70
347.55	1820.64
347.76	1859.56
347.98	1667.05
348.19	1791.97
348.40	1830.88
348.61	1726.44
348.82	1914.85
349.03	1890.28
349.24	1728.49
349.45	1951.71
349.66	1748.97
349.88	1794.02
350.09	1714.15
350.30	1906.66
350.51	1867.75
350.72	1837.03
350.93	1824.74
351.14	1775.59
351.35	1873.89
351.56	1804.26
351.77	1820.64
351.99	1785.83
352.20	1933.28
352.41	1843.17
352.62	1669.09
352.83	1787.88
353.04	1863.65
353.25	1771.49
353.46	1898.47
353.67	1925.09
353.88	1804.26
354.09	1769.44
354.30	1822.69
354.52	1789.92
354.73	1787.88
354.94	1726.44
355.15	1789.92
355.36	2025.44
355.57	1767.40
355.78	1808.36
355.99	1796.07
356.20	1789.92
356.41	1869.80
356.62	1818.60
356.83	1777.64
357.04	1964.00
357.25	1708.01
357.46	1802.21
357.68	1705.96
357.89	1708.01
358.10	1804.26
358.31	1808.36
358.52	1810.40
358.73	1751.01
358.94	1779.68
359.15	1714.15
359.36	1863.65
359.57	1771.49
359.78	1738.73
359.99	1847.27
360.20	1794.02
360.41	1847.27
360.62	1810.40
360.83	1806.31
361.04	1800.16
361.25	1904.61
361.46	1927.14
361.67	1877.99
361.88	1828.84
362.09	1929.19
362.30	1837.03
362.51	1830.88
362.72	1783.78
362.93	1857.51
363.14	1939.43
363.35	1775.59
363.56	1718.25
363.78	1908.71
363.99	1841.12
364.20	1810.40
364.41	1824.74
364.62	1910.75
364.83	1796.07
365.04	1826.79
365.25	1849.32
365.46	1992.67
365.67	1830.88
365.88	1779.68
366.09	1820.64
366.30	1904.61
366.51	1800.16
366.72	1689.57
366.93	1830.88
367.14	1818.60
367.35	1847.27
367.56	1859.56
367.77	1888.23
367.98	1773.54
368.18	1851.36
368.39	1808.36
368.60	1769.44
368.81	1894.37
369.02	1775.59
369.23	1800.16
369.44	1787.88
369.65	1736.68
369.86	1853.41
370.07	1867.75
370.28	1701.86
370.49	1796.07
370.70	1808.36
370.91	1742.82
371.12	1779.68
371.33	1869.80
371.54	1832.93
371.75	1920.99
371.96	1687.53
372.17	1794.02
372.38	1746.92
372.59	1857.51
372.80	1728.49
373.01	1828.84
373.22	1826.79
373.43	1755.11
373.64	1734.63
373.85	1806.31
374.06	1843.17
374.26	1824.74
374.47	1875.94
374.68	1914.85
374.89	1828.84
375.10	1761.25
375.31	1839.08
375.52	1732.58
375.73	1814.50
375.94	1740.77
376.15	1959.91
376.36	1837.03
376.57	1773.54
376.78	1843.17
376.99	1746.92
377.20	1920.99
377.40	1855.46
377.61	1931.23
377.82	1824.74
378.03	1951.71
378.24	1830.88
378.45	1771.49
378.66	1841.12
378.87	1615.85
379.08	1689.57
379.29	1800.16
379.50	1908.71
379.71	1812.45
379.91	1884.13
380.12	1824.74
380.33	1787.88
380.54	1886.18
380.75	1828.84
380.96	1789.92
381.17	1937.38
381.38	1806.31
381.59	1822.69
381.80	1863.65
382.00	2015.20
382.21	1882.08
382.42	1996.77
382.63	1998.82
382.84	1927.14
383.05	1929.19
383.26	1951.71
383.47	1806.31
383.68	1808.36
383.88	1851.36
384.09	1920.99
384.30	1968.10
384.51	1773.54
384.72	1753.06
384.93	1730.53
385.14	1847.27
385.35	1888.23
385.55	1824.74
385.76	1937.38
385.97	1818.60
386.18	1748.97
386.39	1775.59
386.60	1826.79
386.81	1789.92
387.02	1798.12
387.22	1873.89
387.43	1875.94
387.64	1957.86
387.85	1976.29
388.06	2209.76
388.27	4130.75
388.48	8769.40
388.68	12007.24
388.89	14036.78
389.10	14821.15
389.31	13078.33
389.52	10440.54
389.73	9168.76
389.93	8220.55
390.14	7690.12
390.35	6969.24
390.56	6234.02
390.77	5083.06
390.98	4093.89
391.18	3102.67
391.39	2410.46
391.60	2103.26
391.81	1978.34
392.02	1873.89
392.23	1990.63
392.43	1853.41
392.64	1925.09
392.85	1898.47
393.06	1945.57
393.27	1910.75
393.47	1777.64
393.68	1755.11
393.89	1781.73
394.10	1931.23
394.31	1796.07
394.52	1720.29
394.72	1824.74
394.93	1918.95
395.14	1763.30
395.35	1888.23
395.56	1742.82
395.76	1779.68
395.97	1873.89
396.18	1875.94
396.39	2019.30
396.60	2197.47
396.80	2136.03
397.01	1964.00
397.22	1976.29
397.43	2015.20
397.64	1785.83
397.84	1912.80
398.05	2037.73
398.26	1949.67
398.47	1906.66
398.67	1910.75
398.88	1810.40
399.09	1877.99
399.30	1796.07
399.51	1808.36
399.71	1763.30
399.92	1779.68
400.13	1855.46
400.34	1830.88
400.54	1820.64
400.75	1894.37
400.96	1929.19
401.17	1945.57
401.37	1877.99
401.58	1871.84
401.79	1865.70
402.00	2019.30
402.21	2146.27
402.41	2201.57
402.62	2291.68
402.83	2322.40
403.04	2277.34
403.24	2306.01
403.45	2025.44
403.66	2058.21
403.87	2058.21
404.07	2029.54
404.28	2119.65
404.49	2011.11
404.70	1857.51
404.90	1941.47
405.11	1877.99
405.32	1984.48
405.52	1746.92
405.73	1796.07
405.94	1720.29
406.15	1857.51
406.35	1898.47
406.56	1869.80
406.77	1890.28
406.98	1869.80
407.18	1794.02
407.39	1908.71
407.60	1759.21
407.80	1880.04
408.01	1791.97
408.22	1853.41
408.43	1832.93
408.63	1773.54
408.84	1908.71
409.05	1910.75
409.25	1767.40
409.46	1748.97
409.67	1783.78
409.88	1775.59
410.08	1814.50
410.29	1820.64
410.50	1859.56
410.70	1853.41
410.91	1783.78
411.12	1939.43
411.32	1886.18
411.53	1808.36
411.74	1941.47
411.95	1974.24
412.15	1949.67
412.36	1888.23
412.57	1882.08
412.77	1951.71
412.98	1865.70
413.19	1814.50
413.39	1869.80
413.60	1845.22
413.81	1939.43
414.01	1753.06
414.22	1834.98
414.43	1880.04
414.63	1812.45
414.84	1925.09
415.05	1779.68
415.25	1757.16
415.46	1851.36
415.67	1802.21
415.87	1808.36
416.08	1796.07
416.29	1798.12
416.49	1822.69
416.70	1824.74
416.91	1837.03
417.11	1863.65
417.32	1824.74
417.53	1832.93
417.73	1863.65
417.94	1877.99
418.15	1832.93
418.35	1900.52
418.56	1847.27
418.77	1947.62
418.97	1820.64
419.18	1804.26
419.38	1742.82
419.59	1816.55
419.80	1902.56
420.00	1812.45
420.21	1818.60
420.42	1855.46
420.62	1814.50
420.83	1705.96
421.04	1761.25
421.24	1855.46
421.45	1877.99
421.65	1824.74
421.86	1718.25
422.07	1818.60
422.27	1798.12
422.48	1863.65
422.69	1695.72
422.89	1859.56
423.10	1789.92
423.30	1736.68
423.51	1798.12
423.72	1877.99
423.92	1859.56
424.13	1816.55
424.33	1773.54
424.54	1812.45
424.75	1900.52
424.95	1920.99
425.16	1898.47
425.36	1804.26
425.57	1832.93
425.78	1910.75
425.98	1906.66
426.19	1820.64
426.39	1787.88
426.60	1855.46
426.81	1888.23
427.01	1826.79
427.22	1738.73
427.42	1769.44
427.63	1806.31
427.83	1884.13
428.04	1931.23
428.25	1867.75
428.45	1980.39
428.66	1875.94
428.86	1832.93
429.07	1816.55
429.28	1884.13
429.48	1785.83
429.69	1734.63
429.89	1816.55
430.10	1789.92
430.30	1828.84
430.51	1882.08
430.71	1843.17
430.92	1755.11
431.13	1767.40
431.33	1871.84
431.54	1859.56
431.74	1964.00
431.95	1994.72
432.15	1839.08
432.36	1804.26
432.56	1896.42
432.77	2007.01
432.98	1845.22
433.18	1904.61
433.39	1814.50
433.59	1755.11
433.80	1947.62
434.00	2017.25
434.21	1742.82
434.41	1716.20
434.62	2000.87
434.82	1759.21
435.03	1787.88
435.23	1816.55
435.44	1701.86
435.64	1806.31
435.85	1871.84
436.06	1826.79
436.26	1925.09
436.47	1785.83
436.67	1830.88
436.88	1785.83
437.08	1923.04
437.29	1939.43
437.49	1851.36
437.70	1920.99
437.90	1875.94
438.11	2009.06
438.31	1904.61
438.52	1982.43
438.72	1970.15
438.93	2062.30
439.13	1937.38
439.34	1949.67
439.54	1902.56
439.75	1949.67
439.95	1929.19
440.16	1779.68
440.36	1871.84
440.57	1861.60
440.77	1837.03
440.98	1787.88
441.18	1933.28
441.39	1781.73
441.59	1785.83
441.80	1980.39
442.00	1892.32
442.21	1904.61
442.41	1755.11
442.62	1779.68
442.82	1767.40
443.02	1869.80
443.23	1927.14
443.43	1806.31
443.64	1998.82
443.84	1759.21
444.05	1945.57
444.25	1865.70
444.46	1804.26
444.66	1783.78
444.87	1931.23
445.07	1765.35
445.28	1863.65
445.48	1925.09
445.69	1906.66
445.89	2000.87
446.09	1857.51
446.30	2052.06
446.50	2586.58
446.71	4126.66
446.91	5195.70
447.12	6078.37
447.32	6272.93
447.53	5793.70
447.73	4515.77
447.93	4104.13
448.14	3925.96
448.34	3633.10
448.55	3284.94
448.75	3186.64
448.96	3108.82
449.16	2721.75
449.36	2598.87
449.57	2234.33
449.77	2058.21
449.98	1877.99
450.18	1880.04
450.39	1929.19
450.59	1906.66
450.79	1814.50
451.00	1777.64
451.20	1908.71
451.41	1857.51
451.61	1880.04
451.81	1853.41
452.02	1851.36
452.22	1826.79
452.43	1775.59
452.63	1800.16
