SpectraSuite Data File
++++++++++++++++++++++++++++++++++++
Date: Wed May 04 21:13:23 CEST 2016
User: root
Dark Spectrum Present: No
Reference Spectrum Present: No
Number of Sampled Component Spectra: 1
Spectrometers: USB4C02835
Integration Time (usec): 100000 (USB4C02835)
Spectra Averaged: 1 (USB4C02835)
Boxcar Smoothing: 0 (USB4C02835)
Correct for Electrical Dark: No (USB4C02835)
Strobe/Lamp Enabled: No (USB4C02835)
Correct for Detector Non-linearity: No (USB4C02835)
Correct for Stray Light: No (USB4C02835)
Number of Pixels in Processed Spectrum: 3648
>>>>>Begin Processed Spectral Data<<<<<
177.47	1529.83
177.69	1529.83
177.91	1529.83
178.13	1558.50
178.36	1583.08
178.58	1753.06
178.80	1834.98
179.02	1773.54
179.24	1755.11
179.46	1755.11
179.68	1865.70
179.90	1820.64
180.13	1775.59
180.35	1767.40
180.57	1740.77
180.79	1839.08
181.01	1814.50
181.23	1884.13
181.45	1896.42
181.67	1837.03
181.90	1832.93
182.12	1796.07
182.34	1693.67
182.56	1771.49
182.78	1816.55
183.00	1767.40
183.22	1865.70
183.44	1746.92
183.66	1996.77
183.89	1927.14
184.11	1779.68
184.33	1832.93
184.55	1920.99
184.77	1841.12
184.99	1775.59
185.21	1701.86
185.43	1976.29
185.65	1812.45
185.87	1812.45
186.10	2017.25
186.32	2033.63
186.54	1773.54
186.76	1755.11
186.98	1941.47
187.20	1775.59
187.42	1738.73
187.64	1800.16
187.86	1802.21
188.08	1873.89
188.30	1748.97
188.52	1744.87
188.75	1914.85
188.97	1896.42
189.19	1785.83
189.41	1800.16
189.63	1925.09
189.85	1744.87
190.07	1732.58
190.29	1722.34
190.51	1818.60
190.73	1677.29
190.95	1853.41
191.17	1798.12
191.39	1710.05
191.61	1787.88
191.84	1728.49
192.06	1894.37
192.28	1720.29
192.50	2009.06
192.72	1820.64
192.94	1761.25
193.16	1837.03
193.38	1777.64
193.60	1732.58
193.82	1798.12
194.04	1888.23
194.26	1812.45
194.48	1810.40
194.70	1736.68
194.92	1751.01
195.14	1837.03
195.36	1814.50
195.58	1837.03
195.80	1818.60
196.02	1802.21
196.24	1824.74
196.46	1789.92
196.69	1843.17
196.91	1976.29
197.13	1751.01
197.35	1834.98
197.57	1906.66
197.79	1783.78
198.01	1781.73
198.23	1773.54
198.45	1884.13
198.67	1716.20
198.89	1773.54
199.11	1785.83
199.33	1734.63
199.55	1675.24
199.77	1804.26
199.99	1871.84
200.21	1810.40
200.43	1832.93
200.65	1732.58
200.87	1609.70
201.09	1861.60
201.31	1800.16
201.53	1859.56
201.75	1853.41
201.97	1773.54
202.19	1787.88
202.41	1898.47
202.63	1931.23
202.85	1818.60
203.07	1847.27
203.29	1744.87
203.51	1681.38
203.73	1755.11
203.95	2013.15
204.17	1841.12
204.39	1865.70
204.61	1820.64
204.83	1818.60
205.05	1877.99
205.27	1806.31
205.49	1974.24
205.71	1822.69
205.93	1736.68
206.15	1738.73
206.37	1765.35
206.59	1798.12
206.81	1712.10
207.03	1800.16
207.25	1777.64
207.47	1941.47
207.69	1828.84
207.91	1904.61
208.13	1861.60
208.34	1763.30
208.56	1671.14
208.78	1820.64
209.00	1677.29
209.22	1738.73
209.44	1718.25
209.66	1787.88
209.88	1824.74
210.10	1820.64
210.32	1826.79
210.54	1902.56
210.76	1867.75
210.98	1865.70
211.20	1681.38
211.42	1787.88
211.64	1923.04
211.86	1902.56
212.08	1812.45
212.30	1798.12
212.52	1791.97
212.74	1834.98
212.96	1857.51
213.17	1877.99
213.39	1789.92
213.61	1925.09
213.83	1830.88
214.05	1839.08
214.27	1882.08
214.49	1701.86
214.71	1740.77
214.93	1785.83
215.15	1818.60
215.37	1949.67
215.59	1718.25
215.81	1849.32
216.03	1837.03
216.24	1902.56
216.46	1757.16
216.68	1841.12
216.90	1888.23
217.12	1886.18
217.34	1796.07
217.56	1812.45
217.78	1894.37
218.00	1814.50
218.22	1916.90
218.44	1861.60
218.66	1826.79
218.87	1984.48
219.09	1736.68
219.31	1830.88
219.53	1923.04
219.75	1796.07
219.97	1798.12
220.19	1785.83
220.41	1865.70
220.63	1914.85
220.85	1796.07
221.06	1802.21
221.28	1916.90
221.50	1802.21
221.72	1837.03
221.94	1884.13
222.16	1830.88
222.38	1808.36
222.60	1902.56
222.82	1794.02
223.03	1947.62
223.25	1787.88
223.47	1812.45
223.69	1918.95
223.91	1824.74
224.13	1865.70
224.35	1759.21
224.57	1906.66
224.78	1837.03
225.00	1837.03
225.22	1867.75
225.44	1812.45
225.66	1861.60
225.88	1701.86
226.10	1808.36
226.32	1853.41
226.53	1918.95
226.75	1816.55
226.97	1787.88
227.19	1820.64
227.41	1783.78
227.63	1767.40
227.85	1732.58
228.06	1855.46
228.28	1771.49
228.50	1832.93
228.72	1748.97
228.94	1753.06
229.16	1683.43
229.37	1759.21
229.59	1785.83
229.81	1941.47
230.03	1767.40
230.25	1650.66
230.47	1751.01
230.69	1701.86
230.90	1808.36
231.12	1751.01
231.34	1822.69
231.56	1851.36
231.78	1767.40
232.00	1834.98
232.21	1796.07
232.43	1810.40
232.65	1728.49
232.87	1837.03
233.09	1730.53
233.30	1746.92
233.52	1886.18
233.74	1826.79
233.96	1796.07
234.18	1820.64
234.40	1808.36
234.61	1937.38
234.83	1738.73
235.05	1742.82
235.27	1957.86
235.49	1910.75
235.70	1748.97
235.92	1894.37
236.14	1894.37
236.36	1908.71
236.58	1693.67
236.79	1816.55
237.01	1869.80
237.23	1818.60
237.45	1933.28
237.67	1757.16
237.88	1820.64
238.10	1945.57
238.32	1701.86
238.54	1818.60
238.76	1824.74
238.97	1746.92
239.19	1662.95
239.41	1890.28
239.63	1898.47
239.85	1783.78
240.06	1767.40
240.28	1769.44
240.50	1863.65
240.72	1800.16
240.93	1822.69
241.15	1970.15
241.37	1808.36
241.59	1894.37
241.81	1755.11
242.02	1785.83
242.24	1830.88
242.46	1804.26
242.68	1720.29
242.89	1853.41
243.11	1865.70
243.33	1775.59
243.55	1884.13
243.76	1839.08
243.98	1753.06
244.20	1804.26
244.42	1779.68
244.64	1800.16
244.85	1718.25
245.07	1763.30
245.29	1859.56
245.51	1755.11
245.72	1898.47
245.94	1882.08
246.16	1748.97
246.38	1886.18
246.59	1853.41
246.81	1814.50
247.03	1851.36
247.24	1755.11
247.46	1812.45
247.68	1818.60
247.90	1804.26
248.11	1814.50
248.33	1834.98
248.55	1730.53
248.77	1787.88
248.98	1843.17
249.20	1890.28
249.42	1820.64
249.64	1861.60
249.85	1847.27
250.07	1728.49
250.29	1865.70
250.50	1816.55
250.72	1703.91
250.94	1767.40
251.16	1990.63
251.37	1888.23
251.59	1849.32
251.81	1865.70
252.02	1902.56
252.24	1791.97
252.46	1884.13
252.68	1830.88
252.89	1757.16
253.11	1660.90
253.33	1990.63
253.54	1890.28
253.76	1773.54
253.98	1757.16
254.20	1814.50
254.41	1689.57
254.63	1746.92
254.85	1683.43
255.06	1800.16
255.28	1830.88
255.50	1806.31
255.71	1720.29
255.93	1736.68
256.15	1755.11
256.36	1859.56
256.58	1798.12
256.80	1849.32
257.02	1796.07
257.23	1689.57
257.45	1841.12
257.67	1875.94
257.88	1744.87
258.10	1812.45
258.32	1849.32
258.53	1830.88
258.75	1923.04
258.97	1771.49
259.18	1761.25
259.40	1798.12
259.62	1951.71
259.83	1939.43
260.05	1824.74
260.27	2080.74
260.48	1837.03
260.70	1708.01
260.92	1718.25
261.13	1880.04
261.35	1814.50
261.57	1853.41
261.78	1767.40
262.00	1716.20
262.22	1865.70
262.43	1771.49
262.65	1837.03
262.86	1787.88
263.08	2027.49
263.30	1937.38
263.51	1740.77
263.73	1757.16
263.95	1859.56
264.16	1783.78
264.38	1695.72
264.60	1853.41
264.81	1787.88
265.03	1935.33
265.25	1855.46
265.46	1820.64
265.68	1832.93
265.89	1824.74
266.11	1759.21
266.33	1877.99
266.54	1880.04
266.76	1787.88
266.98	1785.83
267.19	1898.47
267.41	1849.32
267.62	1804.26
267.84	1759.21
268.06	1875.94
268.27	1759.21
268.49	1818.60
268.70	1863.65
268.92	1806.31
269.14	1751.01
269.35	1775.59
269.57	1820.64
269.79	1906.66
270.00	1763.30
270.22	1996.77
270.43	1783.78
270.65	1648.61
270.87	1863.65
271.08	1859.56
271.30	1865.70
271.51	1771.49
271.73	1861.60
271.95	1863.65
272.16	1796.07
272.38	1802.21
272.59	1728.49
272.81	1849.32
273.02	1806.31
273.24	1834.98
273.46	1912.80
273.67	1730.53
273.89	1720.29
274.10	1740.77
274.32	1939.43
274.54	1867.75
274.75	1832.93
274.97	1746.92
275.18	1916.90
275.40	1888.23
275.61	1781.73
275.83	1763.30
276.05	1640.42
276.26	1886.18
276.48	1779.68
276.69	1820.64
276.91	1785.83
277.12	1918.95
277.34	1931.23
277.55	1826.79
277.77	1777.64
277.99	1796.07
278.20	1775.59
278.42	1755.11
278.63	1818.60
278.85	1791.97
279.06	1710.05
279.28	1863.65
279.49	1839.08
279.71	1918.95
279.93	1787.88
280.14	1746.92
280.36	1693.67
280.57	1908.71
280.79	1859.56
281.00	1761.25
281.22	1746.92
281.43	1800.16
281.65	1738.73
281.86	1783.78
282.08	1871.84
282.29	1910.75
282.51	1796.07
282.73	1697.77
282.94	1669.09
283.16	1828.84
283.37	1869.80
283.59	1748.97
283.80	1853.41
284.02	1818.60
284.23	1818.60
284.45	1857.51
284.66	1746.92
284.88	1722.34
285.09	1785.83
285.31	1888.23
285.52	1849.32
285.74	1748.97
285.95	1822.69
286.17	1871.84
286.38	1888.23
286.60	1785.83
286.81	1744.87
287.03	1877.99
287.24	1841.12
287.46	1880.04
287.67	1834.98
287.89	1945.57
288.10	1841.12
288.32	1843.17
288.53	1886.18
288.75	1826.79
288.96	1810.40
289.18	1777.64
289.39	1765.35
289.61	1927.14
289.82	1947.62
290.04	1898.47
290.25	1689.57
290.47	1783.78
290.68	1775.59
290.90	1871.84
291.11	1751.01
291.33	1927.14
291.54	1710.05
291.76	1740.77
291.97	1808.36
292.18	1834.98
292.40	1787.88
292.61	1812.45
292.83	1984.48
293.04	1808.36
293.26	1847.27
293.47	1767.40
293.69	1730.53
293.90	1748.97
294.12	1935.33
294.33	1837.03
294.55	1767.40
294.76	1925.09
294.97	1914.85
295.19	1920.99
295.40	1820.64
295.62	1867.75
295.83	1880.04
296.05	1710.05
296.26	1890.28
296.48	1923.04
296.69	1843.17
296.90	1806.31
297.12	1816.55
297.33	1937.38
297.55	1818.60
297.76	1828.84
297.98	1875.94
298.19	1839.08
298.41	1826.79
298.62	1732.58
298.83	1902.56
299.05	1820.64
299.26	1798.12
299.48	1771.49
299.69	1824.74
299.90	1832.93
300.12	1761.25
300.33	1871.84
300.55	1806.31
300.76	1886.18
300.98	1667.05
301.19	1849.32
301.40	1777.64
301.62	1773.54
301.83	1904.61
302.05	1859.56
302.26	1869.80
302.47	1904.61
302.69	1675.24
302.90	1832.93
303.12	1705.96
303.33	1847.27
303.54	1906.66
303.76	1791.97
303.97	1912.80
304.19	1867.75
304.40	1710.05
304.61	1857.51
304.83	2013.15
305.04	1841.12
305.26	1748.97
305.47	1791.97
305.68	1759.21
305.90	1748.97
306.11	1857.51
306.33	1820.64
306.54	1777.64
306.75	1738.73
306.97	1787.88
307.18	1751.01
307.39	1714.15
307.61	1785.83
307.82	1761.25
308.04	1837.03
308.25	1773.54
308.46	1832.93
308.68	1773.54
308.89	1882.08
309.10	1851.36
309.32	1837.03
309.53	1808.36
309.74	1812.45
309.96	1724.39
310.17	1880.04
310.39	1791.97
310.60	1843.17
310.81	1794.02
311.03	1689.57
311.24	1841.12
311.45	1789.92
311.67	1927.14
311.88	1806.31
312.09	1751.01
312.31	1800.16
312.52	1841.12
312.73	1800.16
312.95	1759.21
313.16	1759.21
313.37	1920.99
313.59	1798.12
313.80	1816.55
314.01	1869.80
314.23	1798.12
314.44	1869.80
314.65	1761.25
314.87	1722.34
315.08	1728.49
315.29	1738.73
315.51	1746.92
315.72	1691.62
315.93	1871.84
316.15	1890.28
316.36	1798.12
316.57	1849.32
316.79	1923.04
317.00	1703.91
317.21	1912.80
317.43	1849.32
317.64	1869.80
317.85	1857.51
318.07	1796.07
318.28	1933.28
318.49	2025.44
318.70	2162.66
318.92	2035.68
319.13	1968.10
319.34	1998.82
319.56	1902.56
319.77	1828.84
319.98	1953.76
320.20	1959.91
320.41	1900.52
320.62	1941.47
320.83	1837.03
321.05	1990.63
321.26	1904.61
321.47	1886.18
321.69	1937.38
321.90	1685.48
322.11	1822.69
322.32	1865.70
322.54	1904.61
322.75	1802.21
322.96	1953.76
323.18	1738.73
323.39	1720.29
323.60	1759.21
323.81	1851.36
324.03	1834.98
324.24	1820.64
324.45	1843.17
324.66	1816.55
324.88	1916.90
325.09	1908.71
325.30	1820.64
325.52	1789.92
325.73	1808.36
325.94	1828.84
326.15	1724.39
326.37	1736.68
326.58	1882.08
326.79	1855.46
327.00	1808.36
327.22	1832.93
327.43	1763.30
327.64	1751.01
327.85	1865.70
328.07	1902.56
328.28	1961.95
328.49	1714.15
328.70	1877.99
328.92	1822.69
329.13	1834.98
329.34	1851.36
329.55	1968.10
329.76	1853.41
329.98	1781.73
330.19	1923.04
330.40	1861.60
330.61	1873.89
330.83	1890.28
331.04	1753.06
331.25	1875.94
331.46	1853.41
331.68	1679.33
331.89	1918.95
332.10	1828.84
332.31	1665.00
332.52	1781.73
332.74	1869.80
332.95	1705.96
333.16	1804.26
333.37	1841.12
333.58	1830.88
333.80	1783.78
334.01	1734.63
334.22	1798.12
334.43	1810.40
334.64	1812.45
334.86	1714.15
335.07	1748.97
335.28	1914.85
335.49	1734.63
335.70	1855.46
335.92	1877.99
336.13	1959.91
336.34	1859.56
336.55	1783.78
336.76	1802.21
336.98	1640.42
337.19	1769.44
337.40	1953.76
337.61	2004.96
337.82	1806.31
338.04	1863.65
338.25	1708.01
338.46	1875.94
338.67	1855.46
338.88	1712.10
339.09	1746.92
339.31	1787.88
339.52	1689.57
339.73	1759.21
339.94	1822.69
340.15	1923.04
340.36	1775.59
340.58	1738.73
340.79	1767.40
341.00	1828.84
341.21	1753.06
341.42	1961.95
341.63	1816.55
341.85	1861.60
342.06	1822.69
342.27	1675.24
342.48	1826.79
342.69	1753.06
342.90	1777.64
343.12	1884.13
343.33	1781.73
343.54	1877.99
343.75	1951.71
343.96	1908.71
344.17	1812.45
344.38	1806.31
344.60	1773.54
344.81	1791.97
345.02	1722.34
345.23	1894.37
345.44	1943.52
345.65	1818.60
345.86	1882.08
346.07	1855.46
346.29	1857.51
346.50	1828.84
346.71	1832.93
346.92	1849.32
347.13	1992.67
347.34	1761.25
347.55	1812.45
347.76	1781.73
347.98	1718.25
348.19	1837.03
348.40	1914.85
348.61	1853.41
348.82	1929.19
349.03	1900.52
349.24	1722.34
349.45	1918.95
349.66	1683.43
349.88	1787.88
350.09	1765.35
350.30	1871.84
350.51	1804.26
350.72	1820.64
350.93	1830.88
351.14	1794.02
351.35	1845.22
351.56	1767.40
351.77	1746.92
351.99	1880.04
352.20	1959.91
352.41	1976.29
352.62	1638.38
352.83	1761.25
353.04	1796.07
353.25	1837.03
353.46	1861.60
353.67	1867.75
353.88	1791.97
354.09	1824.74
354.30	1755.11
354.52	1810.40
354.73	1804.26
354.94	1779.68
355.15	1828.84
355.36	1970.15
355.57	1816.55
355.78	1882.08
355.99	1822.69
356.20	1841.12
356.41	1916.90
356.62	1855.46
356.83	1837.03
357.04	1918.95
357.25	1665.00
357.46	1726.44
357.68	1789.92
357.89	1724.39
358.10	1830.88
358.31	1791.97
358.52	1820.64
358.73	1755.11
358.94	1757.16
359.15	1728.49
359.36	1892.32
359.57	1744.87
359.78	1873.89
359.99	1791.97
360.20	1746.92
360.41	1855.46
360.62	1841.12
360.83	1867.75
361.04	1816.55
361.25	1869.80
361.46	1902.56
361.67	1912.80
361.88	1845.22
362.09	1896.42
362.30	1892.32
362.51	1837.03
362.72	1871.84
362.93	1914.85
363.14	1800.16
363.35	1822.69
363.56	1767.40
363.78	1925.09
363.99	1808.36
364.20	1734.63
364.41	1773.54
364.62	1906.66
364.83	1810.40
365.04	1841.12
365.25	1765.35
365.46	1937.38
365.67	1738.73
365.88	1757.16
366.09	1869.80
366.30	1775.59
366.51	1789.92
366.72	1685.48
366.93	1808.36
367.14	1839.08
367.35	1884.13
367.56	1775.59
367.77	1884.13
367.98	1834.98
368.18	1877.99
368.39	1939.43
368.60	1822.69
368.81	1910.75
369.02	1880.04
369.23	1800.16
369.44	1765.35
369.65	1832.93
369.86	1814.50
370.07	1832.93
370.28	1757.16
370.49	1912.80
370.70	1849.32
370.91	1806.31
371.12	1720.29
371.33	1884.13
371.54	1796.07
371.75	1896.42
371.96	1671.14
372.17	1802.21
372.38	1693.67
372.59	1791.97
372.80	1810.40
373.01	1783.78
373.22	1759.21
373.43	1769.44
373.64	1730.53
373.85	1947.62
374.06	1853.41
374.26	1828.84
374.47	1841.12
374.68	1968.10
374.89	1800.16
375.10	1820.64
375.31	1865.70
375.52	1847.27
375.73	1845.22
375.94	1761.25
376.15	1873.89
376.36	1763.30
376.57	1816.55
376.78	1751.01
376.99	1812.45
377.20	1904.61
377.40	1861.60
377.61	1894.37
377.82	1771.49
378.03	1916.90
378.24	1822.69
378.45	1779.68
378.66	1800.16
378.87	1705.96
379.08	1744.87
379.29	1751.01
379.50	1869.80
379.71	1748.97
379.91	1839.08
380.12	1806.31
380.33	1714.15
380.54	1826.79
380.75	1753.06
380.96	1808.36
381.17	1855.46
381.38	1828.84
381.59	1867.75
381.80	1789.92
382.00	2002.91
382.21	1877.99
382.42	1976.29
382.63	2025.44
382.84	1890.28
383.05	1843.17
383.26	1935.33
383.47	1834.98
383.68	1894.37
383.88	1916.90
384.09	1853.41
384.30	1920.99
384.51	1841.12
384.72	1783.78
384.93	1736.68
385.14	1810.40
385.35	1955.81
385.55	1738.73
385.76	1851.36
385.97	1738.73
386.18	1683.43
386.39	1828.84
386.60	1873.89
386.81	1777.64
387.02	1779.68
387.22	1837.03
387.43	2015.20
387.64	1937.38
387.85	2021.35
388.06	2140.13
388.27	4200.38
388.48	8720.25
388.68	11988.81
388.89	13952.81
389.10	14835.49
389.31	13043.51
389.52	10393.44
389.73	9207.67
389.93	8341.38
390.14	7559.05
390.35	6805.40
390.56	6205.35
390.77	5113.78
390.98	4106.18
391.18	3155.92
391.39	2432.99
391.60	2152.42
391.81	1992.67
392.02	1824.74
392.23	1986.53
392.43	1845.22
392.64	1918.95
392.85	1828.84
393.06	1939.43
393.27	1867.75
393.47	1757.16
393.68	1796.07
393.89	1753.06
394.10	1910.75
394.31	1748.97
394.52	1763.30
394.72	1734.63
394.93	1964.00
395.14	1806.31
395.35	1849.32
395.56	1779.68
395.76	1880.04
395.97	1857.51
396.18	1925.09
396.39	1996.77
396.60	2174.94
396.80	2195.42
397.01	1959.91
397.22	1935.33
397.43	2043.87
397.64	1914.85
397.84	1902.56
398.05	1955.81
398.26	1775.59
398.47	1912.80
398.67	1916.90
398.88	1787.88
399.09	1871.84
399.30	1738.73
399.51	1886.18
399.71	1708.01
399.92	1867.75
400.13	1808.36
400.34	1783.78
400.54	1701.86
400.75	1939.43
400.96	1812.45
401.17	1900.52
401.37	1810.40
401.58	1777.64
401.79	1816.55
402.00	1980.39
402.21	2179.04
402.41	2230.24
402.62	2310.11
402.83	2340.83
403.04	2320.35
403.24	2289.63
403.45	2043.87
403.66	2074.59
403.87	2002.91
404.07	2090.98
404.28	2105.31
404.49	2021.35
404.70	1925.09
404.90	1873.89
405.11	1791.97
405.32	1890.28
405.52	1791.97
405.73	1806.31
405.94	1791.97
406.15	1791.97
406.35	1898.47
406.56	1945.57
406.77	1853.41
406.98	1914.85
407.18	1767.40
407.39	1984.48
407.60	1779.68
407.80	1851.36
408.01	1783.78
408.22	1839.08
408.43	1789.92
408.63	1908.71
408.84	1855.46
409.05	1861.60
409.25	1789.92
409.46	1738.73
409.67	1812.45
409.88	1742.82
410.08	1820.64
410.29	1794.02
410.50	1886.18
410.70	1818.60
410.91	1759.21
411.12	1857.51
411.32	1841.12
411.53	1765.35
411.74	1894.37
411.95	1912.80
412.15	1929.19
412.36	1865.70
412.57	1869.80
412.77	1929.19
412.98	1888.23
413.19	1798.12
413.39	1839.08
413.60	1847.27
413.81	1908.71
414.01	1744.87
414.22	1888.23
414.43	1890.28
414.63	1828.84
414.84	2029.54
415.05	1861.60
415.25	1757.16
415.46	1871.84
415.67	1828.84
415.87	1820.64
416.08	1828.84
416.29	1810.40
416.49	1834.98
416.70	1761.25
416.91	1796.07
417.11	1855.46
417.32	1902.56
417.53	1937.38
417.73	1882.08
417.94	1802.21
418.15	1880.04
418.35	1855.46
418.56	1751.01
418.77	1953.76
418.97	1818.60
419.18	1822.69
419.38	1699.81
419.59	1828.84
419.80	1865.70
420.00	1853.41
420.21	1824.74
420.42	1849.32
420.62	1802.21
420.83	1816.55
421.04	1802.21
421.24	1765.35
421.45	1869.80
421.65	1855.46
421.86	1773.54
422.07	1875.94
422.27	1869.80
422.48	1851.36
422.69	1777.64
422.89	1812.45
423.10	1763.30
423.30	1771.49
423.51	1853.41
423.72	1865.70
423.92	1806.31
424.13	1759.21
424.33	1855.46
424.54	1939.43
424.75	1832.93
424.95	2000.87
425.16	1837.03
425.36	1728.49
425.57	1869.80
425.78	1828.84
425.98	1849.32
426.19	1794.02
426.39	1783.78
426.60	1851.36
426.81	1849.32
427.01	1824.74
427.22	1718.25
427.42	1785.83
427.63	1724.39
427.83	1853.41
428.04	1976.29
428.25	1888.23
428.45	1920.99
428.66	1890.28
428.86	1859.56
429.07	1855.46
429.28	1820.64
429.48	1800.16
429.69	1777.64
429.89	1853.41
430.10	1714.15
430.30	1892.32
430.51	1834.98
430.71	1753.06
430.92	1824.74
431.13	1800.16
431.33	1863.65
431.54	1748.97
431.74	1929.19
431.95	1961.95
432.15	1703.91
432.36	1796.07
432.56	1800.16
432.77	1914.85
432.98	2025.44
433.18	1851.36
433.39	1742.82
433.59	1849.32
433.80	1914.85
434.00	1941.47
434.21	1802.21
434.41	1841.12
434.62	1964.00
434.82	1763.30
435.03	1728.49
435.23	1814.50
435.44	1751.01
435.64	1830.88
435.85	1865.70
436.06	1880.04
436.26	1867.75
436.47	1796.07
436.67	1728.49
436.88	1839.08
437.08	1976.29
437.29	1943.52
437.49	1802.21
437.70	1900.52
437.90	1787.88
438.11	1994.72
438.31	1957.86
438.52	1988.58
438.72	2058.21
438.93	2066.40
439.13	1918.95
439.34	1968.10
439.54	1822.69
439.75	1925.09
439.95	1923.04
440.16	1808.36
440.36	1902.56
440.57	1914.85
440.77	1818.60
440.98	1783.78
441.18	1902.56
441.39	1820.64
441.59	1759.21
441.80	1916.90
442.00	1771.49
442.21	1890.28
442.41	1753.06
442.62	1847.27
442.82	1820.64
443.02	1800.16
443.23	1869.80
443.43	1806.31
443.64	1918.95
443.84	1812.45
444.05	1853.41
444.25	1837.03
444.46	1871.84
444.66	1853.41
444.87	1931.23
445.07	1794.02
445.28	1820.64
445.48	1894.37
445.69	1877.99
445.89	1939.43
446.09	1890.28
446.30	2115.55
446.50	2523.10
446.71	4167.62
446.91	5230.51
447.12	5910.44
447.32	6166.43
447.53	5713.83
447.73	4820.92
447.93	4181.95
448.14	3835.85
448.34	3655.62
448.55	3219.41
448.75	3241.93
448.96	3028.95
449.16	2805.72
449.36	2478.04
449.57	2260.96
449.77	2066.40
449.98	1880.04
450.18	1931.23
450.39	1867.75
450.59	1865.70
450.79	1820.64
451.00	1791.97
451.20	1888.23
451.41	1882.08
451.61	1791.97
451.81	1841.12
452.02	1859.56
452.22	1794.02
452.43	1789.92
452.63	1798.12
