SpectraSuite Data File
++++++++++++++++++++++++++++++++++++
Date: Wed May 04 21:13:07 CEST 2016
User: root
Dark Spectrum Present: No
Reference Spectrum Present: No
Number of Sampled Component Spectra: 1
Spectrometers: USB4C02835
Integration Time (usec): 100000 (USB4C02835)
Spectra Averaged: 1 (USB4C02835)
Boxcar Smoothing: 0 (USB4C02835)
Correct for Electrical Dark: No (USB4C02835)
Strobe/Lamp Enabled: No (USB4C02835)
Correct for Detector Non-linearity: No (USB4C02835)
Correct for Stray Light: No (USB4C02835)
Number of Pixels in Processed Spectrum: 3648
>>>>>Begin Processed Spectral Data<<<<<
177.47	1595.37
177.69	1595.37
177.91	1595.37
178.13	1525.74
178.36	1464.30
178.58	1732.58
178.80	1771.49
179.02	1759.21
179.24	1734.63
179.46	1822.69
179.68	1847.27
179.90	1781.73
180.13	1783.78
180.35	1814.50
180.57	1759.21
180.79	1834.98
181.01	1832.93
181.23	1902.56
181.45	1890.28
181.67	1865.70
181.90	1822.69
182.12	1759.21
182.34	1734.63
182.56	1853.41
182.78	1808.36
183.00	1789.92
183.22	1832.93
183.44	1701.86
183.66	1927.14
183.89	1791.97
184.11	1863.65
184.33	1798.12
184.55	1976.29
184.77	1843.17
184.99	1798.12
185.21	1761.25
185.43	1937.38
185.65	1783.78
185.87	1839.08
186.10	1959.91
186.32	1912.80
186.54	1904.61
186.76	1824.74
186.98	1869.80
187.20	1865.70
187.42	1800.16
187.64	1753.06
187.86	1845.22
188.08	1837.03
188.30	1806.31
188.52	1767.40
188.75	1908.71
188.97	1873.89
189.19	1755.11
189.41	1816.55
189.63	1845.22
189.85	1808.36
190.07	1800.16
190.29	1796.07
190.51	1886.18
190.73	1685.48
190.95	1873.89
191.17	1828.84
191.39	1714.15
191.61	1826.79
191.84	1734.63
192.06	1845.22
192.28	1708.01
192.50	2047.97
192.72	1871.84
192.94	1794.02
193.16	1861.60
193.38	1822.69
193.60	1808.36
193.82	1759.21
194.04	1824.74
194.26	1837.03
194.48	1832.93
194.70	1759.21
194.92	1806.31
195.14	1873.89
195.36	1722.34
195.58	1869.80
195.80	1853.41
196.02	1771.49
196.24	1818.60
196.46	1808.36
196.69	1746.92
196.91	1988.58
197.13	1787.88
197.35	1806.31
197.57	1906.66
197.79	1857.51
198.01	1814.50
198.23	1814.50
198.45	1832.93
198.67	1773.54
198.89	1775.59
199.11	1800.16
199.33	1757.16
199.55	1765.35
199.77	1779.68
199.99	1959.91
200.21	1853.41
200.43	1859.56
200.65	1720.29
200.87	1724.39
201.09	1861.60
201.31	1832.93
201.53	1865.70
201.75	1837.03
201.97	1863.65
202.19	1841.12
202.41	1851.36
202.63	1859.56
202.85	1789.92
203.07	1894.37
203.29	1826.79
203.51	1808.36
203.73	1843.17
203.95	2011.11
204.17	1744.87
204.39	1814.50
204.61	1822.69
204.83	1740.77
205.05	1822.69
205.27	1841.12
205.49	1920.99
205.71	1847.27
205.93	1787.88
206.15	1748.97
206.37	1853.41
206.59	1859.56
206.81	1677.29
207.03	1708.01
207.25	1718.25
207.47	1818.60
207.69	1789.92
207.91	1867.75
208.13	1880.04
208.34	1773.54
208.56	1738.73
208.78	1826.79
209.00	1757.16
209.22	1837.03
209.44	1738.73
209.66	1808.36
209.88	1783.78
210.10	1814.50
210.32	1785.83
210.54	1886.18
210.76	1722.34
210.98	1804.26
211.20	1675.24
211.42	1785.83
211.64	1947.62
211.86	1886.18
212.08	1787.88
212.30	1781.73
212.52	1775.59
212.74	1828.84
212.96	1800.16
213.17	1890.28
213.39	1781.73
213.61	1863.65
213.83	1816.55
214.05	1781.73
214.27	1857.51
214.49	1728.49
214.71	1759.21
214.93	1828.84
215.15	1847.27
215.37	1826.79
215.59	1703.91
215.81	1859.56
216.03	1890.28
216.24	1834.98
216.46	1841.12
216.68	1824.74
216.90	1837.03
217.12	1888.23
217.34	1841.12
217.56	1789.92
217.78	1892.32
218.00	1845.22
218.22	1779.68
218.44	1865.70
218.66	1830.88
218.87	1957.86
219.09	1804.26
219.31	1869.80
219.53	1812.45
219.75	1771.49
219.97	1773.54
220.19	1853.41
220.41	1761.25
220.63	1890.28
220.85	1906.66
221.06	1791.97
221.28	1945.57
221.50	1843.17
221.72	1806.31
221.94	1775.59
222.16	1806.31
222.38	1869.80
222.60	1847.27
222.82	1779.68
223.03	1832.93
223.25	1726.44
223.47	1855.46
223.69	1978.34
223.91	1791.97
224.13	1806.31
224.35	1794.02
224.57	1877.99
224.78	1746.92
225.00	1714.15
225.22	1783.78
225.44	1806.31
225.66	1810.40
225.88	1734.63
226.10	1841.12
226.32	1767.40
226.53	1920.99
226.75	1785.83
226.97	1839.08
227.19	1882.08
227.41	1753.06
227.63	1796.07
227.85	1675.24
228.06	1828.84
228.28	1728.49
228.50	1826.79
228.72	1736.68
228.94	1791.97
229.16	1730.53
229.37	1820.64
229.59	1779.68
229.81	1912.80
230.03	1816.55
230.25	1697.77
230.47	1705.96
230.69	1806.31
230.90	1880.04
231.12	1740.77
231.34	1859.56
231.56	1894.37
231.78	1777.64
232.00	1742.82
232.21	1783.78
232.43	1794.02
232.65	1685.48
232.87	1873.89
233.09	1755.11
233.30	1804.26
233.52	1845.22
233.74	1800.16
233.96	1794.02
234.18	1851.36
234.40	1751.01
234.61	1964.00
234.83	1755.11
235.05	1718.25
235.27	1931.23
235.49	1927.14
235.70	1845.22
235.92	1830.88
236.14	1814.50
236.36	1988.58
236.58	1638.38
236.79	1900.52
237.01	1806.31
237.23	1775.59
237.45	1943.52
237.67	1828.84
237.88	1837.03
238.10	1912.80
238.32	1775.59
238.54	1830.88
238.76	1798.12
238.97	1828.84
239.19	1746.92
239.41	1886.18
239.63	1918.95
239.85	1853.41
240.06	1771.49
240.28	1794.02
240.50	1929.19
240.72	1812.45
240.93	1818.60
241.15	1877.99
241.37	1779.68
241.59	1837.03
241.81	1779.68
242.02	1851.36
242.24	1863.65
242.46	1828.84
242.68	1724.39
242.89	1863.65
243.11	1886.18
243.33	1771.49
243.55	1869.80
243.76	1791.97
243.98	1775.59
244.20	1769.44
244.42	1798.12
244.64	1849.32
244.85	1660.90
245.07	1732.58
245.29	1857.51
245.51	1759.21
245.72	1791.97
245.94	1867.75
246.16	1826.79
246.38	1845.22
246.59	1810.40
246.81	1783.78
247.03	1785.83
247.24	1683.43
247.46	1791.97
247.68	1841.12
247.90	1660.90
248.11	1775.59
248.33	1886.18
248.55	1806.31
248.77	1791.97
248.98	1759.21
249.20	1896.42
249.42	1796.07
249.64	1837.03
249.85	1767.40
250.07	1734.63
250.29	1861.60
250.50	1941.47
250.72	1763.30
250.94	1853.41
251.16	1982.43
251.37	1873.89
251.59	1818.60
251.81	1753.06
252.02	1875.94
252.24	1796.07
252.46	1802.21
252.68	1665.00
252.89	1773.54
253.11	1701.86
253.33	1951.71
253.54	1861.60
253.76	1808.36
253.98	1789.92
254.20	1863.65
254.41	1720.29
254.63	1728.49
254.85	1732.58
255.06	1853.41
255.28	1777.64
255.50	1865.70
255.71	1841.12
255.93	1769.44
256.15	1718.25
256.36	1808.36
256.58	1771.49
256.80	1863.65
257.02	1748.97
257.23	1816.55
257.45	1822.69
257.67	1912.80
257.88	1773.54
258.10	1777.64
258.32	1773.54
258.53	1839.08
258.75	1865.70
258.97	1818.60
259.18	1753.06
259.40	1814.50
259.62	1794.02
259.83	1865.70
260.05	1873.89
260.27	2138.08
260.48	1857.51
260.70	1771.49
260.92	1773.54
261.13	1820.64
261.35	1732.58
261.57	1855.46
261.78	1617.90
262.00	1708.01
262.22	1890.28
262.43	1677.29
262.65	1818.60
262.86	1769.44
263.08	1947.62
263.30	1757.16
263.51	1689.57
263.73	1787.88
263.95	1906.66
264.16	1716.20
264.38	1808.36
264.60	1839.08
264.81	1822.69
265.03	1880.04
265.25	1834.98
265.46	1806.31
265.68	1871.84
265.89	1794.02
266.11	1759.21
266.33	1886.18
266.54	1974.24
266.76	1832.93
266.98	1863.65
267.19	1953.76
267.41	1888.23
267.62	1802.21
267.84	1675.24
268.06	1826.79
268.27	1808.36
268.49	1849.32
268.70	1832.93
268.92	1785.83
269.14	1681.38
269.35	1714.15
269.57	1802.21
269.79	1771.49
270.00	1849.32
270.22	1898.47
270.43	1736.68
270.65	1798.12
270.87	1820.64
271.08	1810.40
271.30	1867.75
271.51	1806.31
271.73	1787.88
271.95	1910.75
272.16	1875.94
272.38	1845.22
272.59	1820.64
272.81	1933.28
273.02	1841.12
273.24	1877.99
273.46	1853.41
273.67	1679.33
273.89	1841.12
274.10	1787.88
274.32	1918.95
274.54	1816.55
274.75	1800.16
274.97	1781.73
275.18	1820.64
275.40	1890.28
275.61	1800.16
275.83	1845.22
276.05	1718.25
276.26	1765.35
276.48	1855.46
276.69	1816.55
276.91	1865.70
277.12	1929.19
277.34	1955.81
277.55	1837.03
277.77	1798.12
277.99	1777.64
278.20	1763.30
278.42	1699.81
278.63	1744.87
278.85	1775.59
279.06	1748.97
279.28	1736.68
279.49	1841.12
279.71	1918.95
279.93	1867.75
280.14	1904.61
280.36	1779.68
280.57	1832.93
280.79	1980.39
281.00	1699.81
281.22	1740.77
281.43	1875.94
281.65	1687.53
281.86	1710.05
282.08	1834.98
282.29	1937.38
282.51	1777.64
282.73	1787.88
282.94	1665.00
283.16	1843.17
283.37	1910.75
283.59	1830.88
283.80	1783.78
284.02	1759.21
284.23	1925.09
284.45	1726.44
284.66	1748.97
284.88	1794.02
285.09	1828.84
285.31	1865.70
285.52	1769.44
285.74	1763.30
285.95	1857.51
286.17	1804.26
286.38	1787.88
286.60	1738.73
286.81	1740.77
287.03	1746.92
287.24	1775.59
287.46	1912.80
287.67	1824.74
287.89	1947.62
288.10	1822.69
288.32	1808.36
288.53	1873.89
288.75	1814.50
288.96	1841.12
289.18	1794.02
289.39	1834.98
289.61	1849.32
289.82	1957.86
290.04	1943.52
290.25	1863.65
290.47	1877.99
290.68	1755.11
290.90	1908.71
291.11	1695.72
291.33	1847.27
291.54	1726.44
291.76	1757.16
291.97	1855.46
292.18	1816.55
292.40	1724.39
292.61	1712.10
292.83	1898.47
293.04	1798.12
293.26	1882.08
293.47	1798.12
293.69	1763.30
293.90	1746.92
294.12	1853.41
294.33	1822.69
294.55	1816.55
294.76	1923.04
294.97	1888.23
295.19	1918.95
295.40	1730.53
295.62	1787.88
295.83	1822.69
296.05	1722.34
296.26	1875.94
296.48	1742.82
296.69	1810.40
296.90	1728.49
297.12	1832.93
297.33	1923.04
297.55	1841.12
297.76	1791.97
297.98	1894.37
298.19	1794.02
298.41	1822.69
298.62	1744.87
298.83	1812.45
299.05	1808.36
299.26	1800.16
299.48	1708.01
299.69	1875.94
299.90	1816.55
300.12	1757.16
300.33	1877.99
300.55	1826.79
300.76	1890.28
300.98	1748.97
301.19	1910.75
301.40	1806.31
301.62	1783.78
301.83	1871.84
302.05	1781.73
302.26	1808.36
302.47	1800.16
302.69	1796.07
302.90	1849.32
303.12	1605.61
303.33	1894.37
303.54	1931.23
303.76	1830.88
303.97	1810.40
304.19	1832.93
304.40	1734.63
304.61	1863.65
304.83	1894.37
305.04	1855.46
305.26	1794.02
305.47	1849.32
305.68	1730.53
305.90	1738.73
306.11	1841.12
306.33	1775.59
306.54	1806.31
306.75	1740.77
306.97	1722.34
307.18	1718.25
307.39	1705.96
307.61	1898.47
307.82	1765.35
308.04	1861.60
308.25	1759.21
308.46	1798.12
308.68	1886.18
308.89	1800.16
309.10	1916.90
309.32	1732.58
309.53	1789.92
309.74	1861.60
309.96	1765.35
310.17	1890.28
310.39	1687.53
310.60	1834.98
310.81	1794.02
311.03	1695.72
311.24	1898.47
311.45	1828.84
311.67	1959.91
311.88	1832.93
312.09	1787.88
312.31	1759.21
312.52	1816.55
312.73	1830.88
312.95	1701.86
313.16	1751.01
313.37	1912.80
313.59	1861.60
313.80	1816.55
314.01	1902.56
314.23	1822.69
314.44	1783.78
314.65	1734.63
314.87	1730.53
315.08	1834.98
315.29	1755.11
315.51	1734.63
315.72	1777.64
315.93	1912.80
316.15	1847.27
316.36	1753.06
316.57	1791.97
316.79	1769.44
317.00	1808.36
317.21	1880.04
317.43	1771.49
317.64	1880.04
317.85	1783.78
318.07	1820.64
318.28	1794.02
318.49	1992.67
318.70	2097.12
318.92	2019.30
319.13	2023.39
319.34	1990.63
319.56	1964.00
319.77	1966.05
319.98	1923.04
320.20	1877.99
320.41	1914.85
320.62	1865.70
320.83	1812.45
321.05	1908.71
321.26	1920.99
321.47	1865.70
321.69	1916.90
321.90	1714.15
322.11	1816.55
322.32	1853.41
322.54	1841.12
322.75	1798.12
322.96	1939.43
323.18	1734.63
323.39	1714.15
323.60	1718.25
323.81	1947.62
324.03	1781.73
324.24	1834.98
324.45	1808.36
324.66	1771.49
324.88	1853.41
325.09	1904.61
325.30	1810.40
325.52	1855.46
325.73	1927.14
325.94	1757.16
326.15	1740.77
326.37	1773.54
326.58	1822.69
326.79	1886.18
327.00	1798.12
327.22	1873.89
327.43	1755.11
327.64	1648.61
327.85	1894.37
328.07	1935.33
328.28	1908.71
328.49	1822.69
328.70	1794.02
328.92	1775.59
329.13	1736.68
329.34	1884.13
329.55	1994.72
329.76	1877.99
329.98	1804.26
330.19	1935.33
330.40	1880.04
330.61	1769.44
330.83	1882.08
331.04	1771.49
331.25	1847.27
331.46	1853.41
331.68	1710.05
331.89	1931.23
332.10	1804.26
332.31	1746.92
332.52	1806.31
332.74	1890.28
332.95	1730.53
333.16	1837.03
333.37	1892.32
333.58	1787.88
333.80	1783.78
334.01	1691.62
334.22	1863.65
334.43	1769.44
334.64	1720.29
334.86	1720.29
335.07	1824.74
335.28	1855.46
335.49	1693.67
335.70	1798.12
335.92	1959.91
336.13	1953.76
336.34	1877.99
336.55	1779.68
336.76	1902.56
336.98	1712.10
337.19	1837.03
337.40	1959.91
337.61	1939.43
337.82	1775.59
338.04	1884.13
338.25	1667.05
338.46	1847.27
338.67	1861.60
338.88	1800.16
339.09	1736.68
339.31	1810.40
339.52	1738.73
339.73	1826.79
339.94	1796.07
340.15	1798.12
340.36	1806.31
340.58	1785.83
340.79	1791.97
341.00	1867.75
341.21	1712.10
341.42	1892.32
341.63	1808.36
341.85	1800.16
342.06	1761.25
342.27	1748.97
342.48	1810.40
342.69	1789.92
342.90	1812.45
343.12	1839.08
343.33	1798.12
343.54	1894.37
343.75	1916.90
343.96	1798.12
344.17	1804.26
344.38	1845.22
344.60	1738.73
344.81	1785.83
345.02	1830.88
345.23	1910.75
345.44	1964.00
345.65	1865.70
345.86	1791.97
346.07	1828.84
346.29	1773.54
346.50	1898.47
346.71	1873.89
346.92	1902.56
347.13	1906.66
347.34	1832.93
347.55	1761.25
347.76	1843.17
347.98	1714.15
348.19	1724.39
348.40	1896.42
348.61	1783.78
348.82	1837.03
349.03	1810.40
349.24	1777.64
349.45	1925.09
349.66	1675.24
349.88	1759.21
350.09	1789.92
350.30	1886.18
350.51	1943.52
350.72	1802.21
350.93	1763.30
351.14	1763.30
351.35	1828.84
351.56	1880.04
351.77	1834.98
351.99	1814.50
352.20	1955.81
352.41	1880.04
352.62	1730.53
352.83	1748.97
353.04	1828.84
353.25	1726.44
353.46	1861.60
353.67	1947.62
353.88	1687.53
354.09	1748.97
354.30	1812.45
354.52	1828.84
354.73	1734.63
354.94	1689.57
355.15	1814.50
355.36	1933.28
355.57	1738.73
355.78	1898.47
355.99	1769.44
356.20	1810.40
356.41	1877.99
356.62	1791.97
356.83	1812.45
357.04	1941.47
357.25	1748.97
357.46	1808.36
357.68	1726.44
357.89	1746.92
358.10	1814.50
358.31	1763.30
358.52	1738.73
358.73	1767.40
358.94	1755.11
359.15	1767.40
359.36	1865.70
359.57	1785.83
359.78	1744.87
359.99	1837.03
360.20	1755.11
360.41	1775.59
360.62	1908.71
360.83	1859.56
361.04	1847.27
361.25	1853.41
361.46	1867.75
361.67	1837.03
361.88	1841.12
362.09	1927.14
362.30	1867.75
362.51	1804.26
362.72	1804.26
362.93	1888.23
363.14	1886.18
363.35	1789.92
363.56	1853.41
363.78	1927.14
363.99	1898.47
364.20	1736.68
364.41	1828.84
364.62	1929.19
364.83	1828.84
365.04	1851.36
365.25	1769.44
365.46	1949.67
365.67	1753.06
365.88	1720.29
366.09	1806.31
366.30	1767.40
366.51	1845.22
366.72	1730.53
366.93	1816.55
367.14	1771.49
367.35	1820.64
367.56	1771.49
367.77	1935.33
367.98	1845.22
368.18	1800.16
368.39	1830.88
368.60	1730.53
368.81	1806.31
369.02	1789.92
369.23	1826.79
369.44	1726.44
369.65	1828.84
369.86	1824.74
370.07	1867.75
370.28	1822.69
370.49	1880.04
370.70	1855.46
370.91	1724.39
371.12	1738.73
371.33	1906.66
371.54	1804.26
371.75	1890.28
371.96	1632.23
372.17	1861.60
372.38	1808.36
372.59	1898.47
372.80	1765.35
373.01	1753.06
373.22	1867.75
373.43	1806.31
373.64	1699.81
373.85	1843.17
374.06	1920.99
374.26	1873.89
374.47	1800.16
374.68	1857.51
374.89	1777.64
375.10	1783.78
375.31	1818.60
375.52	1890.28
375.73	1849.32
375.94	1757.16
376.15	1931.23
376.36	1769.44
376.57	1763.30
376.78	1783.78
376.99	1828.84
377.20	1861.60
377.40	1767.40
377.61	1902.56
377.82	1732.58
378.03	1884.13
378.24	1890.28
378.45	1851.36
378.66	1816.55
378.87	1712.10
379.08	1640.42
379.29	1837.03
379.50	1931.23
379.71	1824.74
379.91	1875.94
380.12	1904.61
380.33	1802.21
380.54	1728.49
380.75	1828.84
380.96	1804.26
381.17	1867.75
381.38	1877.99
381.59	1898.47
381.80	1830.88
382.00	2019.30
382.21	1869.80
382.42	1996.77
382.63	1994.72
382.84	1814.50
383.05	1912.80
383.26	2011.11
383.47	1861.60
383.68	1923.04
383.88	1843.17
384.09	1777.64
384.30	1964.00
384.51	1871.84
384.72	1767.40
384.93	1740.77
385.14	1841.12
385.35	1894.37
385.55	1712.10
385.76	1943.52
385.97	1814.50
386.18	1689.57
386.39	1769.44
386.60	1714.15
386.81	1845.22
387.02	1859.56
387.22	1798.12
387.43	1824.74
387.64	1949.67
387.85	1951.71
388.06	2236.38
388.27	4198.34
388.48	8953.72
388.68	11747.15
388.89	13999.91
389.10	15038.23
389.31	13147.96
389.52	10614.62
389.73	9211.76
389.93	8300.42
390.14	7665.55
390.35	7018.39
390.56	6221.73
390.77	5148.59
390.98	4016.07
391.18	3071.95
391.39	2437.08
391.60	2007.01
391.81	2009.06
392.02	1875.94
392.23	1912.80
392.43	1900.52
392.64	1898.47
392.85	1783.78
393.06	1984.48
393.27	1800.16
393.47	1775.59
393.68	1783.78
393.89	1757.16
394.10	1886.18
394.31	1757.16
394.52	1787.88
394.72	1800.16
394.93	1941.47
395.14	1736.68
395.35	1853.41
395.56	1746.92
395.76	1843.17
395.97	1953.76
396.18	1964.00
396.39	1968.10
396.60	2242.53
396.80	2113.50
397.01	1943.52
397.22	1898.47
397.43	1980.39
397.64	1851.36
397.84	1880.04
398.05	2029.54
398.26	1781.73
398.47	1935.33
398.67	1916.90
398.88	1855.46
399.09	1908.71
399.30	1859.56
399.51	1794.02
399.71	1806.31
399.92	1830.88
400.13	1837.03
400.34	1791.97
400.54	1841.12
400.75	2025.44
400.96	1877.99
401.17	1920.99
401.37	1865.70
401.58	1759.21
401.79	1847.27
402.00	1923.04
402.21	2189.28
402.41	2156.51
402.62	2121.70
402.83	2217.95
403.04	2215.90
403.24	2269.15
403.45	1923.04
403.66	2068.45
403.87	2056.16
404.07	2017.25
404.28	2009.06
404.49	2082.78
404.70	1939.43
404.90	1910.75
405.11	1800.16
405.32	1904.61
405.52	1837.03
405.73	1759.21
405.94	1828.84
406.15	1869.80
406.35	1859.56
406.56	1853.41
406.77	1828.84
406.98	1869.80
407.18	1806.31
407.39	1763.30
407.60	1804.26
407.80	1859.56
408.01	1834.98
408.22	1908.71
408.43	1779.68
408.63	1867.75
408.84	1798.12
409.05	1888.23
409.25	1732.58
409.46	1861.60
409.67	1796.07
409.88	1759.21
410.08	1853.41
410.29	1740.77
410.50	1785.83
410.70	1820.64
410.91	1779.68
411.12	1880.04
411.32	1753.06
411.53	1773.54
411.74	1955.81
411.95	1970.15
412.15	1902.56
412.36	1880.04
412.57	1916.90
412.77	1920.99
412.98	1796.07
413.19	1804.26
413.39	1820.64
413.60	1902.56
413.81	1908.71
414.01	1742.82
414.22	1771.49
414.43	1841.12
414.63	1822.69
414.84	1882.08
415.05	1775.59
415.25	1710.05
415.46	1910.75
415.67	1814.50
415.87	1808.36
416.08	1869.80
416.29	1824.74
416.49	1923.04
416.70	1775.59
416.91	1779.68
417.11	1820.64
417.32	1849.32
417.53	1845.22
417.73	1869.80
417.94	1800.16
418.15	1789.92
418.35	1812.45
418.56	1832.93
418.77	1953.76
418.97	1828.84
419.18	1779.68
419.38	1718.25
419.59	1818.60
419.80	1908.71
420.00	1746.92
420.21	1849.32
420.42	1873.89
420.62	1857.51
420.83	1787.88
421.04	1849.32
421.24	1830.88
421.45	1906.66
421.65	1806.31
421.86	1763.30
422.07	1990.63
422.27	1808.36
422.48	1826.79
422.69	1710.05
422.89	1902.56
423.10	1888.23
423.30	1765.35
423.51	1871.84
423.72	1738.73
423.92	1845.22
424.13	1724.39
424.33	1880.04
424.54	1892.32
424.75	1839.08
424.95	1914.85
425.16	1882.08
425.36	1705.96
425.57	1882.08
425.78	1822.69
425.98	1818.60
426.19	1779.68
426.39	1712.10
426.60	1834.98
426.81	1906.66
427.01	1763.30
427.22	1765.35
427.42	1748.97
427.63	1775.59
427.83	1900.52
428.04	1984.48
428.25	1931.23
428.45	1802.21
428.66	1931.23
428.86	1900.52
429.07	1771.49
429.28	1834.98
429.48	1859.56
429.69	1773.54
429.89	1898.47
430.10	1785.83
430.30	1847.27
430.51	1857.51
430.71	1763.30
430.92	1804.26
431.13	1761.25
431.33	1832.93
431.54	1845.22
431.74	1882.08
431.95	1957.86
432.15	1755.11
432.36	1775.59
432.56	1861.60
432.77	2013.15
432.98	1953.76
433.18	1791.97
433.39	1798.12
433.59	1832.93
433.80	1906.66
434.00	1976.29
434.21	1746.92
434.41	1794.02
434.62	1992.67
434.82	1800.16
435.03	1708.01
435.23	1828.84
435.44	1718.25
435.64	1738.73
435.85	1853.41
436.06	1964.00
436.26	1875.94
436.47	1847.27
436.67	1791.97
436.88	1748.97
437.08	1775.59
437.29	1896.42
437.49	1794.02
437.70	1861.60
437.90	1830.88
438.11	2004.96
438.31	1900.52
438.52	1976.29
438.72	2017.25
438.93	2056.16
439.13	1984.48
439.34	2011.11
439.54	1843.17
439.75	1949.67
439.95	1861.60
440.16	1773.54
440.36	1898.47
440.57	1865.70
440.77	1816.55
440.98	1853.41
441.18	1880.04
441.39	1761.25
441.59	1796.07
441.80	1923.04
442.00	1918.95
442.21	1896.42
442.41	1695.72
442.62	1855.46
442.82	1755.11
443.02	1783.78
443.23	1859.56
443.43	1863.65
443.64	1935.33
443.84	1794.02
444.05	2002.91
444.25	1853.41
444.46	1804.26
444.66	1849.32
444.87	1945.57
445.07	1769.44
445.28	1826.79
445.48	1859.56
445.69	1837.03
445.89	1996.77
446.09	1812.45
446.30	2076.64
446.50	2539.48
446.71	4132.80
446.91	5195.70
447.12	5914.53
447.32	6326.18
447.53	5674.92
447.73	4763.58
447.93	4143.04
448.14	3893.19
448.34	3635.14
448.55	3311.57
448.75	3266.51
448.96	3041.23
449.16	2791.38
449.36	2447.32
449.57	2258.91
449.77	2017.25
449.98	1820.64
450.18	1914.85
450.39	1877.99
450.59	1865.70
450.79	1812.45
451.00	1832.93
451.20	1867.75
451.41	1798.12
451.61	1877.99
451.81	1869.80
452.02	1791.97
452.22	1796.07
452.43	1800.16
452.63	1830.88
