SpectraSuite Data File
++++++++++++++++++++++++++++++++++++
Date: Wed May 04 21:13:02 CEST 2016
User: root
Dark Spectrum Present: No
Reference Spectrum Present: No
Number of Sampled Component Spectra: 1
Spectrometers: USB4C02835
Integration Time (usec): 100000 (USB4C02835)
Spectra Averaged: 1 (USB4C02835)
Boxcar Smoothing: 0 (USB4C02835)
Correct for Electrical Dark: No (USB4C02835)
Strobe/Lamp Enabled: No (USB4C02835)
Correct for Detector Non-linearity: No (USB4C02835)
Correct for Stray Light: No (USB4C02835)
Number of Pixels in Processed Spectrum: 3648
>>>>>Begin Processed Spectral Data<<<<<
177.47	1513.45
177.69	1513.45
177.91	1513.45
178.13	1517.54
178.36	1517.54
178.58	1796.07
178.80	1763.30
179.02	1705.96
179.24	1724.39
179.46	1798.12
179.68	1806.31
179.90	1751.01
180.13	1787.88
180.35	1783.78
180.57	1753.06
180.79	1834.98
181.01	1789.92
181.23	1884.13
181.45	1873.89
181.67	1847.27
181.90	1869.80
182.12	1720.29
182.34	1681.38
182.56	1812.45
182.78	1839.08
183.00	1765.35
183.22	1906.66
183.44	1693.67
183.66	1959.91
183.89	1918.95
184.11	1746.92
184.33	1832.93
184.55	1957.86
184.77	1849.32
184.99	1834.98
185.21	1810.40
185.43	1992.67
185.65	1775.59
185.87	1828.84
186.10	2013.15
186.32	1970.15
186.54	1853.41
186.76	1808.36
186.98	1853.41
187.20	1755.11
187.42	1822.69
187.64	1865.70
187.86	1828.84
188.08	1857.51
188.30	1804.26
188.52	1736.68
188.75	1923.04
188.97	1888.23
189.19	1697.77
189.41	1822.69
189.63	1853.41
189.85	1779.68
190.07	1722.34
190.29	1628.14
190.51	1865.70
190.73	1705.96
190.95	1892.32
191.17	1804.26
191.39	1765.35
191.61	1748.97
191.84	1800.16
192.06	1841.12
192.28	1746.92
192.50	1976.29
192.72	1880.04
192.94	1777.64
193.16	1824.74
193.38	1806.31
193.60	1726.44
193.82	1757.16
194.04	1869.80
194.26	1912.80
194.48	1798.12
194.70	1804.26
194.92	1744.87
195.14	1877.99
195.36	1759.21
195.58	1820.64
195.80	1804.26
196.02	1781.73
196.24	1765.35
196.46	1781.73
196.69	1826.79
196.91	2011.11
197.13	1796.07
197.35	1738.73
197.57	1861.60
197.79	1820.64
198.01	1820.64
198.23	1935.33
198.45	1900.52
198.67	1726.44
198.89	1744.87
199.11	1804.26
199.33	1796.07
199.55	1638.38
199.77	1755.11
199.99	1925.09
200.21	1830.88
200.43	1804.26
200.65	1705.96
200.87	1673.19
201.09	1775.59
201.31	1751.01
201.53	1871.84
201.75	1812.45
201.97	1863.65
202.19	1830.88
202.41	1898.47
202.63	1972.19
202.85	1804.26
203.07	1834.98
203.29	1785.83
203.51	1763.30
203.73	1804.26
203.95	2050.02
204.17	1841.12
204.39	1898.47
204.61	1869.80
204.83	1761.25
205.05	1789.92
205.27	1910.75
205.49	1939.43
205.71	1853.41
205.93	1712.10
206.15	1812.45
206.37	1800.16
206.59	1791.97
206.81	1699.81
207.03	1697.77
207.25	1789.92
207.47	1863.65
207.69	1722.34
207.91	1912.80
208.13	1853.41
208.34	1804.26
208.56	1826.79
208.78	1894.37
209.00	1818.60
209.22	1800.16
209.44	1763.30
209.66	1798.12
209.88	1820.64
210.10	1847.27
210.32	1714.15
210.54	1894.37
210.76	1802.21
210.98	1912.80
211.20	1718.25
211.42	1841.12
211.64	1896.42
211.86	1773.54
212.08	1832.93
212.30	1863.65
212.52	1841.12
212.74	1859.56
212.96	1855.46
213.17	1869.80
213.39	1873.89
213.61	1861.60
213.83	1832.93
214.05	1796.07
214.27	1890.28
214.49	1753.06
214.71	1775.59
214.93	1886.18
215.15	1832.93
215.37	1828.84
215.59	1720.29
215.81	1787.88
216.03	1863.65
216.24	1779.68
216.46	1763.30
216.68	1839.08
216.90	1779.68
217.12	1918.95
217.34	1908.71
217.56	1828.84
217.78	1951.71
218.00	1863.65
218.22	1781.73
218.44	1773.54
218.66	1871.84
218.87	1863.65
219.09	1720.29
219.31	1837.03
219.53	1824.74
219.75	1830.88
219.97	1855.46
220.19	1785.83
220.41	1810.40
220.63	1937.38
220.85	1800.16
221.06	1904.61
221.28	1869.80
221.50	1898.47
221.72	1798.12
221.94	1830.88
222.16	1810.40
222.38	1861.60
222.60	1853.41
222.82	1837.03
223.03	1912.80
223.25	1802.21
223.47	1863.65
223.69	1980.39
223.91	1873.89
224.13	1861.60
224.35	1748.97
224.57	1822.69
224.78	1871.84
225.00	1738.73
225.22	1791.97
225.44	1796.07
225.66	1857.51
225.88	1796.07
226.10	1943.52
226.32	1796.07
226.53	1992.67
226.75	1783.78
226.97	1779.68
227.19	1871.84
227.41	1808.36
227.63	1814.50
227.85	1712.10
228.06	1873.89
228.28	1824.74
228.50	1832.93
228.72	1777.64
228.94	1841.12
229.16	1728.49
229.37	1761.25
229.59	1722.34
229.81	1970.15
230.03	1746.92
230.25	1777.64
230.47	1734.63
230.69	1789.92
230.90	1822.69
231.12	1728.49
231.34	1785.83
231.56	1875.94
231.78	1697.77
232.00	1775.59
232.21	1820.64
232.43	1810.40
232.65	1708.01
232.87	1849.32
233.09	1767.40
233.30	1771.49
233.52	1880.04
233.74	1820.64
233.96	1808.36
234.18	1820.64
234.40	1757.16
234.61	1914.85
234.83	1808.36
235.05	1701.86
235.27	2050.02
235.49	1869.80
235.70	1800.16
235.92	1902.56
236.14	1904.61
236.36	2023.39
236.58	1771.49
236.79	1787.88
237.01	1843.17
237.23	1857.51
237.45	1964.00
237.67	1798.12
237.88	1765.35
238.10	1947.62
238.32	1710.05
238.54	1779.68
238.76	1732.58
238.97	1763.30
239.19	1673.19
239.41	1841.12
239.63	1886.18
239.85	1753.06
240.06	1746.92
240.28	1865.70
240.50	1839.08
240.72	1892.32
240.93	1794.02
241.15	1871.84
241.37	1875.94
241.59	1857.51
241.81	1824.74
242.02	1746.92
242.24	1904.61
242.46	1861.60
242.68	1812.45
242.89	1755.11
243.11	1851.36
243.33	1812.45
243.55	1867.75
243.76	1787.88
243.98	1763.30
244.20	1810.40
244.42	1800.16
244.64	1791.97
244.85	1701.86
245.07	1800.16
245.29	1906.66
245.51	1800.16
245.72	1816.55
245.94	1857.51
246.16	1865.70
246.38	1824.74
246.59	1779.68
246.81	1751.01
247.03	1738.73
247.24	1751.01
247.46	1710.05
247.68	1869.80
247.90	1812.45
248.11	1736.68
248.33	1828.84
248.55	1888.23
248.77	1800.16
248.98	1877.99
249.20	1896.42
249.42	1837.03
249.64	1867.75
249.85	1722.34
250.07	1810.40
250.29	1914.85
250.50	1845.22
250.72	1716.20
250.94	1834.98
251.16	1980.39
251.37	1783.78
251.59	1906.66
251.81	1941.47
252.02	1861.60
252.24	1814.50
252.46	1830.88
252.68	1777.64
252.89	1781.73
253.11	1671.14
253.33	1925.09
253.54	1898.47
253.76	1712.10
253.98	1779.68
254.20	1691.62
254.41	1808.36
254.63	1859.56
254.85	1669.09
255.06	1748.97
255.28	1812.45
255.50	1769.44
255.71	1791.97
255.93	1765.35
256.15	1812.45
256.36	1839.08
256.58	1716.20
256.80	1837.03
257.02	1814.50
257.23	1767.40
257.45	1808.36
257.67	1837.03
257.88	1769.44
258.10	1796.07
258.32	1867.75
258.53	1843.17
258.75	1951.71
258.97	1796.07
259.18	1841.12
259.40	1863.65
259.62	1845.22
259.83	1898.47
260.05	1859.56
260.27	2131.94
260.48	1925.09
260.70	1812.45
260.92	1839.08
261.13	1779.68
261.35	1857.51
261.57	1855.46
261.78	1734.63
262.00	1816.55
262.22	1873.89
262.43	1751.01
262.65	1779.68
262.86	1839.08
263.08	1894.37
263.30	1777.64
263.51	1708.01
263.73	1726.44
263.95	1918.95
264.16	1753.06
264.38	1738.73
264.60	1814.50
264.81	1800.16
265.03	1826.79
265.25	1920.99
265.46	1687.53
265.68	1886.18
265.89	1834.98
266.11	1800.16
266.33	1855.46
266.54	1841.12
266.76	1806.31
266.98	1851.36
267.19	1894.37
267.41	1837.03
267.62	1877.99
267.84	1753.06
268.06	1777.64
268.27	1789.92
268.49	1914.85
268.70	1863.65
268.92	1789.92
269.14	1753.06
269.35	1665.00
269.57	1847.27
269.79	1880.04
270.00	1751.01
270.22	1925.09
270.43	1726.44
270.65	1646.57
270.87	1824.74
271.08	1820.64
271.30	1898.47
271.51	1783.78
271.73	1939.43
271.95	1869.80
272.16	1773.54
272.38	1834.98
272.59	1765.35
272.81	1787.88
273.02	1804.26
273.24	1867.75
273.46	1761.25
273.67	1814.50
273.89	1744.87
274.10	1714.15
274.32	1877.99
274.54	1779.68
274.75	1845.22
274.97	1755.11
275.18	1841.12
275.40	1875.94
275.61	1824.74
275.83	1894.37
276.05	1714.15
276.26	1843.17
276.48	1914.85
276.69	1837.03
276.91	1763.30
277.12	1871.84
277.34	1773.54
277.55	1873.89
277.77	1787.88
277.99	1718.25
278.20	1828.84
278.42	1742.82
278.63	1701.86
278.85	1744.87
279.06	1759.21
279.28	1867.75
279.49	1927.14
279.71	1888.23
279.93	1886.18
280.14	1855.46
280.36	1816.55
280.57	1894.37
280.79	1888.23
281.00	1839.08
281.22	1734.63
281.43	1857.51
281.65	1662.95
281.86	1732.58
282.08	1820.64
282.29	1961.95
282.51	1710.05
282.73	1794.02
282.94	1691.62
283.16	1855.46
283.37	1853.41
283.59	1814.50
283.80	1853.41
284.02	1826.79
284.23	1845.22
284.45	1748.97
284.66	1728.49
284.88	1861.60
285.09	1886.18
285.31	1867.75
285.52	1755.11
285.74	1648.61
285.95	1828.84
286.17	1751.01
286.38	1925.09
286.60	1861.60
286.81	1718.25
287.03	1769.44
287.24	1849.32
287.46	1861.60
287.67	1845.22
287.89	1951.71
288.10	1812.45
288.32	1820.64
288.53	1837.03
288.75	1816.55
288.96	1892.32
289.18	1808.36
289.39	1771.49
289.61	1851.36
289.82	2015.20
290.04	1966.05
290.25	1712.10
290.47	1767.40
290.68	1757.16
290.90	1900.52
291.11	1705.96
291.33	1773.54
291.54	1777.64
291.76	1810.40
291.97	1832.93
292.18	1777.64
292.40	1748.97
292.61	1767.40
292.83	1884.13
293.04	1892.32
293.26	1837.03
293.47	1812.45
293.69	1763.30
293.90	1787.88
294.12	1957.86
294.33	1746.92
294.55	1859.56
294.76	1935.33
294.97	1863.65
295.19	1851.36
295.40	1783.78
295.62	1796.07
295.83	1935.33
296.05	1748.97
296.26	1855.46
296.48	1814.50
296.69	1871.84
296.90	1816.55
297.12	1867.75
297.33	1839.08
297.55	1828.84
297.76	1834.98
297.98	1896.42
298.19	1877.99
298.41	1832.93
298.62	1759.21
298.83	1931.23
299.05	1767.40
299.26	1794.02
299.48	1796.07
299.69	1837.03
299.90	1761.25
300.12	1800.16
300.33	1832.93
300.55	1824.74
300.76	1916.90
300.98	1800.16
301.19	1761.25
301.40	1734.63
301.62	1755.11
301.83	1892.32
302.05	1839.08
302.26	1845.22
302.47	1808.36
302.69	1759.21
302.90	1779.68
303.12	1628.14
303.33	1777.64
303.54	1943.52
303.76	1699.81
303.97	1824.74
304.19	1896.42
304.40	1740.77
304.61	1920.99
304.83	1871.84
305.04	1865.70
305.26	1834.98
305.47	1845.22
305.68	1802.21
305.90	1740.77
306.11	1834.98
306.33	1771.49
306.54	1873.89
306.75	1732.58
306.97	1656.81
307.18	1814.50
307.39	1861.60
307.61	1863.65
307.82	1837.03
308.04	1822.69
308.25	1765.35
308.46	1800.16
308.68	1773.54
308.89	1779.68
309.10	1888.23
309.32	1863.65
309.53	1806.31
309.74	1869.80
309.96	1828.84
310.17	1787.88
310.39	1746.92
310.60	1828.84
310.81	1822.69
311.03	1730.53
311.24	1863.65
311.45	1818.60
311.67	1902.56
311.88	1910.75
312.09	1789.92
312.31	1810.40
312.52	1810.40
312.73	1773.54
312.95	1751.01
313.16	1837.03
313.37	1904.61
313.59	1822.69
313.80	1902.56
314.01	1880.04
314.23	1761.25
314.44	1718.25
314.65	1718.25
314.87	1787.88
315.08	1787.88
315.29	1837.03
315.51	1730.53
315.72	1787.88
315.93	1834.98
316.15	1853.41
316.36	1800.16
316.57	1804.26
316.79	1841.12
317.00	1787.88
317.21	1873.89
317.43	1773.54
317.64	1841.12
317.85	1759.21
318.07	1689.57
318.28	1902.56
318.49	1970.15
318.70	2117.60
318.92	2037.73
319.13	1953.76
319.34	2039.78
319.56	1976.29
319.77	1992.67
319.98	1974.24
320.20	1978.34
320.41	1857.51
320.62	1828.84
320.83	1763.30
321.05	1927.14
321.26	1906.66
321.47	1781.73
321.69	1871.84
321.90	1824.74
322.11	1779.68
322.32	1849.32
322.54	1832.93
322.75	1812.45
322.96	1984.48
323.18	1722.34
323.39	1722.34
323.60	1755.11
323.81	1916.90
324.03	1796.07
324.24	1847.27
324.45	1826.79
324.66	1853.41
324.88	1920.99
325.09	1888.23
325.30	1794.02
325.52	1894.37
325.73	1853.41
325.94	1794.02
326.15	1687.53
326.37	1845.22
326.58	1867.75
326.79	1951.71
327.00	1712.10
327.22	1830.88
327.43	1738.73
327.64	1724.39
327.85	1796.07
328.07	1830.88
328.28	1927.14
328.49	1765.35
328.70	1808.36
328.92	1728.49
329.13	1783.78
329.34	1849.32
329.55	1984.48
329.76	1896.42
329.98	1824.74
330.19	1955.81
330.40	1877.99
330.61	1841.12
330.83	1888.23
331.04	1763.30
331.25	1892.32
331.46	1791.97
331.68	1695.72
331.89	1888.23
332.10	1757.16
332.31	1748.97
332.52	1794.02
332.74	1937.38
332.95	1710.05
333.16	1769.44
333.37	1847.27
333.58	1726.44
333.80	1779.68
334.01	1673.19
334.22	1798.12
334.43	1716.20
334.64	1847.27
334.86	1765.35
335.07	1732.58
335.28	1931.23
335.49	1683.43
335.70	1853.41
335.92	1843.17
336.13	1959.91
336.34	1845.22
336.55	1875.94
336.76	1828.84
336.98	1761.25
337.19	1765.35
337.40	1927.14
337.61	1937.38
337.82	1755.11
338.04	1892.32
338.25	1724.39
338.46	1845.22
338.67	1834.98
338.88	1689.57
339.09	1701.86
339.31	1789.92
339.52	1738.73
339.73	1812.45
339.94	1847.27
340.15	1869.80
340.36	1779.68
340.58	1804.26
340.79	1681.38
341.00	1806.31
341.21	1691.62
341.42	1980.39
341.63	1824.74
341.85	1896.42
342.06	1902.56
342.27	1748.97
342.48	1894.37
342.69	1679.33
342.90	1773.54
343.12	1785.83
343.33	1787.88
343.54	1847.27
343.75	1892.32
343.96	1832.93
344.17	1867.75
344.38	1800.16
344.60	1787.88
344.81	1685.48
345.02	1832.93
345.23	1900.52
345.44	1920.99
345.65	1826.79
345.86	1877.99
346.07	1855.46
346.29	1869.80
346.50	1880.04
346.71	1820.64
346.92	1961.95
347.13	1968.10
347.34	1865.70
347.55	1761.25
347.76	1875.94
347.98	1755.11
348.19	1816.55
348.40	1818.60
348.61	1767.40
348.82	1830.88
349.03	1877.99
349.24	1742.82
349.45	1978.34
349.66	1705.96
349.88	1796.07
350.09	1765.35
350.30	1916.90
350.51	1859.56
350.72	1779.68
350.93	1800.16
351.14	1820.64
351.35	1875.94
351.56	1804.26
351.77	1812.45
351.99	1832.93
352.20	1943.52
352.41	1880.04
352.62	1712.10
352.83	1751.01
353.04	1853.41
353.25	1724.39
353.46	1933.28
353.67	1925.09
353.88	1695.72
354.09	1769.44
354.30	1882.08
354.52	1826.79
354.73	1791.97
354.94	1728.49
355.15	1777.64
355.36	1880.04
355.57	1769.44
355.78	1802.21
355.99	1746.92
356.20	1845.22
356.41	1871.84
356.62	1822.69
356.83	1824.74
357.04	1964.00
357.25	1722.34
357.46	1822.69
357.68	1736.68
357.89	1746.92
358.10	1839.08
358.31	1783.78
358.52	1761.25
358.73	1656.81
358.94	1724.39
359.15	1843.17
359.36	1863.65
359.57	1742.82
359.78	1857.51
359.99	1869.80
360.20	1738.73
360.41	1832.93
360.62	1859.56
360.83	1830.88
361.04	1853.41
361.25	1857.51
361.46	1964.00
361.67	1849.32
361.88	1873.89
362.09	1841.12
362.30	1832.93
362.51	1765.35
362.72	1843.17
362.93	1851.36
363.14	1837.03
363.35	1820.64
363.56	1789.92
363.78	1939.43
363.99	1841.12
364.20	1791.97
364.41	1824.74
364.62	1906.66
364.83	1896.42
365.04	1822.69
365.25	1816.55
365.46	1961.95
365.67	1787.88
365.88	1753.06
366.09	1837.03
366.30	1824.74
366.51	1861.60
366.72	1783.78
366.93	1798.12
367.14	1888.23
367.35	1847.27
367.56	1800.16
367.77	1865.70
367.98	1722.34
368.18	1847.27
368.39	1869.80
368.60	1736.68
368.81	1830.88
369.02	1802.21
369.23	1804.26
369.44	1765.35
369.65	1798.12
369.86	1880.04
370.07	1820.64
370.28	1769.44
370.49	1828.84
370.70	1847.27
370.91	1757.16
371.12	1689.57
371.33	1902.56
371.54	1845.22
371.75	1898.47
371.96	1722.34
372.17	1808.36
372.38	1787.88
372.59	1818.60
372.80	1765.35
373.01	1816.55
373.22	1798.12
373.43	1826.79
373.64	1759.21
373.85	1920.99
374.06	1931.23
374.26	1834.98
374.47	1896.42
374.68	1951.71
374.89	1849.32
375.10	1818.60
375.31	1863.65
375.52	1886.18
375.73	1742.82
375.94	1753.06
376.15	1855.46
376.36	1783.78
376.57	1808.36
376.78	1771.49
376.99	1824.74
377.20	1959.91
377.40	1841.12
377.61	1843.17
377.82	1771.49
378.03	1941.47
378.24	1873.89
378.45	1847.27
378.66	1794.02
378.87	1701.86
379.08	1740.77
379.29	1771.49
379.50	1853.41
379.71	1751.01
379.91	1869.80
380.12	1808.36
380.33	1794.02
380.54	1779.68
380.75	1789.92
380.96	1808.36
381.17	1902.56
381.38	1853.41
381.59	1806.31
381.80	1867.75
382.00	1937.38
382.21	1923.04
382.42	2011.11
382.63	2045.92
382.84	1902.56
383.05	1966.05
383.26	1931.23
383.47	1880.04
383.68	1783.78
383.88	1841.12
384.09	1779.68
384.30	1951.71
384.51	1888.23
384.72	1748.97
384.93	1751.01
385.14	1851.36
385.35	1869.80
385.55	1787.88
385.76	1849.32
385.97	1808.36
386.18	1748.97
386.39	1828.84
386.60	1759.21
386.81	1816.55
387.02	1806.31
387.22	1720.29
387.43	1931.23
387.64	1923.04
387.85	1925.09
388.06	2115.55
388.27	4200.38
388.48	8785.79
388.68	11933.51
388.89	13940.52
389.10	15005.47
389.31	13174.58
389.52	10332.00
389.73	9023.35
389.93	8343.42
390.14	7724.94
390.35	6915.99
390.56	6193.06
390.77	5205.94
390.98	3958.72
391.18	3049.43
391.39	2447.32
391.60	2025.44
391.81	1988.58
392.02	1910.75
392.23	2050.02
392.43	1867.75
392.64	1890.28
392.85	1828.84
393.06	1961.95
393.27	1751.01
393.47	1826.79
393.68	1888.23
393.89	1820.64
394.10	1877.99
394.31	1757.16
394.52	1826.79
394.72	1691.62
394.93	2019.30
395.14	1802.21
395.35	1920.99
395.56	1791.97
395.76	1812.45
395.97	1929.19
396.18	1929.19
396.39	2037.73
396.60	2199.52
396.80	2080.74
397.01	1998.82
397.22	1998.82
397.43	1988.58
397.64	1918.95
397.84	1966.05
398.05	2023.39
398.26	1822.69
398.47	1914.85
398.67	1849.32
398.88	1859.56
399.09	1890.28
399.30	1759.21
399.51	1808.36
399.71	1767.40
399.92	1816.55
400.13	1800.16
400.34	1722.34
400.54	1820.64
400.75	1941.47
400.96	1796.07
401.17	1859.56
401.37	1863.65
401.58	1736.68
401.79	1863.65
402.00	1894.37
402.21	2164.70
402.41	2197.47
402.62	2267.10
402.83	2318.30
403.04	2254.81
403.24	2285.53
403.45	2060.26
403.66	2121.70
403.87	2086.88
404.07	2029.54
404.28	2031.58
404.49	2007.01
404.70	1933.28
404.90	1877.99
405.11	1841.12
405.32	1855.46
405.52	1720.29
405.73	1843.17
405.94	1736.68
406.15	1812.45
406.35	1845.22
406.56	1787.88
406.77	1849.32
406.98	1808.36
407.18	1740.77
407.39	1908.71
407.60	1824.74
407.80	1839.08
408.01	1832.93
408.22	1800.16
408.43	1796.07
408.63	1849.32
408.84	1929.19
409.05	1898.47
409.25	1767.40
409.46	1796.07
409.67	1814.50
409.88	1705.96
410.08	1751.01
410.29	1748.97
410.50	1785.83
410.70	1816.55
410.91	1734.63
411.12	1783.78
411.32	1820.64
411.53	1812.45
411.74	1920.99
411.95	1871.84
412.15	1937.38
412.36	1886.18
412.57	1951.71
412.77	1978.34
412.98	1826.79
413.19	1918.95
413.39	1943.52
413.60	1839.08
413.81	1908.71
414.01	1802.21
414.22	1851.36
414.43	1855.46
414.63	1904.61
414.84	1902.56
415.05	1787.88
415.25	1673.19
415.46	1845.22
415.67	1761.25
415.87	1824.74
416.08	1843.17
416.29	1794.02
416.49	1886.18
416.70	1806.31
416.91	1853.41
417.11	1791.97
417.32	1877.99
417.53	1859.56
417.73	1806.31
417.94	1763.30
418.15	1847.27
418.35	1828.84
418.56	1837.03
418.77	2004.96
418.97	1796.07
419.18	1814.50
419.38	1759.21
419.59	1794.02
419.80	1865.70
420.00	1806.31
420.21	1916.90
420.42	1863.65
420.62	1861.60
420.83	1753.06
421.04	1814.50
421.24	1826.79
421.45	1892.32
421.65	1873.89
421.86	1767.40
422.07	1837.03
422.27	1841.12
422.48	1832.93
422.69	1718.25
422.89	1787.88
423.10	1822.69
423.30	1751.01
423.51	1804.26
423.72	1898.47
423.92	1867.75
424.13	1681.38
424.33	1779.68
424.54	1834.98
424.75	1855.46
424.95	1951.71
425.16	1863.65
425.36	1882.08
425.57	1898.47
425.78	1882.08
425.98	1841.12
426.19	1826.79
426.39	1765.35
426.60	1783.78
426.81	1998.82
427.01	1851.36
427.22	1751.01
427.42	1763.30
427.63	1781.73
427.83	1873.89
428.04	1925.09
428.25	1859.56
428.45	1955.81
428.66	1902.56
428.86	1851.36
429.07	1781.73
429.28	1875.94
429.48	1810.40
429.69	1828.84
429.89	1783.78
430.10	1753.06
430.30	1818.60
430.51	1902.56
430.71	1839.08
430.92	1814.50
431.13	1812.45
431.33	1837.03
431.54	1871.84
431.74	1937.38
431.95	1957.86
432.15	1845.22
432.36	1787.88
432.56	1802.21
432.77	1902.56
432.98	1982.43
433.18	1861.60
433.39	1800.16
433.59	1779.68
433.80	1925.09
434.00	1939.43
434.21	1855.46
434.41	1763.30
434.62	1970.15
434.82	1781.73
435.03	1785.83
435.23	1796.07
435.44	1748.97
435.64	1890.28
435.85	1812.45
436.06	1855.46
436.26	1857.51
436.47	1812.45
436.67	1849.32
436.88	1880.04
437.08	1925.09
437.29	1927.14
437.49	1882.08
437.70	1923.04
437.90	1816.55
438.11	1982.43
438.31	1830.88
438.52	2086.88
438.72	2050.02
438.93	2103.26
439.13	2021.35
439.34	1990.63
439.54	1845.22
439.75	1957.86
439.95	1857.51
440.16	1818.60
440.36	1843.17
440.57	1929.19
440.77	1869.80
440.98	1847.27
441.18	1863.65
441.39	1818.60
441.59	1832.93
441.80	1904.61
442.00	1822.69
442.21	1974.24
442.41	1828.84
442.62	1918.95
442.82	1771.49
443.02	1873.89
443.23	1853.41
443.43	1834.98
443.64	1869.80
443.84	1789.92
444.05	1968.10
444.25	1804.26
444.46	1855.46
444.66	1843.17
444.87	1966.05
445.07	1812.45
445.28	1824.74
445.48	1914.85
445.69	1843.17
445.89	1996.77
446.09	1904.61
446.30	1978.34
446.50	2523.10
446.71	4188.10
446.91	5306.29
447.12	6033.32
447.32	6223.78
447.53	5760.94
447.73	4693.94
447.93	4216.77
448.14	3854.28
448.34	3696.58
448.55	3305.42
448.75	3254.22
448.96	3053.52
449.16	2699.22
449.36	2521.05
449.57	2228.19
449.77	2095.07
449.98	2004.96
450.18	1910.75
450.39	1798.12
450.59	1906.66
450.79	1871.84
451.00	1857.51
451.20	1847.27
451.41	1871.84
451.61	1877.99
451.81	1775.59
452.02	1798.12
452.22	1877.99
452.43	1855.46
452.63	1787.88
