SpectraSuite Data File
++++++++++++++++++++++++++++++++++++
Date: Wed May 04 21:13:16 CEST 2016
User: root
Dark Spectrum Present: No
Reference Spectrum Present: No
Number of Sampled Component Spectra: 1
Spectrometers: USB4C02835
Integration Time (usec): 100000 (USB4C02835)
Spectra Averaged: 1 (USB4C02835)
Boxcar Smoothing: 0 (USB4C02835)
Correct for Electrical Dark: No (USB4C02835)
Strobe/Lamp Enabled: No (USB4C02835)
Correct for Detector Non-linearity: No (USB4C02835)
Correct for Stray Light: No (USB4C02835)
Number of Pixels in Processed Spectrum: 3648
>>>>>Begin Processed Spectral Data<<<<<
177.47	1484.78
177.69	1484.78
177.91	1484.78
178.13	1589.22
178.36	1519.59
178.58	1701.86
178.80	1902.56
179.02	1716.20
179.24	1771.49
179.46	1837.03
179.68	1867.75
179.90	1830.88
180.13	1783.78
180.35	1710.05
180.57	1783.78
180.79	1820.64
181.01	1753.06
181.23	1910.75
181.45	1812.45
181.67	1822.69
181.90	1851.36
182.12	1775.59
182.34	1710.05
182.56	1855.46
182.78	1902.56
183.00	1787.88
183.22	1839.08
183.44	1683.43
183.66	2011.11
183.89	1894.37
184.11	1810.40
184.33	1769.44
184.55	1882.08
184.77	1824.74
184.99	1865.70
185.21	1763.30
185.43	1955.81
185.65	1779.68
185.87	1812.45
186.10	1947.62
186.32	1914.85
186.54	1791.97
186.76	1812.45
186.98	1830.88
187.20	1869.80
187.42	1859.56
187.64	1867.75
187.86	1828.84
188.08	1918.95
188.30	1724.39
188.52	1794.02
188.75	1912.80
188.97	1871.84
189.19	1818.60
189.41	1767.40
189.63	1877.99
189.85	1769.44
190.07	1746.92
190.29	1607.66
190.51	1865.70
190.73	1673.19
190.95	1916.90
191.17	1798.12
191.39	1812.45
191.61	1789.92
191.84	1791.97
192.06	1837.03
192.28	1667.05
192.50	2031.58
192.72	1820.64
192.94	1822.69
193.16	1830.88
193.38	1818.60
193.60	1732.58
193.82	1746.92
194.04	1869.80
194.26	1816.55
194.48	1845.22
194.70	1832.93
194.92	1763.30
195.14	1814.50
195.36	1785.83
195.58	1810.40
195.80	1816.55
196.02	1708.01
196.24	1820.64
196.46	1859.56
196.69	1755.11
196.91	1957.86
197.13	1814.50
197.35	1755.11
197.57	1925.09
197.79	1853.41
198.01	1775.59
198.23	1849.32
198.45	1857.51
198.67	1748.97
198.89	1828.84
199.11	1923.04
199.33	1775.59
199.55	1685.48
199.77	1820.64
199.99	1871.84
200.21	1832.93
200.43	1863.65
200.65	1767.40
200.87	1701.86
201.09	1775.59
201.31	1751.01
201.53	1814.50
201.75	1812.45
201.97	1779.68
202.19	1834.98
202.41	1808.36
202.63	1837.03
202.85	1826.79
203.07	1937.38
203.29	1847.27
203.51	1740.77
203.73	1765.35
203.95	2019.30
204.17	1808.36
204.39	1824.74
204.61	1798.12
204.83	1808.36
205.05	1880.04
205.27	1914.85
205.49	2025.44
205.71	1791.97
205.93	1683.43
206.15	1757.16
206.37	1832.93
206.59	1800.16
206.81	1687.53
207.03	1765.35
207.25	1789.92
207.47	1804.26
207.69	1832.93
207.91	1882.08
208.13	1904.61
208.34	1779.68
208.56	1789.92
208.78	1857.51
209.00	1791.97
209.22	1828.84
209.44	1771.49
209.66	1798.12
209.88	1738.73
210.10	1767.40
210.32	1812.45
210.54	1892.32
210.76	1830.88
210.98	1886.18
211.20	1646.57
211.42	1824.74
211.64	1912.80
211.86	1849.32
212.08	1884.13
212.30	1808.36
212.52	1826.79
212.74	1779.68
212.96	1794.02
213.17	1794.02
213.39	1828.84
213.61	1873.89
213.83	1757.16
214.05	1845.22
214.27	1841.12
214.49	1783.78
214.71	1736.68
214.93	1972.19
215.15	1830.88
215.37	1904.61
215.59	1734.63
215.81	1826.79
216.03	1959.91
216.24	1837.03
216.46	1771.49
216.68	1824.74
216.90	1796.07
217.12	1855.46
217.34	1826.79
217.56	1812.45
217.78	1884.13
218.00	1818.60
218.22	1818.60
218.44	1855.46
218.66	1802.21
218.87	1933.28
219.09	1794.02
219.31	1828.84
219.53	1834.98
219.75	1796.07
219.97	1740.77
220.19	1828.84
220.41	1871.84
220.63	1906.66
220.85	1867.75
221.06	1857.51
221.28	1863.65
221.50	1888.23
221.72	1857.51
221.94	1818.60
222.16	1814.50
222.38	1855.46
222.60	1814.50
222.82	1718.25
223.03	1910.75
223.25	1781.73
223.47	1824.74
223.69	1939.43
223.91	1912.80
224.13	1812.45
224.35	1787.88
224.57	1898.47
224.78	1847.27
225.00	1765.35
225.22	1791.97
225.44	1777.64
225.66	1808.36
225.88	1804.26
226.10	1935.33
226.32	1802.21
226.53	1882.08
226.75	1763.30
226.97	1865.70
227.19	1787.88
227.41	1791.97
227.63	1757.16
227.85	1712.10
228.06	1759.21
228.28	1810.40
228.50	1845.22
228.72	1771.49
228.94	1804.26
229.16	1660.90
229.37	1708.01
229.59	1802.21
229.81	1902.56
230.03	1808.36
230.25	1720.29
230.47	1759.21
230.69	1742.82
230.90	1900.52
231.12	1800.16
231.34	1779.68
231.56	1863.65
231.78	1824.74
232.00	1841.12
232.21	1832.93
232.43	1763.30
232.65	1669.09
232.87	1849.32
233.09	1753.06
233.30	1810.40
233.52	1820.64
233.74	1732.58
233.96	1832.93
234.18	1783.78
234.40	1794.02
234.61	1904.61
234.83	1705.96
235.05	1634.28
235.27	1992.67
235.49	1869.80
235.70	1765.35
235.92	1841.12
236.14	1859.56
236.36	2035.68
236.58	1742.82
236.79	1861.60
237.01	1808.36
237.23	1824.74
237.45	1894.37
237.67	1746.92
237.88	1865.70
238.10	1886.18
238.32	1796.07
238.54	1775.59
238.76	1736.68
238.97	1746.92
239.19	1779.68
239.41	1812.45
239.63	1847.27
239.85	1785.83
240.06	1798.12
240.28	1765.35
240.50	1896.42
240.72	1886.18
240.93	1757.16
241.15	1863.65
241.37	1882.08
241.59	1880.04
241.81	1794.02
242.02	1767.40
242.24	1898.47
242.46	1808.36
242.68	1742.82
242.89	1871.84
243.11	1845.22
243.33	1791.97
243.55	1820.64
243.76	1814.50
243.98	1748.97
244.20	1783.78
244.42	1800.16
244.64	1828.84
244.85	1738.73
245.07	1773.54
245.29	1920.99
245.51	1687.53
245.72	1822.69
245.94	1898.47
246.16	1865.70
246.38	1773.54
246.59	1812.45
246.81	1738.73
247.03	1804.26
247.24	1705.96
247.46	1759.21
247.68	1755.11
247.90	1724.39
248.11	1785.83
248.33	1923.04
248.55	1796.07
248.77	1794.02
248.98	1785.83
249.20	1882.08
249.42	1871.84
249.64	1824.74
249.85	1804.26
250.07	1777.64
250.29	1920.99
250.50	1802.21
250.72	1773.54
250.94	1802.21
251.16	1918.95
251.37	1843.17
251.59	1824.74
251.81	1814.50
252.02	1869.80
252.24	1849.32
252.46	1871.84
252.68	1818.60
252.89	1804.26
253.11	1755.11
253.33	1863.65
253.54	1816.55
253.76	1796.07
253.98	1816.55
254.20	1820.64
254.41	1736.68
254.63	1779.68
254.85	1804.26
255.06	1843.17
255.28	1828.84
255.50	1806.31
255.71	1763.30
255.93	1789.92
256.15	1789.92
256.36	1916.90
256.58	1748.97
256.80	1787.88
257.02	1785.83
257.23	1759.21
257.45	1761.25
257.67	1855.46
257.88	1785.83
258.10	1873.89
258.32	1738.73
258.53	1865.70
258.75	1816.55
258.97	1746.92
259.18	1824.74
259.40	1806.31
259.62	1892.32
259.83	1867.75
260.05	1816.55
260.27	2056.16
260.48	1865.70
260.70	1683.43
260.92	1796.07
261.13	1869.80
261.35	1861.60
261.57	1843.17
261.78	1699.81
262.00	1789.92
262.22	1884.13
262.43	1726.44
262.65	1787.88
262.86	1804.26
263.08	1953.76
263.30	1910.75
263.51	1685.48
263.73	1783.78
263.95	1882.08
264.16	1798.12
264.38	1775.59
264.60	1806.31
264.81	1775.59
265.03	1884.13
265.25	1828.84
265.46	1798.12
265.68	1953.76
265.89	1855.46
266.11	1691.62
266.33	1820.64
266.54	1865.70
266.76	1851.36
266.98	1849.32
267.19	1927.14
267.41	1832.93
267.62	1861.60
267.84	1687.53
268.06	1814.50
268.27	1791.97
268.49	1890.28
268.70	1820.64
268.92	1791.97
269.14	1755.11
269.35	1720.29
269.57	1751.01
269.79	1822.69
270.00	1769.44
270.22	1902.56
270.43	1703.91
270.65	1746.92
270.87	1800.16
271.08	1861.60
271.30	1794.02
271.51	1804.26
271.73	1832.93
271.95	1884.13
272.16	1841.12
272.38	1748.97
272.59	1794.02
272.81	1773.54
273.02	1845.22
273.24	1785.83
273.46	1888.23
273.67	1779.68
273.89	1718.25
274.10	1714.15
274.32	1853.41
274.54	1748.97
274.75	1853.41
274.97	1710.05
275.18	1820.64
275.40	1828.84
275.61	1867.75
275.83	1816.55
276.05	1685.48
276.26	1736.68
276.48	1822.69
276.69	1755.11
276.91	1789.92
277.12	1871.84
277.34	1834.98
277.55	1869.80
277.77	1804.26
277.99	1810.40
278.20	1732.58
278.42	1714.15
278.63	1755.11
278.85	1779.68
279.06	1761.25
279.28	1869.80
279.49	1826.79
279.71	1794.02
279.93	1849.32
280.14	1775.59
280.36	1794.02
280.57	1826.79
280.79	1906.66
281.00	1818.60
281.22	1806.31
281.43	1894.37
281.65	1632.23
281.86	1730.53
282.08	1828.84
282.29	1865.70
282.51	1751.01
282.73	1802.21
282.94	1798.12
283.16	1859.56
283.37	1861.60
283.59	1787.88
283.80	1873.89
284.02	1736.68
284.23	1859.56
284.45	1794.02
284.66	1859.56
284.88	1785.83
285.09	1828.84
285.31	1927.14
285.52	1882.08
285.74	1640.42
285.95	1724.39
286.17	1800.16
286.38	1949.67
286.60	1779.68
286.81	1734.63
287.03	1789.92
287.24	1832.93
287.46	1791.97
287.67	1828.84
287.89	1996.77
288.10	1810.40
288.32	1832.93
288.53	1910.75
288.75	1804.26
288.96	1834.98
289.18	1746.92
289.39	1794.02
289.61	1800.16
289.82	1902.56
290.04	1966.05
290.25	1759.21
290.47	1814.50
290.68	1794.02
290.90	1908.71
291.11	1773.54
291.33	1837.03
291.54	1773.54
291.76	1746.92
291.97	1812.45
292.18	1914.85
292.40	1769.44
292.61	1755.11
292.83	1865.70
293.04	1826.79
293.26	1816.55
293.47	1822.69
293.69	1744.87
293.90	1779.68
294.12	1927.14
294.33	1796.07
294.55	1783.78
294.76	1898.47
294.97	1886.18
295.19	1937.38
295.40	1785.83
295.62	1794.02
295.83	1910.75
296.05	1837.03
296.26	1818.60
296.48	1779.68
296.69	1777.64
296.90	1775.59
297.12	1914.85
297.33	1935.33
297.55	1757.16
297.76	1869.80
297.98	1902.56
298.19	1853.41
298.41	1828.84
298.62	1796.07
298.83	1884.13
299.05	1867.75
299.26	1755.11
299.48	1806.31
299.69	1746.92
299.90	1834.98
300.12	1728.49
300.33	1806.31
300.55	1781.73
300.76	1877.99
300.98	1783.78
301.19	1873.89
301.40	1804.26
301.62	1771.49
301.83	1855.46
302.05	1896.42
302.26	1794.02
302.47	1822.69
302.69	1728.49
302.90	1853.41
303.12	1650.66
303.33	1935.33
303.54	1943.52
303.76	1779.68
303.97	1808.36
304.19	1957.86
304.40	1802.21
304.61	1810.40
304.83	1959.91
305.04	1875.94
305.26	1789.92
305.47	1781.73
305.68	1785.83
305.90	1798.12
306.11	1865.70
306.33	1779.68
306.54	1775.59
306.75	1742.82
306.97	1695.72
307.18	1714.15
307.39	1871.84
307.61	1847.27
307.82	1832.93
308.04	1837.03
308.25	1734.63
308.46	1837.03
308.68	1804.26
308.89	1927.14
309.10	1890.28
309.32	1785.83
309.53	1779.68
309.74	1859.56
309.96	1847.27
310.17	1869.80
310.39	1794.02
310.60	1808.36
310.81	1830.88
311.03	1763.30
311.24	1818.60
311.45	1890.28
311.67	1906.66
311.88	1783.78
312.09	1785.83
312.31	1751.01
312.52	1769.44
312.73	1722.34
312.95	1728.49
313.16	1849.32
313.37	1851.36
313.59	1777.64
313.80	1933.28
314.01	1886.18
314.23	1787.88
314.44	1779.68
314.65	1716.20
314.87	1728.49
315.08	1849.32
315.29	1730.53
315.51	1732.58
315.72	1710.05
315.93	1939.43
316.15	1863.65
316.36	1751.01
316.57	1708.01
316.79	1787.88
317.00	1763.30
317.21	1791.97
317.43	1771.49
317.64	1875.94
317.85	1773.54
318.07	1781.73
318.28	1847.27
318.49	1978.34
318.70	2123.74
318.92	1982.43
319.13	1992.67
319.34	2027.49
319.56	1875.94
319.77	1918.95
319.98	1935.33
320.20	1929.19
320.41	1935.33
320.62	1837.03
320.83	1837.03
321.05	1943.52
321.26	1900.52
321.47	1816.55
321.69	1931.23
321.90	1740.77
322.11	1777.64
322.32	1828.84
322.54	1871.84
322.75	1816.55
322.96	1992.67
323.18	1665.00
323.39	1640.42
323.60	1775.59
323.81	1918.95
324.03	1771.49
324.24	1828.84
324.45	1781.73
324.66	1720.29
324.88	1824.74
325.09	1902.56
325.30	1863.65
325.52	1843.17
325.73	1914.85
325.94	1732.58
326.15	1685.48
326.37	1828.84
326.58	1888.23
326.79	1935.33
327.00	1757.16
327.22	1841.12
327.43	1814.50
327.64	1650.66
327.85	1851.36
328.07	1861.60
328.28	1869.80
328.49	1751.01
328.70	1886.18
328.92	1734.63
329.13	1751.01
329.34	1851.36
329.55	1918.95
329.76	1853.41
329.98	1763.30
330.19	1800.16
330.40	1843.17
330.61	1783.78
330.83	1832.93
331.04	1722.34
331.25	1857.51
331.46	1740.77
331.68	1732.58
331.89	1834.98
332.10	1800.16
332.31	1671.14
332.52	1816.55
332.74	1898.47
332.95	1714.15
333.16	1804.26
333.37	1859.56
333.58	1771.49
333.80	1824.74
334.01	1724.39
334.22	1806.31
334.43	1787.88
334.64	1765.35
334.86	1742.82
335.07	1771.49
335.28	1839.08
335.49	1724.39
335.70	1804.26
335.92	1929.19
336.13	1959.91
336.34	1943.52
336.55	1822.69
336.76	1863.65
336.98	1732.58
337.19	1931.23
337.40	1863.65
337.61	1982.43
337.82	1855.46
338.04	1941.47
338.25	1652.71
338.46	1902.56
338.67	1695.72
338.88	1757.16
339.09	1746.92
339.31	1736.68
339.52	1736.68
339.73	1789.92
339.94	1814.50
340.15	1849.32
340.36	1800.16
340.58	1822.69
340.79	1791.97
341.00	1847.27
341.21	1783.78
341.42	1845.22
341.63	1804.26
341.85	1890.28
342.06	1814.50
342.27	1755.11
342.48	1832.93
342.69	1689.57
342.90	1843.17
343.12	1779.68
343.33	1771.49
343.54	1910.75
343.75	1986.53
343.96	1822.69
344.17	1763.30
344.38	1886.18
344.60	1777.64
344.81	1759.21
345.02	1830.88
345.23	1892.32
345.44	2004.96
345.65	1849.32
345.86	1830.88
346.07	1791.97
346.29	1785.83
346.50	1853.41
346.71	1918.95
346.92	1947.62
347.13	1867.75
347.34	1748.97
347.55	1773.54
347.76	1757.16
347.98	1724.39
348.19	1787.88
348.40	1908.71
348.61	1746.92
348.82	1902.56
349.03	1769.44
349.24	1783.78
349.45	1918.95
349.66	1691.62
349.88	1773.54
350.09	1804.26
350.30	1855.46
350.51	1902.56
350.72	1804.26
350.93	1769.44
351.14	1748.97
351.35	1847.27
351.56	1806.31
351.77	1742.82
351.99	1880.04
352.20	1902.56
352.41	1875.94
352.62	1697.77
352.83	1851.36
353.04	1855.46
353.25	1810.40
353.46	1847.27
353.67	1886.18
353.88	1685.48
354.09	1808.36
354.30	1935.33
354.52	1822.69
354.73	1826.79
354.94	1753.06
355.15	1853.41
355.36	1916.90
355.57	1757.16
355.78	1837.03
355.99	1738.73
356.20	1794.02
356.41	1865.70
356.62	1753.06
356.83	1826.79
357.04	1896.42
357.25	1669.09
357.46	1794.02
357.68	1736.68
357.89	1763.30
358.10	1828.84
358.31	1791.97
358.52	1742.82
358.73	1755.11
358.94	1771.49
359.15	1804.26
359.36	1826.79
359.57	1812.45
359.78	1800.16
359.99	1759.21
360.20	1716.20
360.41	1845.22
360.62	1837.03
360.83	1875.94
361.04	1841.12
361.25	1818.60
361.46	1900.52
361.67	1837.03
361.88	1871.84
362.09	1828.84
362.30	1869.80
362.51	1734.63
362.72	1822.69
362.93	1814.50
363.14	1886.18
363.35	1826.79
363.56	1730.53
363.78	1908.71
363.99	1880.04
364.20	1789.92
364.41	1804.26
364.62	1939.43
364.83	1818.60
365.04	1818.60
365.25	1818.60
365.46	1964.00
365.67	1673.19
365.88	1843.17
366.09	1783.78
366.30	1767.40
366.51	1775.59
366.72	1724.39
366.93	1759.21
367.14	1855.46
367.35	1931.23
367.56	1818.60
367.77	1865.70
367.98	1777.64
368.18	1791.97
368.39	1884.13
368.60	1783.78
368.81	1804.26
369.02	1867.75
369.23	1834.98
369.44	1703.91
369.65	1828.84
369.86	1816.55
370.07	1877.99
370.28	1796.07
370.49	1884.13
370.70	1933.28
370.91	1779.68
371.12	1763.30
371.33	1890.28
371.54	1724.39
371.75	1968.10
371.96	1718.25
372.17	1826.79
372.38	1841.12
372.59	1839.08
372.80	1746.92
373.01	1898.47
373.22	1828.84
373.43	1742.82
373.64	1712.10
373.85	1884.13
374.06	1923.04
374.26	1857.51
374.47	1794.02
374.68	1984.48
374.89	1796.07
375.10	1761.25
375.31	1875.94
375.52	1873.89
375.73	1837.03
375.94	1781.73
376.15	1939.43
376.36	1791.97
376.57	1775.59
376.78	1814.50
376.99	1818.60
377.20	1871.84
377.40	1703.91
377.61	1935.33
377.82	1773.54
378.03	1925.09
378.24	1857.51
378.45	1769.44
378.66	1812.45
378.87	1802.21
379.08	1703.91
379.29	1781.73
379.50	1834.98
379.71	1834.98
379.91	1847.27
380.12	1798.12
380.33	1822.69
380.54	1849.32
380.75	1884.13
380.96	1910.75
381.17	1923.04
381.38	1820.64
381.59	1814.50
381.80	1857.51
382.00	1953.76
382.21	1916.90
382.42	1988.58
382.63	2000.87
382.84	1898.47
383.05	1925.09
383.26	1882.08
383.47	1816.55
383.68	1849.32
383.88	1859.56
384.09	1869.80
384.30	1957.86
384.51	1863.65
384.72	1828.84
384.93	1716.20
385.14	1798.12
385.35	1910.75
385.55	1769.44
385.76	1943.52
385.97	1849.32
386.18	1771.49
386.39	1832.93
386.60	1843.17
386.81	1804.26
387.02	1851.36
387.22	1787.88
387.43	1882.08
387.64	1908.71
387.85	2000.87
388.06	2248.67
388.27	4270.01
388.48	8992.63
388.68	11951.95
388.89	13989.67
389.10	15050.52
389.31	13190.97
389.52	10436.45
389.73	9267.06
389.93	8517.50
390.14	7698.31
390.35	6920.09
390.56	6205.35
390.77	5109.68
390.98	4181.95
391.18	3092.43
391.39	2392.03
391.60	2060.26
391.81	1923.04
392.02	1820.64
392.23	1984.48
392.43	1896.42
392.64	1961.95
392.85	1906.66
393.06	1875.94
393.27	1857.51
393.47	1761.25
393.68	1843.17
393.89	1794.02
394.10	1871.84
394.31	1716.20
394.52	1705.96
394.72	1738.73
394.93	1880.04
395.14	1759.21
395.35	1961.95
395.56	1785.83
395.76	1814.50
395.97	1929.19
396.18	2043.87
396.39	2002.91
396.60	2213.85
396.80	2088.93
397.01	2058.21
397.22	1953.76
397.43	2002.91
397.64	1953.76
397.84	1970.15
398.05	1976.29
398.26	1830.88
398.47	1916.90
398.67	1859.56
398.88	1814.50
399.09	1886.18
399.30	1755.11
399.51	1902.56
399.71	1763.30
399.92	1810.40
400.13	1894.37
400.34	1748.97
400.54	1832.93
400.75	1966.05
400.96	1804.26
401.17	1918.95
401.37	1857.51
401.58	1880.04
401.79	1806.31
402.00	1906.66
402.21	2254.81
402.41	2066.40
402.62	2193.37
402.83	2353.12
403.04	2217.95
403.24	2318.30
403.45	2035.68
403.66	2117.60
403.87	2033.63
404.07	2119.65
404.28	2027.49
404.49	2086.88
404.70	1945.57
404.90	1873.89
405.11	1964.00
405.32	1888.23
405.52	1804.26
405.73	1738.73
405.94	1789.92
406.15	1857.51
406.35	1814.50
406.56	1841.12
406.77	1886.18
406.98	1865.70
407.18	1722.34
407.39	1937.38
407.60	1814.50
407.80	1834.98
408.01	1761.25
408.22	1820.64
408.43	1736.68
408.63	1902.56
408.84	1804.26
409.05	1759.21
409.25	1791.97
409.46	1761.25
409.67	1777.64
409.88	1789.92
410.08	1853.41
410.29	1830.88
410.50	1830.88
410.70	1863.65
410.91	1820.64
411.12	1912.80
411.32	1763.30
411.53	1810.40
411.74	1984.48
411.95	1968.10
412.15	1896.42
412.36	1968.10
412.57	1898.47
412.77	1974.24
412.98	1826.79
413.19	1800.16
413.39	1900.52
413.60	1900.52
413.81	1935.33
414.01	1716.20
414.22	1843.17
414.43	1898.47
414.63	1875.94
414.84	1920.99
415.05	1849.32
415.25	1671.14
415.46	1869.80
415.67	1732.58
415.87	1890.28
416.08	1853.41
416.29	1830.88
416.49	1871.84
416.70	1812.45
416.91	1794.02
417.11	1837.03
417.32	1896.42
417.53	1886.18
417.73	1834.98
417.94	1730.53
418.15	1857.51
418.35	1880.04
418.56	1738.73
418.77	2019.30
418.97	1751.01
419.18	1806.31
419.38	1658.85
419.59	1785.83
419.80	1869.80
420.00	1771.49
420.21	1849.32
420.42	1916.90
420.62	1804.26
420.83	1712.10
421.04	1847.27
421.24	1783.78
421.45	1918.95
421.65	1822.69
421.86	1802.21
422.07	1859.56
422.27	1859.56
422.48	1890.28
422.69	1759.21
422.89	1755.11
423.10	1671.14
423.30	1748.97
423.51	1837.03
423.72	1830.88
423.92	1941.47
424.13	1759.21
424.33	1851.36
424.54	1843.17
424.75	1847.27
424.95	1910.75
425.16	1859.56
425.36	1818.60
425.57	1841.12
425.78	1865.70
425.98	1933.28
426.19	1767.40
426.39	1791.97
426.60	1830.88
426.81	1865.70
427.01	1843.17
427.22	1699.81
427.42	1710.05
427.63	1855.46
427.83	1910.75
428.04	1914.85
428.25	1832.93
428.45	1830.88
428.66	1826.79
428.86	1798.12
429.07	1871.84
429.28	1794.02
429.48	1828.84
429.69	1753.06
429.89	1804.26
430.10	1767.40
430.30	1863.65
430.51	1857.51
430.71	1804.26
430.92	1820.64
431.13	1822.69
431.33	1826.79
431.54	1787.88
431.74	1988.58
431.95	1918.95
432.15	1775.59
432.36	1834.98
432.56	1923.04
432.77	1964.00
432.98	1925.09
433.18	1796.07
433.39	1804.26
433.59	1857.51
433.80	1951.71
434.00	1976.29
434.21	1808.36
434.41	1826.79
434.62	1959.91
434.82	1777.64
435.03	1740.77
435.23	1904.61
435.44	1701.86
435.64	1861.60
435.85	1875.94
436.06	1863.65
436.26	1904.61
436.47	1834.98
436.67	1798.12
436.88	1834.98
437.08	1853.41
437.29	1892.32
437.49	1769.44
437.70	1865.70
437.90	1877.99
438.11	1906.66
438.31	1867.75
438.52	2066.40
438.72	2052.06
438.93	2154.46
439.13	1951.71
439.34	2007.01
439.54	1912.80
439.75	1947.62
439.95	1953.76
440.16	1730.53
440.36	1824.74
440.57	1908.71
440.77	1832.93
440.98	1896.42
441.18	1869.80
441.39	1785.83
441.59	1728.49
441.80	2056.16
442.00	1849.32
442.21	1941.47
442.41	1759.21
442.62	1861.60
442.82	1800.16
443.02	1828.84
443.23	1851.36
443.43	1871.84
443.64	1933.28
443.84	1834.98
444.05	1894.37
444.25	1859.56
444.46	1802.21
444.66	1779.68
444.87	1961.95
445.07	1742.82
445.28	1880.04
445.48	1988.58
445.69	1898.47
445.89	1994.72
446.09	1808.36
446.30	2062.30
446.50	2609.11
446.71	4216.77
446.91	5347.25
447.12	5988.26
447.32	6264.74
447.53	5683.11
447.73	4736.95
447.93	4231.10
448.14	3864.52
448.34	3688.39
448.55	3176.40
448.75	3254.22
448.96	3117.01
449.16	2648.02
449.36	2551.77
449.57	2215.90
449.77	2045.92
449.98	1904.61
450.18	1959.91
450.39	1880.04
450.59	1834.98
450.79	1818.60
451.00	1851.36
451.20	1847.27
451.41	1806.31
451.61	1808.36
451.81	1902.56
452.02	1849.32
452.22	1765.35
452.43	1816.55
452.63	1822.69
