SpectraSuite Data File
++++++++++++++++++++++++++++++++++++
Date: Wed May 04 21:13:41 CEST 2016
User: root
Dark Spectrum Present: No
Reference Spectrum Present: No
Number of Sampled Component Spectra: 1
Spectrometers: USB4C02835
Integration Time (usec): 100000 (USB4C02835)
Spectra Averaged: 1 (USB4C02835)
Boxcar Smoothing: 0 (USB4C02835)
Correct for Electrical Dark: No (USB4C02835)
Strobe/Lamp Enabled: No (USB4C02835)
Correct for Detector Non-linearity: No (USB4C02835)
Correct for Stray Light: No (USB4C02835)
Number of Pixels in Processed Spectrum: 3648
>>>>>Begin Processed Spectral Data<<<<<
177.47	1540.07
177.69	1540.07
177.91	1540.07
178.13	1611.75
178.36	1529.83
178.58	1765.35
178.80	1822.69
179.02	1816.55
179.24	1726.44
179.46	1798.12
179.68	1841.12
179.90	1759.21
180.13	1830.88
180.35	1722.34
180.57	1834.98
180.79	1910.75
181.01	1837.03
181.23	1816.55
181.45	1853.41
181.67	1867.75
181.90	1822.69
182.12	1740.77
182.34	1716.20
182.56	1877.99
182.78	1834.98
183.00	1849.32
183.22	1869.80
183.44	1699.81
183.66	1972.19
183.89	1918.95
184.11	1791.97
184.33	1748.97
184.55	1855.46
184.77	1767.40
184.99	1824.74
185.21	1734.63
185.43	1925.09
185.65	1767.40
185.87	1789.92
186.10	1898.47
186.32	1896.42
186.54	1800.16
186.76	1910.75
186.98	1892.32
187.20	1837.03
187.42	1775.59
187.64	1783.78
187.86	1890.28
188.08	1892.32
188.30	1802.21
188.52	1826.79
188.75	1957.86
188.97	1941.47
189.19	1804.26
189.41	1765.35
189.63	1863.65
189.85	1802.21
190.07	1716.20
190.29	1746.92
190.51	1884.13
190.73	1746.92
190.95	1933.28
191.17	1816.55
191.39	1679.33
191.61	1751.01
191.84	1791.97
192.06	1857.51
192.28	1693.67
192.50	2037.73
192.72	1910.75
192.94	1826.79
193.16	1880.04
193.38	1875.94
193.60	1759.21
193.82	1847.27
194.04	1800.16
194.26	1812.45
194.48	1812.45
194.70	1814.50
194.92	1857.51
195.14	1863.65
195.36	1755.11
195.58	1787.88
195.80	1718.25
196.02	1724.39
196.24	1759.21
196.46	1791.97
196.69	1804.26
196.91	1986.53
197.13	1757.16
197.35	1755.11
197.57	1937.38
197.79	1804.26
198.01	1794.02
198.23	1832.93
198.45	1814.50
198.67	1777.64
198.89	1736.68
199.11	1783.78
199.33	1753.06
199.55	1683.43
199.77	1757.16
199.99	1877.99
200.21	1820.64
200.43	1787.88
200.65	1714.15
200.87	1681.38
201.09	1789.92
201.31	1738.73
201.53	1865.70
201.75	1853.41
201.97	1798.12
202.19	1875.94
202.41	1820.64
202.63	1951.71
202.85	1859.56
203.07	1746.92
203.29	1810.40
203.51	1710.05
203.73	1771.49
203.95	1970.15
204.17	1841.12
204.39	1804.26
204.61	1816.55
204.83	1751.01
205.05	1873.89
205.27	1843.17
205.49	1949.67
205.71	1761.25
205.93	1708.01
206.15	1783.78
206.37	1857.51
206.59	1800.16
206.81	1701.86
207.03	1755.11
207.25	1767.40
207.47	1873.89
207.69	1767.40
207.91	1904.61
208.13	1931.23
208.34	1847.27
208.56	1763.30
208.78	1820.64
209.00	1769.44
209.22	1773.54
209.44	1820.64
209.66	1796.07
209.88	1791.97
210.10	1738.73
210.32	1822.69
210.54	1902.56
210.76	1824.74
210.98	1904.61
211.20	1693.67
211.42	1757.16
211.64	1931.23
211.86	1857.51
212.08	1820.64
212.30	1847.27
212.52	1783.78
212.74	1841.12
212.96	1822.69
213.17	1839.08
213.39	1812.45
213.61	1949.67
213.83	1771.49
214.05	1796.07
214.27	1935.33
214.49	1771.49
214.71	1722.34
214.93	1908.71
215.15	1843.17
215.37	1929.19
215.59	1703.91
215.81	1798.12
216.03	1875.94
216.24	1773.54
216.46	1837.03
216.68	1798.12
216.90	1865.70
217.12	1828.84
217.34	1802.21
217.56	1806.31
217.78	1947.62
218.00	1818.60
218.22	1767.40
218.44	1890.28
218.66	1808.36
218.87	1875.94
219.09	1798.12
219.31	1791.97
219.53	1832.93
219.75	1789.92
219.97	1859.56
220.19	1785.83
220.41	1857.51
220.63	1931.23
220.85	1898.47
221.06	1726.44
221.28	1822.69
221.50	1812.45
221.72	1802.21
221.94	1804.26
222.16	1859.56
222.38	1918.95
222.60	1804.26
222.82	1816.55
223.03	1855.46
223.25	1763.30
223.47	1875.94
223.69	1939.43
223.91	1830.88
224.13	1781.73
224.35	1722.34
224.57	1865.70
224.78	1822.69
225.00	1777.64
225.22	1818.60
225.44	1849.32
225.66	1820.64
225.88	1816.55
226.10	1828.84
226.32	1906.66
226.53	1855.46
226.75	1751.01
226.97	1818.60
227.19	1724.39
227.41	1796.07
227.63	1832.93
227.85	1746.92
228.06	1726.44
228.28	1830.88
228.50	1781.73
228.72	1765.35
228.94	1781.73
229.16	1781.73
229.37	1779.68
229.59	1814.50
229.81	1830.88
230.03	1769.44
230.25	1658.85
230.47	1781.73
230.69	1834.98
230.90	1880.04
231.12	1779.68
231.34	1816.55
231.56	1849.32
231.78	1847.27
232.00	1771.49
232.21	1767.40
232.43	1794.02
232.65	1748.97
232.87	1892.32
233.09	1771.49
233.30	1748.97
233.52	1902.56
233.74	1810.40
233.96	1794.02
234.18	1818.60
234.40	1808.36
234.61	1970.15
234.83	1724.39
235.05	1701.86
235.27	1984.48
235.49	2004.96
235.70	1845.22
235.92	1914.85
236.14	1832.93
236.36	2011.11
236.58	1757.16
236.79	1828.84
237.01	1755.11
237.23	1818.60
237.45	1964.00
237.67	1748.97
237.88	1783.78
238.10	1896.42
238.32	1812.45
238.54	1759.21
238.76	1802.21
238.97	1740.77
239.19	1687.53
239.41	1843.17
239.63	1880.04
239.85	1787.88
240.06	1812.45
240.28	1796.07
240.50	1820.64
240.72	1773.54
240.93	1830.88
241.15	1853.41
241.37	1791.97
241.59	1949.67
241.81	1855.46
242.02	1810.40
242.24	1906.66
242.46	1869.80
242.68	1728.49
242.89	1775.59
243.11	1845.22
243.33	1787.88
243.55	1791.97
243.76	1877.99
243.98	1710.05
244.20	1820.64
244.42	1775.59
244.64	1832.93
244.85	1759.21
245.07	1789.92
245.29	1857.51
245.51	1834.98
245.72	1894.37
245.94	1869.80
246.16	1796.07
246.38	1839.08
246.59	1802.21
246.81	1812.45
247.03	1761.25
247.24	1695.72
247.46	1732.58
247.68	1892.32
247.90	1810.40
248.11	1767.40
248.33	1777.64
248.55	1822.69
248.77	1849.32
248.98	1912.80
249.20	1873.89
249.42	1814.50
249.64	1796.07
249.85	1853.41
250.07	1781.73
250.29	1849.32
250.50	1853.41
250.72	1730.53
250.94	1843.17
251.16	1892.32
251.37	1898.47
251.59	1822.69
251.81	1843.17
252.02	1867.75
252.24	1785.83
252.46	1884.13
252.68	1839.08
252.89	1837.03
253.11	1685.48
253.33	1984.48
253.54	1939.43
253.76	1791.97
253.98	1783.78
254.20	1738.73
254.41	1736.68
254.63	1800.16
254.85	1763.30
255.06	1789.92
255.28	1771.49
255.50	1787.88
255.71	1800.16
255.93	1730.53
256.15	1763.30
256.36	1810.40
256.58	1781.73
256.80	1886.18
257.02	1816.55
257.23	1804.26
257.45	1775.59
257.67	1888.23
257.88	1701.86
258.10	1877.99
258.32	1810.40
258.53	1757.16
258.75	1994.72
258.97	1716.20
259.18	1804.26
259.40	1814.50
259.62	1898.47
259.83	1830.88
260.05	1851.36
260.27	2113.50
260.48	1832.93
260.70	1720.29
260.92	1804.26
261.13	1855.46
261.35	1837.03
261.57	1869.80
261.78	1652.71
262.00	1751.01
262.22	1902.56
262.43	1732.58
262.65	1832.93
262.86	1810.40
263.08	1951.71
263.30	1824.74
263.51	1753.06
263.73	1761.25
263.95	1849.32
264.16	1761.25
264.38	1804.26
264.60	1773.54
264.81	1843.17
265.03	1806.31
265.25	1906.66
265.46	1765.35
265.68	1861.60
265.89	1886.18
266.11	1724.39
266.33	1873.89
266.54	1853.41
266.76	1841.12
266.98	1826.79
267.19	1906.66
267.41	1877.99
267.62	1765.35
267.84	1724.39
268.06	1849.32
268.27	1820.64
268.49	1871.84
268.70	1873.89
268.92	1765.35
269.14	1830.88
269.35	1796.07
269.57	1808.36
269.79	1884.13
270.00	1785.83
270.22	1906.66
270.43	1728.49
270.65	1732.58
270.87	1796.07
271.08	1877.99
271.30	1867.75
271.51	1757.16
271.73	1796.07
271.95	1834.98
272.16	1814.50
272.38	1875.94
272.59	1802.21
272.81	1853.41
273.02	1763.30
273.24	1771.49
273.46	1931.23
273.67	1701.86
273.89	1779.68
274.10	1738.73
274.32	1925.09
274.54	1841.12
274.75	1802.21
274.97	1808.36
275.18	1847.27
275.40	1808.36
275.61	1720.29
275.83	1826.79
276.05	1724.39
276.26	1814.50
276.48	1812.45
276.69	1779.68
276.91	1869.80
277.12	1847.27
277.34	1912.80
277.55	1841.12
277.77	1781.73
277.99	1824.74
278.20	1767.40
278.42	1777.64
278.63	1746.92
278.85	1832.93
279.06	1738.73
279.28	1798.12
279.49	1890.28
279.71	1849.32
279.93	1769.44
280.14	1816.55
280.36	1755.11
280.57	1892.32
280.79	1863.65
281.00	1753.06
281.22	1832.93
281.43	1914.85
281.65	1697.77
281.86	1808.36
282.08	1857.51
282.29	1910.75
282.51	1763.30
282.73	1787.88
282.94	1714.15
283.16	1822.69
283.37	1877.99
283.59	1873.89
283.80	1857.51
284.02	1781.73
284.23	1855.46
284.45	1773.54
284.66	1726.44
284.88	1695.72
285.09	1767.40
285.31	1837.03
285.52	1804.26
285.74	1701.86
285.95	1834.98
286.17	1808.36
286.38	1873.89
286.60	1812.45
286.81	1724.39
287.03	1783.78
287.24	1857.51
287.46	1871.84
287.67	1880.04
287.89	1949.67
288.10	1857.51
288.32	1800.16
288.53	1966.05
288.75	1791.97
288.96	1890.28
289.18	1791.97
289.39	1761.25
289.61	1812.45
289.82	1931.23
290.04	1951.71
290.25	1757.16
290.47	1918.95
290.68	1806.31
290.90	1855.46
291.11	1695.72
291.33	1882.08
291.54	1730.53
291.76	1783.78
291.97	1837.03
292.18	1863.65
292.40	1777.64
292.61	1755.11
292.83	2025.44
293.04	1847.27
293.26	1832.93
293.47	1712.10
293.69	1769.44
293.90	1796.07
294.12	1884.13
294.33	1812.45
294.55	1837.03
294.76	1912.80
294.97	1951.71
295.19	1968.10
295.40	1802.21
295.62	1910.75
295.83	1843.17
296.05	1744.87
296.26	1875.94
296.48	1773.54
296.69	1724.39
296.90	1787.88
297.12	1982.43
297.33	1812.45
297.55	1761.25
297.76	1826.79
297.98	1904.61
298.19	1839.08
298.41	1847.27
298.62	1734.63
298.83	1988.58
299.05	1808.36
299.26	1757.16
299.48	1763.30
299.69	1808.36
299.90	1847.27
300.12	1712.10
300.33	1849.32
300.55	1779.68
300.76	1904.61
300.98	1798.12
301.19	1847.27
301.40	1824.74
301.62	1785.83
301.83	1820.64
302.05	1884.13
302.26	1763.30
302.47	1828.84
302.69	1802.21
302.90	1808.36
303.12	1732.58
303.33	1814.50
303.54	1957.86
303.76	1810.40
303.97	1800.16
304.19	1865.70
304.40	1722.34
304.61	1906.66
304.83	1964.00
305.04	1857.51
305.26	1857.51
305.47	1808.36
305.68	1847.27
305.90	1714.15
306.11	1863.65
306.33	1800.16
306.54	1796.07
306.75	1736.68
306.97	1771.49
307.18	1722.34
307.39	1771.49
307.61	1882.08
307.82	1800.16
308.04	1839.08
308.25	1800.16
308.46	1779.68
308.68	1828.84
308.89	1837.03
309.10	1964.00
309.32	1892.32
309.53	1812.45
309.74	1806.31
309.96	1832.93
310.17	1816.55
310.39	1820.64
310.60	1824.74
310.81	1777.64
311.03	1734.63
311.24	1824.74
311.45	1857.51
311.67	1894.37
311.88	1822.69
312.09	1730.53
312.31	1755.11
312.52	1794.02
312.73	1783.78
312.95	1673.19
313.16	1761.25
313.37	1882.08
313.59	1904.61
313.80	1894.37
314.01	1927.14
314.23	1734.63
314.44	1755.11
314.65	1736.68
314.87	1800.16
315.08	1742.82
315.29	1781.73
315.51	1730.53
315.72	1734.63
315.93	1910.75
316.15	1796.07
316.36	1806.31
316.57	1871.84
316.79	1888.23
317.00	1722.34
317.21	1843.17
317.43	1746.92
317.64	1828.84
317.85	1716.20
318.07	1720.29
318.28	1851.36
318.49	2013.15
318.70	2121.70
318.92	2050.02
319.13	2039.78
319.34	2009.06
319.56	1929.19
319.77	1978.34
319.98	1947.62
320.20	1900.52
320.41	1880.04
320.62	1877.99
320.83	1794.02
321.05	1968.10
321.26	1869.80
321.47	1830.88
321.69	1931.23
321.90	1812.45
322.11	1783.78
322.32	1796.07
322.54	1902.56
322.75	1732.58
322.96	1980.39
323.18	1701.86
323.39	1673.19
323.60	1746.92
323.81	1894.37
324.03	1785.83
324.24	1755.11
324.45	1800.16
324.66	1755.11
324.88	1849.32
325.09	1939.43
325.30	1703.91
325.52	1775.59
325.73	1851.36
325.94	1763.30
326.15	1714.15
326.37	1789.92
326.58	1830.88
326.79	1933.28
327.00	1771.49
327.22	1822.69
327.43	1800.16
327.64	1722.34
327.85	1824.74
328.07	1904.61
328.28	1972.19
328.49	1857.51
328.70	1748.97
328.92	1867.75
329.13	1798.12
329.34	1830.88
329.55	1966.05
329.76	1869.80
329.98	1849.32
330.19	1912.80
330.40	1880.04
330.61	1802.21
330.83	1923.04
331.04	1812.45
331.25	1841.12
331.46	1681.38
331.68	1802.21
331.89	1900.52
332.10	1839.08
332.31	1742.82
332.52	1771.49
332.74	1904.61
332.95	1728.49
333.16	1693.67
333.37	1900.52
333.58	1830.88
333.80	1884.13
334.01	1712.10
334.22	1814.50
334.43	1808.36
334.64	1820.64
334.86	1755.11
335.07	1693.67
335.28	1945.57
335.49	1716.20
335.70	1853.41
335.92	1880.04
336.13	1951.71
336.34	1933.28
336.55	1757.16
336.76	1937.38
336.98	1648.61
337.19	1861.60
337.40	1937.38
337.61	1923.04
337.82	1791.97
338.04	1845.22
338.25	1753.06
338.46	1773.54
338.67	1779.68
338.88	1675.24
339.09	1734.63
339.31	1685.48
339.52	1777.64
339.73	1751.01
339.94	1882.08
340.15	1884.13
340.36	1742.82
340.58	1861.60
340.79	1789.92
341.00	1800.16
341.21	1822.69
341.42	1910.75
341.63	1880.04
341.85	1933.28
342.06	1910.75
342.27	1734.63
342.48	1892.32
342.69	1705.96
342.90	1904.61
343.12	1898.47
343.33	1783.78
343.54	1824.74
343.75	1877.99
343.96	1857.51
344.17	1740.77
344.38	1810.40
344.60	1832.93
344.81	1767.40
345.02	1742.82
345.23	1920.99
345.44	2015.20
345.65	1875.94
345.86	1824.74
346.07	1906.66
346.29	1826.79
346.50	1849.32
346.71	1916.90
346.92	1935.33
347.13	1916.90
347.34	1808.36
347.55	1841.12
347.76	1853.41
347.98	1718.25
348.19	1718.25
348.40	1869.80
348.61	1822.69
348.82	1863.65
349.03	1886.18
349.24	1705.96
349.45	1886.18
349.66	1630.18
349.88	1806.31
350.09	1724.39
350.30	1916.90
350.51	1882.08
350.72	1785.83
350.93	1865.70
351.14	1775.59
351.35	1748.97
351.56	1802.21
351.77	1867.75
351.99	1859.56
352.20	1912.80
352.41	1828.84
352.62	1755.11
352.83	1781.73
353.04	1841.12
353.25	1800.16
353.46	1871.84
353.67	1849.32
353.88	1775.59
354.09	1845.22
354.30	1783.78
354.52	1800.16
354.73	1779.68
354.94	1828.84
355.15	1859.56
355.36	1978.34
355.57	1787.88
355.78	1820.64
355.99	1746.92
356.20	1765.35
356.41	1873.89
356.62	1884.13
356.83	1888.23
357.04	1908.71
357.25	1648.61
357.46	1771.49
357.68	1697.77
357.89	1755.11
358.10	1785.83
358.31	1857.51
358.52	1822.69
358.73	1730.53
358.94	1775.59
359.15	1824.74
359.36	1873.89
359.57	1867.75
359.78	1798.12
359.99	1816.55
360.20	1796.07
360.41	1789.92
360.62	1920.99
360.83	1800.16
361.04	1841.12
361.25	1914.85
361.46	1978.34
361.67	1871.84
361.88	1857.51
362.09	1845.22
362.30	1814.50
362.51	1841.12
362.72	1845.22
362.93	1851.36
363.14	1877.99
363.35	1886.18
363.56	1761.25
363.78	1873.89
363.99	1865.70
364.20	1843.17
364.41	1863.65
364.62	1894.37
364.83	1828.84
365.04	1806.31
365.25	1828.84
365.46	1955.81
365.67	1769.44
365.88	1806.31
366.09	1814.50
366.30	1865.70
366.51	1755.11
366.72	1779.68
366.93	1873.89
367.14	1847.27
367.35	1810.40
367.56	1736.68
367.77	1931.23
367.98	1816.55
368.18	1902.56
368.39	1882.08
368.60	1710.05
368.81	1843.17
369.02	1882.08
369.23	1798.12
369.44	1673.19
369.65	1818.60
369.86	1806.31
370.07	1908.71
370.28	1751.01
370.49	1804.26
370.70	1814.50
370.91	1732.58
371.12	1654.76
371.33	1902.56
371.54	1794.02
371.75	1976.29
371.96	1687.53
372.17	1808.36
372.38	1775.59
372.59	1900.52
372.80	1781.73
373.01	1787.88
373.22	1853.41
373.43	1800.16
373.64	1710.05
373.85	1902.56
374.06	1972.19
374.26	1828.84
374.47	1847.27
374.68	1976.29
374.89	1861.60
375.10	1834.98
375.31	1828.84
375.52	1859.56
375.73	1796.07
375.94	1791.97
376.15	1937.38
376.36	1724.39
376.57	1740.77
376.78	1826.79
376.99	1769.44
377.20	1896.42
377.40	1791.97
377.61	1890.28
377.82	1812.45
378.03	1888.23
378.24	1828.84
378.45	1767.40
378.66	1863.65
378.87	1736.68
379.08	1662.95
379.29	1837.03
379.50	1951.71
379.71	1767.40
379.91	1863.65
380.12	1802.21
380.33	1830.88
380.54	1822.69
380.75	1804.26
380.96	1820.64
381.17	1769.44
381.38	1888.23
381.59	1804.26
381.80	1847.27
382.00	1945.57
382.21	1841.12
382.42	1908.71
382.63	1988.58
382.84	1832.93
383.05	1865.70
383.26	1976.29
383.47	1798.12
383.68	1871.84
383.88	1814.50
384.09	1753.06
384.30	1939.43
384.51	1832.93
384.72	1744.87
384.93	1687.53
385.14	1837.03
385.35	1912.80
385.55	1685.48
385.76	1918.95
385.97	1828.84
386.18	1722.34
386.39	1830.88
386.60	1810.40
386.81	1832.93
387.02	1794.02
387.22	1794.02
387.43	1861.60
387.64	1867.75
387.85	2011.11
388.06	2142.18
388.27	4181.95
388.48	8925.05
388.68	11767.63
388.89	13948.72
389.10	14634.78
389.31	13164.34
389.52	10391.39
389.73	9035.64
389.93	8378.24
390.14	7661.45
390.35	6915.99
390.56	6303.65
390.77	5099.44
390.98	4024.26
391.18	3155.92
391.39	2494.43
391.60	2058.21
391.81	2007.01
392.02	1877.99
392.23	2009.06
392.43	1890.28
392.64	1961.95
392.85	1910.75
393.06	1998.82
393.27	1785.83
393.47	1753.06
393.68	1783.78
393.89	1738.73
394.10	1894.37
394.31	1681.38
394.52	1806.31
394.72	1796.07
394.93	1933.28
395.14	1759.21
395.35	1863.65
395.56	1789.92
395.76	1820.64
395.97	1955.81
396.18	1910.75
396.39	1990.63
396.60	2152.42
396.80	2033.63
397.01	1998.82
397.22	1968.10
397.43	1980.39
397.64	1826.79
397.84	1906.66
398.05	1961.95
398.26	1837.03
398.47	1900.52
398.67	1886.18
398.88	1834.98
399.09	1875.94
399.30	1771.49
399.51	1869.80
399.71	1822.69
399.92	1834.98
400.13	1814.50
400.34	1839.08
400.54	1863.65
400.75	1931.23
400.96	1828.84
401.17	1861.60
401.37	1896.42
401.58	1839.08
401.79	1834.98
402.00	1978.34
402.21	2152.42
402.41	2201.57
402.62	2250.72
402.83	2320.35
403.04	2238.43
403.24	2242.53
403.45	2023.39
403.66	2088.93
403.87	2004.96
404.07	2074.59
404.28	2078.69
404.49	1970.15
404.70	1941.47
404.90	1843.17
405.11	1869.80
405.32	1845.22
405.52	1812.45
405.73	1708.01
405.94	1669.09
406.15	1839.08
406.35	1871.84
406.56	1871.84
406.77	1841.12
406.98	1845.22
407.18	1769.44
407.39	1877.99
407.60	1794.02
407.80	1839.08
408.01	1794.02
408.22	1894.37
408.43	1763.30
408.63	1886.18
408.84	1841.12
409.05	1818.60
409.25	1773.54
409.46	1779.68
409.67	1761.25
409.88	1738.73
410.08	1875.94
410.29	1732.58
410.50	1904.61
410.70	1900.52
410.91	1740.77
411.12	1843.17
411.32	1845.22
411.53	1875.94
411.74	1918.95
411.95	1988.58
412.15	1937.38
412.36	1978.34
412.57	1832.93
412.77	1980.39
412.98	1832.93
413.19	1779.68
413.39	1877.99
413.60	1855.46
413.81	1890.28
414.01	1800.16
414.22	1912.80
414.43	1871.84
414.63	1734.63
414.84	1865.70
415.05	1824.74
415.25	1796.07
415.46	1849.32
415.67	1787.88
415.87	1931.23
416.08	1849.32
416.29	1789.92
416.49	1890.28
416.70	1724.39
416.91	1822.69
417.11	1851.36
417.32	1806.31
417.53	1892.32
417.73	1859.56
417.94	1724.39
418.15	1871.84
418.35	1830.88
418.56	1771.49
418.77	1990.63
418.97	1843.17
419.18	1822.69
419.38	1783.78
419.59	1773.54
419.80	1859.56
420.00	1779.68
420.21	1783.78
420.42	1851.36
420.62	1871.84
420.83	1712.10
421.04	1841.12
421.24	1843.17
421.45	1746.92
421.65	1935.33
421.86	1857.51
422.07	1759.21
422.27	1822.69
422.48	1867.75
422.69	1736.68
422.89	1781.73
423.10	1796.07
423.30	1761.25
423.51	1789.92
423.72	1773.54
423.92	1867.75
424.13	1720.29
424.33	1826.79
424.54	1916.90
424.75	1789.92
424.95	1898.47
425.16	1808.36
425.36	1912.80
425.57	1916.90
425.78	1849.32
425.98	1816.55
426.19	1820.64
426.39	1736.68
426.60	1824.74
426.81	1925.09
427.01	1857.51
427.22	1777.64
427.42	1726.44
427.63	1787.88
427.83	1918.95
428.04	1871.84
428.25	1937.38
428.45	1931.23
428.66	1888.23
428.86	1734.63
429.07	1837.03
429.28	1882.08
429.48	1853.41
429.69	1767.40
429.89	1783.78
430.10	1693.67
430.30	1804.26
430.51	1896.42
430.71	1751.01
430.92	1845.22
431.13	1783.78
431.33	1898.47
431.54	1857.51
431.74	1863.65
431.95	1935.33
432.15	1746.92
432.36	1777.64
432.56	1910.75
432.77	1941.47
432.98	1992.67
433.18	1832.93
433.39	1791.97
433.59	1755.11
433.80	2009.06
434.00	2000.87
434.21	1859.56
434.41	1824.74
434.62	1947.62
434.82	1722.34
435.03	1781.73
435.23	1871.84
435.44	1689.57
435.64	1871.84
435.85	1808.36
436.06	1873.89
436.26	1888.23
436.47	1740.77
436.67	1767.40
436.88	1908.71
437.08	1865.70
437.29	1939.43
437.49	1857.51
437.70	1937.38
437.90	1847.27
438.11	1941.47
438.31	2011.11
438.52	1953.76
438.72	2084.83
438.93	2074.59
439.13	1914.85
439.34	2002.91
439.54	1927.14
439.75	1927.14
439.95	1945.57
440.16	1810.40
440.36	1859.56
440.57	1832.93
440.77	1798.12
440.98	1800.16
441.18	1927.14
441.39	1789.92
441.59	1730.53
441.80	1929.19
442.00	1789.92
442.21	1902.56
442.41	1773.54
442.62	1894.37
442.82	1787.88
443.02	1851.36
443.23	1796.07
443.43	1763.30
443.64	1892.32
443.84	1867.75
444.05	1898.47
444.25	1859.56
444.46	1771.49
444.66	1791.97
444.87	1994.72
445.07	1689.57
445.28	1808.36
445.48	1896.42
445.69	1820.64
445.89	1880.04
446.09	1798.12
446.30	2011.11
446.50	2574.30
446.71	4145.09
446.91	5347.25
447.12	5951.40
447.32	6274.98
447.53	5728.17
447.73	4761.53
447.93	4200.38
448.14	3823.56
448.34	3676.10
448.55	3254.22
448.75	3219.41
448.96	3002.32
449.16	2707.41
449.36	2578.39
449.57	2222.05
449.77	2045.92
449.98	1857.51
450.18	1964.00
450.39	1945.57
450.59	1877.99
450.79	1804.26
451.00	1765.35
451.20	1832.93
451.41	1869.80
451.61	1863.65
451.81	1869.80
452.02	1847.27
452.22	1839.08
452.43	1808.36
452.63	1781.73
