SpectraSuite Data File
++++++++++++++++++++++++++++++++++++
Date: Wed May 04 21:13:22 CEST 2016
User: root
Dark Spectrum Present: No
Reference Spectrum Present: No
Number of Sampled Component Spectra: 1
Spectrometers: USB4C02835
Integration Time (usec): 100000 (USB4C02835)
Spectra Averaged: 1 (USB4C02835)
Boxcar Smoothing: 0 (USB4C02835)
Correct for Electrical Dark: No (USB4C02835)
Strobe/Lamp Enabled: No (USB4C02835)
Correct for Detector Non-linearity: No (USB4C02835)
Correct for Stray Light: No (USB4C02835)
Number of Pixels in Processed Spectrum: 3648
>>>>>Begin Processed Spectral Data<<<<<
177.47	1568.74
177.69	1568.74
177.91	1568.74
178.13	1495.02
178.36	1486.83
178.58	1705.96
178.80	1794.02
179.02	1802.21
179.24	1773.54
179.46	1767.40
179.68	1824.74
179.90	1861.60
180.13	1886.18
180.35	1791.97
180.57	1755.11
180.79	1837.03
181.01	1763.30
181.23	1816.55
181.45	1910.75
181.67	1804.26
181.90	1877.99
182.12	1810.40
182.34	1693.67
182.56	1894.37
182.78	1867.75
183.00	1779.68
183.22	1767.40
183.44	1736.68
183.66	1996.77
183.89	1896.42
184.11	1804.26
184.33	1812.45
184.55	1929.19
184.77	1845.22
184.99	1845.22
185.21	1769.44
185.43	1920.99
185.65	1724.39
185.87	1779.68
186.10	2009.06
186.32	1925.09
186.54	1816.55
186.76	1918.95
186.98	1863.65
187.20	1769.44
187.42	1763.30
187.64	1783.78
187.86	1796.07
188.08	1931.23
188.30	1869.80
188.52	1828.84
188.75	1847.27
188.97	1892.32
189.19	1775.59
189.41	1751.01
189.63	1834.98
189.85	1796.07
190.07	1710.05
190.29	1730.53
190.51	1843.17
190.73	1732.58
190.95	1843.17
191.17	1841.12
191.39	1832.93
191.61	1863.65
191.84	1755.11
192.06	1828.84
192.28	1710.05
192.50	2029.54
192.72	1849.32
192.94	1847.27
193.16	1896.42
193.38	1816.55
193.60	1761.25
193.82	1787.88
194.04	1861.60
194.26	1837.03
194.48	1820.64
194.70	1755.11
194.92	1751.01
195.14	1931.23
195.36	1820.64
195.58	1820.64
195.80	1783.78
196.02	1773.54
196.24	1773.54
196.46	1818.60
196.69	1699.81
196.91	1986.53
197.13	1777.64
197.35	1728.49
197.57	1933.28
197.79	1908.71
198.01	1798.12
198.23	1794.02
198.45	1820.64
198.67	1742.82
198.89	1796.07
199.11	1867.75
199.33	1820.64
199.55	1689.57
199.77	1783.78
199.99	1863.65
200.21	1857.51
200.43	1834.98
200.65	1705.96
200.87	1742.82
201.09	1839.08
201.31	1847.27
201.53	1816.55
201.75	1779.68
201.97	1787.88
202.19	1877.99
202.41	1816.55
202.63	1927.14
202.85	1816.55
203.07	1834.98
203.29	1781.73
203.51	1746.92
203.73	1732.58
203.95	1978.34
204.17	1791.97
204.39	1841.12
204.61	1841.12
204.83	1751.01
205.05	1910.75
205.27	1794.02
205.49	1839.08
205.71	1767.40
205.93	1716.20
206.15	1742.82
206.37	1863.65
206.59	1851.36
206.81	1728.49
207.03	1806.31
207.25	1730.53
207.47	1886.18
207.69	1841.12
207.91	1875.94
208.13	1894.37
208.34	1783.78
208.56	1828.84
208.78	1800.16
209.00	1816.55
209.22	1757.16
209.44	1816.55
209.66	1812.45
209.88	1775.59
210.10	1804.26
210.32	1726.44
210.54	1900.52
210.76	1867.75
210.98	1892.32
211.20	1773.54
211.42	1730.53
211.64	1884.13
211.86	1812.45
212.08	1812.45
212.30	1845.22
212.52	1783.78
212.74	1791.97
212.96	1849.32
213.17	1861.60
213.39	1830.88
213.61	1892.32
213.83	1783.78
214.05	1863.65
214.27	1857.51
214.49	1818.60
214.71	1720.29
214.93	1869.80
215.15	1794.02
215.37	1875.94
215.59	1681.38
215.81	1886.18
216.03	1873.89
216.24	1804.26
216.46	1857.51
216.68	1791.97
216.90	1830.88
217.12	1894.37
217.34	1837.03
217.56	1841.12
217.78	1918.95
218.00	1855.46
218.22	1828.84
218.44	1882.08
218.66	1734.63
218.87	1935.33
219.09	1787.88
219.31	1859.56
219.53	1832.93
219.75	1791.97
219.97	1804.26
220.19	1787.88
220.41	1818.60
220.63	1978.34
220.85	1841.12
221.06	1757.16
221.28	1902.56
221.50	1869.80
221.72	1777.64
221.94	1777.64
222.16	1828.84
222.38	1869.80
222.60	1912.80
222.82	1812.45
223.03	1808.36
223.25	1748.97
223.47	1783.78
223.69	1896.42
223.91	1849.32
224.13	1767.40
224.35	1705.96
224.57	1904.61
224.78	1828.84
225.00	1744.87
225.22	1798.12
225.44	1759.21
225.66	1884.13
225.88	1771.49
226.10	1806.31
226.32	1804.26
226.53	1871.84
226.75	1789.92
226.97	1767.40
227.19	1832.93
227.41	1765.35
227.63	1767.40
227.85	1703.91
228.06	1728.49
228.28	1810.40
228.50	1890.28
228.72	1755.11
228.94	1759.21
229.16	1769.44
229.37	1736.68
229.59	1726.44
229.81	1888.23
230.03	1759.21
230.25	1697.77
230.47	1740.77
230.69	1724.39
230.90	1769.44
231.12	1814.50
231.34	1843.17
231.56	1828.84
231.78	1798.12
232.00	1832.93
232.21	1781.73
232.43	1818.60
232.65	1683.43
232.87	1900.52
233.09	1734.63
233.30	1765.35
233.52	1837.03
233.74	1814.50
233.96	1806.31
234.18	1757.16
234.40	1810.40
234.61	1937.38
234.83	1791.97
235.05	1681.38
235.27	1914.85
235.49	1855.46
235.70	1787.88
235.92	1800.16
236.14	1898.47
236.36	1875.94
236.58	1722.34
236.79	1812.45
237.01	1810.40
237.23	1816.55
237.45	1974.24
237.67	1771.49
237.88	1865.70
238.10	1906.66
238.32	1785.83
238.54	1751.01
238.76	1748.97
238.97	1757.16
239.19	1796.07
239.41	1888.23
239.63	1812.45
239.85	1753.06
240.06	1824.74
240.28	1777.64
240.50	1847.27
240.72	1855.46
240.93	1726.44
241.15	1867.75
241.37	1886.18
241.59	1896.42
241.81	1808.36
242.02	1818.60
242.24	1863.65
242.46	1824.74
242.68	1720.29
242.89	1814.50
243.11	1927.14
243.33	1822.69
243.55	1847.27
243.76	1826.79
243.98	1820.64
244.20	1779.68
244.42	1783.78
244.64	1765.35
244.85	1662.95
245.07	1796.07
245.29	1789.92
245.51	1832.93
245.72	1789.92
245.94	1908.71
246.16	1832.93
246.38	1894.37
246.59	1773.54
246.81	1800.16
247.03	1703.91
247.24	1738.73
247.46	1804.26
247.68	1974.24
247.90	1779.68
248.11	1765.35
248.33	1849.32
248.55	1882.08
248.77	1828.84
248.98	1888.23
249.20	1906.66
249.42	1794.02
249.64	1843.17
249.85	1843.17
250.07	1761.25
250.29	1765.35
250.50	1869.80
250.72	1742.82
250.94	1865.70
251.16	1939.43
251.37	1810.40
251.59	1812.45
251.81	1808.36
252.02	1925.09
252.24	1722.34
252.46	1830.88
252.68	1738.73
252.89	1720.29
253.11	1753.06
253.33	1943.52
253.54	1914.85
253.76	1791.97
253.98	1794.02
254.20	1806.31
254.41	1742.82
254.63	1808.36
254.85	1687.53
255.06	1802.21
255.28	1814.50
255.50	1800.16
255.71	1837.03
255.93	1724.39
256.15	1748.97
256.36	1920.99
256.58	1761.25
256.80	1877.99
257.02	1748.97
257.23	1791.97
257.45	1849.32
257.67	1867.75
257.88	1796.07
258.10	1820.64
258.32	1837.03
258.53	1802.21
258.75	1869.80
258.97	1755.11
259.18	1857.51
259.40	1820.64
259.62	1949.67
259.83	1906.66
260.05	1910.75
260.27	2142.18
260.48	1839.08
260.70	1796.07
260.92	1753.06
261.13	1837.03
261.35	1867.75
261.57	1816.55
261.78	1697.77
262.00	1773.54
262.22	1806.31
262.43	1757.16
262.65	1812.45
262.86	1853.41
263.08	2039.78
263.30	1839.08
263.51	1710.05
263.73	1769.44
263.95	1900.52
264.16	1791.97
264.38	1812.45
264.60	1830.88
264.81	1783.78
265.03	1914.85
265.25	1873.89
265.46	1748.97
265.68	1890.28
265.89	1927.14
266.11	1685.48
266.33	1890.28
266.54	1865.70
266.76	1830.88
266.98	1822.69
267.19	1925.09
267.41	1906.66
267.62	1820.64
267.84	1658.85
268.06	1810.40
268.27	1832.93
268.49	1830.88
268.70	1849.32
268.92	1824.74
269.14	1722.34
269.35	1751.01
269.57	1771.49
269.79	1888.23
270.00	1789.92
270.22	1937.38
270.43	1748.97
270.65	1595.37
270.87	1796.07
271.08	1888.23
271.30	1890.28
271.51	1857.51
271.73	1791.97
271.95	1869.80
272.16	1816.55
272.38	1794.02
272.59	1773.54
272.81	1810.40
273.02	1734.63
273.24	1810.40
273.46	1900.52
273.67	1789.92
273.89	1822.69
274.10	1789.92
274.32	1877.99
274.54	1865.70
274.75	1830.88
274.97	1714.15
275.18	1791.97
275.40	1751.01
275.61	1796.07
275.83	1785.83
276.05	1789.92
276.26	1830.88
276.48	1849.32
276.69	1806.31
276.91	1794.02
277.12	1931.23
277.34	1834.98
277.55	1832.93
277.77	1789.92
277.99	1753.06
278.20	1673.19
278.42	1732.58
278.63	1806.31
278.85	1896.42
279.06	1761.25
279.28	1798.12
279.49	1890.28
279.71	1845.22
279.93	1785.83
280.14	1824.74
280.36	1832.93
280.57	1863.65
280.79	1834.98
281.00	1767.40
281.22	1732.58
281.43	1855.46
281.65	1701.86
281.86	1742.82
282.08	1765.35
282.29	1927.14
282.51	1679.33
282.73	1789.92
282.94	1687.53
283.16	1855.46
283.37	1918.95
283.59	1812.45
283.80	1865.70
284.02	1804.26
284.23	1918.95
284.45	1783.78
284.66	1767.40
284.88	1761.25
285.09	1855.46
285.31	1955.81
285.52	1837.03
285.74	1783.78
285.95	1861.60
286.17	1771.49
286.38	1837.03
286.60	1728.49
286.81	1791.97
287.03	1830.88
287.24	1785.83
287.46	1841.12
287.67	1824.74
287.89	2009.06
288.10	1789.92
288.32	1863.65
288.53	1869.80
288.75	1875.94
288.96	1789.92
289.18	1763.30
289.39	1839.08
289.61	1886.18
289.82	1968.10
290.04	1931.23
290.25	1734.63
290.47	1789.92
290.68	1814.50
290.90	1916.90
291.11	1746.92
291.33	1882.08
291.54	1726.44
291.76	1834.98
291.97	1822.69
292.18	1912.80
292.40	1759.21
292.61	1791.97
292.83	1957.86
293.04	1798.12
293.26	1855.46
293.47	1806.31
293.69	1746.92
293.90	1824.74
294.12	1945.57
294.33	1796.07
294.55	1783.78
294.76	1943.52
294.97	1859.56
295.19	1941.47
295.40	1779.68
295.62	1853.41
295.83	1886.18
296.05	1796.07
296.26	1824.74
296.48	1765.35
296.69	1734.63
296.90	1712.10
297.12	1863.65
297.33	1914.85
297.55	1794.02
297.76	1839.08
297.98	1916.90
298.19	1785.83
298.41	1869.80
298.62	1726.44
298.83	1943.52
299.05	1812.45
299.26	1796.07
299.48	1693.67
299.69	1886.18
299.90	1841.12
300.12	1800.16
300.33	1849.32
300.55	1902.56
300.76	1908.71
300.98	1796.07
301.19	1794.02
301.40	1736.68
301.62	1794.02
301.83	1869.80
302.05	1808.36
302.26	1746.92
302.47	1820.64
302.69	1691.62
302.90	1796.07
303.12	1642.47
303.33	1875.94
303.54	1871.84
303.76	1765.35
303.97	1804.26
304.19	1904.61
304.40	1787.88
304.61	1873.89
304.83	1943.52
305.04	1816.55
305.26	1814.50
305.47	1834.98
305.68	1812.45
305.90	1753.06
306.11	1880.04
306.33	1718.25
306.54	1769.44
306.75	1767.40
306.97	1722.34
307.18	1843.17
307.39	1767.40
307.61	1796.07
307.82	1812.45
308.04	1873.89
308.25	1779.68
308.46	1791.97
308.68	1837.03
308.89	1861.60
309.10	1816.55
309.32	1871.84
309.53	1802.21
309.74	1773.54
309.96	1796.07
310.17	1886.18
310.39	1744.87
310.60	1824.74
310.81	1812.45
311.03	1777.64
311.24	1943.52
311.45	1789.92
311.67	1908.71
311.88	1820.64
312.09	1798.12
312.31	1695.72
312.52	1812.45
312.73	1857.51
312.95	1804.26
313.16	1800.16
313.37	1902.56
313.59	1837.03
313.80	1822.69
314.01	1867.75
314.23	1867.75
314.44	1769.44
314.65	1732.58
314.87	1708.01
315.08	1816.55
315.29	1800.16
315.51	1832.93
315.72	1748.97
315.93	1937.38
316.15	1964.00
316.36	1761.25
316.57	1767.40
316.79	1863.65
317.00	1773.54
317.21	1849.32
317.43	1738.73
317.64	1855.46
317.85	1789.92
318.07	1757.16
318.28	1873.89
318.49	2033.63
318.70	2093.02
318.92	1994.72
319.13	2037.73
319.34	2033.63
319.56	1886.18
319.77	1994.72
319.98	1972.19
320.20	1904.61
320.41	1908.71
320.62	1882.08
320.83	1865.70
321.05	2004.96
321.26	1902.56
321.47	1828.84
321.69	1865.70
321.90	1722.34
322.11	1796.07
322.32	1818.60
322.54	1914.85
322.75	1779.68
322.96	2015.20
323.18	1689.57
323.39	1708.01
323.60	1759.21
323.81	1906.66
324.03	1826.79
324.24	1783.78
324.45	1808.36
324.66	1816.55
324.88	1873.89
325.09	1935.33
325.30	1828.84
325.52	1806.31
325.73	1925.09
325.94	1787.88
326.15	1714.15
326.37	1820.64
326.58	1839.08
326.79	1896.42
327.00	1736.68
327.22	1824.74
327.43	1771.49
327.64	1746.92
327.85	1847.27
328.07	1789.92
328.28	1894.37
328.49	1810.40
328.70	1818.60
328.92	1847.27
329.13	1773.54
329.34	1832.93
329.55	1859.56
329.76	1830.88
329.98	1789.92
330.19	1892.32
330.40	1816.55
330.61	1865.70
330.83	1826.79
331.04	1781.73
331.25	1839.08
331.46	1769.44
331.68	1730.53
331.89	1910.75
332.10	1763.30
332.31	1734.63
332.52	1808.36
332.74	1888.23
332.95	1710.05
333.16	1877.99
333.37	1822.69
333.58	1732.58
333.80	1726.44
334.01	1689.57
334.22	1857.51
334.43	1765.35
334.64	1814.50
334.86	1740.77
335.07	1781.73
335.28	1912.80
335.49	1724.39
335.70	1843.17
335.92	1861.60
336.13	1957.86
336.34	1867.75
336.55	1796.07
336.76	1789.92
336.98	1720.29
337.19	1767.40
337.40	1959.91
337.61	1953.76
337.82	1769.44
338.04	1775.59
338.25	1759.21
338.46	1824.74
338.67	1888.23
338.88	1726.44
339.09	1675.24
339.31	1773.54
339.52	1763.30
339.73	1720.29
339.94	1851.36
340.15	1949.67
340.36	1808.36
340.58	1865.70
340.79	1765.35
341.00	1857.51
341.21	1816.55
341.42	1984.48
341.63	1783.78
341.85	1877.99
342.06	1800.16
342.27	1734.63
342.48	1894.37
342.69	1730.53
342.90	1855.46
343.12	1808.36
343.33	1804.26
343.54	1906.66
343.75	1861.60
343.96	1775.59
344.17	1773.54
344.38	1765.35
344.60	1767.40
344.81	1738.73
345.02	1804.26
345.23	1882.08
345.44	1898.47
345.65	1857.51
345.86	1843.17
346.07	1841.12
346.29	1783.78
346.50	1865.70
346.71	1855.46
346.92	1900.52
347.13	2013.15
347.34	1853.41
347.55	1777.64
347.76	1824.74
347.98	1679.33
348.19	1837.03
348.40	1910.75
348.61	1808.36
348.82	1869.80
349.03	1888.23
349.24	1783.78
349.45	1900.52
349.66	1720.29
349.88	1757.16
350.09	1837.03
350.30	1867.75
350.51	1900.52
350.72	1898.47
350.93	1902.56
351.14	1751.01
351.35	1904.61
351.56	1779.68
351.77	1718.25
351.99	1826.79
352.20	1904.61
352.41	1828.84
352.62	1685.48
352.83	1732.58
353.04	1787.88
353.25	1796.07
353.46	1904.61
353.67	1888.23
353.88	1693.67
354.09	1783.78
354.30	1830.88
354.52	1824.74
354.73	1779.68
354.94	1810.40
355.15	1853.41
355.36	1970.15
355.57	1820.64
355.78	1818.60
355.99	1798.12
356.20	1804.26
356.41	1873.89
356.62	1814.50
356.83	1826.79
357.04	1898.47
357.25	1732.58
357.46	1783.78
357.68	1722.34
357.89	1767.40
358.10	1810.40
358.31	1808.36
358.52	1802.21
358.73	1796.07
358.94	1644.52
359.15	1767.40
359.36	1943.52
359.57	1800.16
359.78	1804.26
359.99	1808.36
360.20	1708.01
360.41	1839.08
360.62	1888.23
360.83	1746.92
361.04	1847.27
361.25	1843.17
361.46	1851.36
361.67	1945.57
361.88	1871.84
362.09	1904.61
362.30	1888.23
362.51	1783.78
362.72	1845.22
362.93	1916.90
363.14	1802.21
363.35	1796.07
363.56	1708.01
363.78	1910.75
363.99	1892.32
364.20	1742.82
364.41	1851.36
364.62	1941.47
364.83	1806.31
365.04	1830.88
365.25	1757.16
365.46	1988.58
365.67	1777.64
365.88	1859.56
366.09	1761.25
366.30	1849.32
366.51	1787.88
366.72	1710.05
366.93	1722.34
367.14	1845.22
367.35	1902.56
367.56	1845.22
367.77	1898.47
367.98	1843.17
368.18	1794.02
368.39	1886.18
368.60	1791.97
368.81	1855.46
369.02	1816.55
369.23	1824.74
369.44	1738.73
369.65	1783.78
369.86	1736.68
370.07	1826.79
370.28	1828.84
370.49	1830.88
370.70	1789.92
370.91	1759.21
371.12	1732.58
371.33	1918.95
371.54	1759.21
371.75	1908.71
371.96	1697.77
372.17	1798.12
372.38	1826.79
372.59	1841.12
372.80	1853.41
373.01	1824.74
373.22	1910.75
373.43	1849.32
373.64	1753.06
373.85	1923.04
374.06	1953.76
374.26	1875.94
374.47	1771.49
374.68	1918.95
374.89	1857.51
375.10	1781.73
375.31	1851.36
375.52	1810.40
375.73	1834.98
375.94	1767.40
376.15	1925.09
376.36	1789.92
376.57	1738.73
376.78	1845.22
376.99	1826.79
377.20	1912.80
377.40	1841.12
377.61	1974.24
377.82	1736.68
378.03	1908.71
378.24	1855.46
378.45	1804.26
378.66	1857.51
378.87	1769.44
379.08	1656.81
379.29	1781.73
379.50	1851.36
379.71	1849.32
379.91	1861.60
380.12	1820.64
380.33	1789.92
380.54	1824.74
380.75	1843.17
380.96	1787.88
381.17	1853.41
381.38	1847.27
381.59	1865.70
381.80	1869.80
382.00	2007.01
382.21	1933.28
382.42	1990.63
382.63	1957.86
382.84	1847.27
383.05	1935.33
383.26	1918.95
383.47	1898.47
383.68	1882.08
383.88	1800.16
384.09	1820.64
384.30	1947.62
384.51	1837.03
384.72	1800.16
384.93	1785.83
385.14	1791.97
385.35	1830.88
385.55	1806.31
385.76	1918.95
385.97	1839.08
386.18	1755.11
386.39	1816.55
386.60	1824.74
386.81	1820.64
387.02	1804.26
387.22	1771.49
387.43	1847.27
387.64	1916.90
387.85	1980.39
388.06	2105.31
388.27	4222.91
388.48	8865.66
388.68	11921.23
388.89	13885.23
389.10	14927.64
389.31	13203.25
389.52	10370.91
389.73	9127.80
389.93	8349.57
390.14	7610.25
390.35	6954.90
390.56	6391.71
390.77	5259.18
390.98	3887.04
391.18	3166.16
391.39	2410.46
391.60	2131.94
391.81	2041.82
392.02	1781.73
392.23	2041.82
392.43	1851.36
392.64	1980.39
392.85	1892.32
393.06	1908.71
393.27	1824.74
393.47	1783.78
393.68	1839.08
393.89	1796.07
394.10	1933.28
394.31	1703.91
394.52	1794.02
394.72	1740.77
394.93	1902.56
395.14	1746.92
395.35	1877.99
395.56	1816.55
395.76	1781.73
395.97	1902.56
396.18	1994.72
396.39	2029.54
396.60	2230.24
396.80	2131.94
397.01	2027.49
397.22	1923.04
397.43	1918.95
397.64	1908.71
397.84	1902.56
398.05	2095.07
398.26	1902.56
398.47	1916.90
398.67	1923.04
398.88	1828.84
399.09	1886.18
399.30	1796.07
399.51	1861.60
399.71	1736.68
399.92	1824.74
400.13	1824.74
400.34	1779.68
400.54	1853.41
400.75	2009.06
400.96	1906.66
401.17	1906.66
401.37	1910.75
401.58	1837.03
401.79	1832.93
402.00	1949.67
402.21	2154.46
402.41	2193.37
402.62	2269.15
402.83	2242.53
403.04	2258.91
403.24	2346.97
403.45	2002.91
403.66	2070.50
403.87	2072.54
404.07	1994.72
404.28	2062.30
404.49	2054.11
404.70	1918.95
404.90	1935.33
405.11	1824.74
405.32	1841.12
405.52	1869.80
405.73	1794.02
405.94	1773.54
406.15	1843.17
406.35	1892.32
406.56	1859.56
406.77	1804.26
406.98	1798.12
407.18	1755.11
407.39	1908.71
407.60	1785.83
407.80	1832.93
408.01	1779.68
408.22	1892.32
408.43	1785.83
408.63	1843.17
408.84	1871.84
409.05	1888.23
409.25	1769.44
409.46	1759.21
409.67	1871.84
409.88	1726.44
410.08	1824.74
410.29	1785.83
410.50	1880.04
410.70	1906.66
410.91	1722.34
411.12	1834.98
411.32	1843.17
411.53	1726.44
411.74	1937.38
411.95	1970.15
412.15	1939.43
412.36	1945.57
412.57	1884.13
412.77	1906.66
412.98	1894.37
413.19	1822.69
413.39	1820.64
413.60	1816.55
413.81	1947.62
414.01	1820.64
414.22	1880.04
414.43	1929.19
414.63	1789.92
414.84	1892.32
415.05	1808.36
415.25	1705.96
415.46	1910.75
415.67	1773.54
415.87	1867.75
416.08	1861.60
416.29	1779.68
416.49	1839.08
416.70	1800.16
416.91	1785.83
417.11	1753.06
417.32	1814.50
417.53	1857.51
417.73	1812.45
417.94	1812.45
418.15	1837.03
418.35	1845.22
418.56	1722.34
418.77	1931.23
418.97	1814.50
419.18	1877.99
419.38	1669.09
419.59	1746.92
419.80	1873.89
420.00	1837.03
420.21	1785.83
420.42	1902.56
420.62	1869.80
420.83	1798.12
421.04	1855.46
421.24	1785.83
421.45	1863.65
421.65	1875.94
421.86	1841.12
422.07	1869.80
422.27	1863.65
422.48	1699.81
422.69	1763.30
422.89	1775.59
423.10	1810.40
423.30	1771.49
423.51	1779.68
423.72	1865.70
423.92	1918.95
424.13	1693.67
424.33	1798.12
424.54	1783.78
424.75	1839.08
424.95	1933.28
425.16	1822.69
425.36	1824.74
425.57	1871.84
425.78	1824.74
425.98	1806.31
426.19	1791.97
426.39	1732.58
426.60	1867.75
426.81	1892.32
427.01	1771.49
427.22	1839.08
427.42	1730.53
427.63	1818.60
427.83	1894.37
428.04	1964.00
428.25	1908.71
428.45	1900.52
428.66	1929.19
428.86	1820.64
429.07	1810.40
429.28	1830.88
429.48	1800.16
429.69	1783.78
429.89	1800.16
430.10	1736.68
430.30	1871.84
430.51	1853.41
430.71	1802.21
430.92	1890.28
431.13	1865.70
431.33	1853.41
431.54	1810.40
431.74	1908.71
431.95	1890.28
432.15	1732.58
432.36	1810.40
432.56	1871.84
432.77	1906.66
432.98	1882.08
433.18	1818.60
433.39	1820.64
433.59	1705.96
433.80	1966.05
434.00	1941.47
434.21	1759.21
434.41	1759.21
434.62	1976.29
434.82	1738.73
435.03	1828.84
435.23	1900.52
435.44	1677.29
435.64	1798.12
435.85	1867.75
436.06	1892.32
436.26	1861.60
436.47	1880.04
436.67	1757.16
436.88	1816.55
437.08	1855.46
437.29	1961.95
437.49	1800.16
437.70	1910.75
437.90	1773.54
438.11	1894.37
438.31	1935.33
438.52	2037.73
438.72	1976.29
438.93	2099.17
439.13	1972.19
439.34	1929.19
439.54	1910.75
439.75	1914.85
439.95	1910.75
440.16	1814.50
440.36	1994.72
440.57	1923.04
440.77	1841.12
440.98	1933.28
441.18	1877.99
441.39	1775.59
441.59	1794.02
441.80	1990.63
442.00	1861.60
442.21	1916.90
442.41	1755.11
442.62	1859.56
442.82	1740.77
443.02	1867.75
443.23	1839.08
443.43	1806.31
443.64	2025.44
443.84	1787.88
444.05	1949.67
444.25	1798.12
444.46	1877.99
444.66	1771.49
444.87	2035.68
445.07	1791.97
445.28	1931.23
445.48	1894.37
445.69	1826.79
445.89	2009.06
446.09	1877.99
446.30	2136.03
446.50	2555.86
446.71	4179.90
446.91	5281.71
447.12	5986.21
447.32	6334.37
447.53	5681.07
447.73	4792.25
447.93	4212.67
448.14	3821.51
448.34	3645.38
448.55	3311.57
448.75	3323.85
448.96	3108.82
449.16	2676.70
449.36	2596.82
449.57	2250.72
449.77	2002.91
449.98	1880.04
450.18	2000.87
450.39	1968.10
450.59	1841.12
450.79	1927.14
451.00	1785.83
451.20	1959.91
451.41	1822.69
451.61	1861.60
451.81	1783.78
452.02	1814.50
452.22	1880.04
452.43	1865.70
452.63	1753.06
