SpectraSuite Data File
++++++++++++++++++++++++++++++++++++
Date: Wed May 04 21:13:47 CEST 2016
User: root
Dark Spectrum Present: No
Reference Spectrum Present: No
Number of Sampled Component Spectra: 1
Spectrometers: USB4C02835
Integration Time (usec): 100000 (USB4C02835)
Spectra Averaged: 1 (USB4C02835)
Boxcar Smoothing: 0 (USB4C02835)
Correct for Electrical Dark: No (USB4C02835)
Strobe/Lamp Enabled: No (USB4C02835)
Correct for Detector Non-linearity: No (USB4C02835)
Correct for Stray Light: No (USB4C02835)
Number of Pixels in Processed Spectrum: 3648
>>>>>Begin Processed Spectral Data<<<<<
177.47	1529.83
177.69	1529.83
177.91	1529.83
178.13	1562.60
178.36	1564.65
178.58	1742.82
178.80	1865.70
179.02	1732.58
179.24	1802.21
179.46	1855.46
179.68	1859.56
179.90	1867.75
180.13	1832.93
180.35	1810.40
180.57	1697.77
180.79	1880.04
181.01	1796.07
181.23	1810.40
181.45	1920.99
181.67	1892.32
181.90	1806.31
182.12	1662.95
182.34	1685.48
182.56	1863.65
182.78	1849.32
183.00	1783.78
183.22	1771.49
183.44	1757.16
183.66	1937.38
183.89	1822.69
184.11	1773.54
184.33	1746.92
184.55	1951.71
184.77	1824.74
184.99	1804.26
185.21	1714.15
185.43	1955.81
185.65	1761.25
185.87	1824.74
186.10	1994.72
186.32	1947.62
186.54	1839.08
186.76	1882.08
186.98	1863.65
187.20	1824.74
187.42	1816.55
187.64	1708.01
187.86	1818.60
188.08	1845.22
188.30	1755.11
188.52	1800.16
188.75	1857.51
188.97	1939.43
189.19	1759.21
189.41	1742.82
189.63	1884.13
189.85	1773.54
190.07	1781.73
190.29	1718.25
190.51	1779.68
190.73	1751.01
190.95	1834.98
191.17	1705.96
191.39	1699.81
191.61	1730.53
191.84	1740.77
192.06	1929.19
192.28	1716.20
192.50	1949.67
192.72	1789.92
192.94	1812.45
193.16	1849.32
193.38	1851.36
193.60	1726.44
193.82	1777.64
194.04	1892.32
194.26	1828.84
194.48	1818.60
194.70	1787.88
194.92	1765.35
195.14	1757.16
195.36	1814.50
195.58	1847.27
195.80	1781.73
196.02	1740.77
196.24	1800.16
196.46	1849.32
196.69	1816.55
196.91	1992.67
197.13	1804.26
197.35	1753.06
197.57	1869.80
197.79	1845.22
198.01	1869.80
198.23	1783.78
198.45	1894.37
198.67	1728.49
198.89	1744.87
199.11	1794.02
199.33	1740.77
199.55	1685.48
199.77	1847.27
199.99	1927.14
200.21	1787.88
200.43	1822.69
200.65	1728.49
200.87	1701.86
201.09	1785.83
201.31	1853.41
201.53	1873.89
201.75	1877.99
201.97	1839.08
202.19	1894.37
202.41	1920.99
202.63	1941.47
202.85	1855.46
203.07	1888.23
203.29	1722.34
203.51	1751.01
203.73	1744.87
203.95	2041.82
204.17	1757.16
204.39	1832.93
204.61	1767.40
204.83	1787.88
205.05	1777.64
205.27	1898.47
205.49	1834.98
205.71	1818.60
205.93	1869.80
206.15	1763.30
206.37	1808.36
206.59	1834.98
206.81	1730.53
207.03	1722.34
207.25	1710.05
207.47	1779.68
207.69	1796.07
207.91	1816.55
208.13	1902.56
208.34	1824.74
208.56	1695.72
208.78	1820.64
209.00	1818.60
209.22	1783.78
209.44	1804.26
209.66	1751.01
209.88	1808.36
210.10	1785.83
210.32	1779.68
210.54	1834.98
210.76	1763.30
210.98	1781.73
211.20	1693.67
211.42	1773.54
211.64	1877.99
211.86	1910.75
212.08	1865.70
212.30	1787.88
212.52	1808.36
212.74	1789.92
212.96	1759.21
213.17	1773.54
213.39	1787.88
213.61	1912.80
213.83	1769.44
214.05	1812.45
214.27	1871.84
214.49	1677.29
214.71	1826.79
214.93	1877.99
215.15	1789.92
215.37	1873.89
215.59	1755.11
215.81	1863.65
216.03	1910.75
216.24	1851.36
216.46	1808.36
216.68	1902.56
216.90	1824.74
217.12	1837.03
217.34	1777.64
217.56	1734.63
217.78	1859.56
218.00	1851.36
218.22	1794.02
218.44	1796.07
218.66	1875.94
218.87	1992.67
219.09	1779.68
219.31	1830.88
219.53	1863.65
219.75	1814.50
219.97	1710.05
220.19	1812.45
220.41	1779.68
220.63	1847.27
220.85	1820.64
221.06	1814.50
221.28	1955.81
221.50	1839.08
221.72	1800.16
221.94	1769.44
222.16	1812.45
222.38	1832.93
222.60	1898.47
222.82	1812.45
223.03	1804.26
223.25	1734.63
223.47	1914.85
223.69	1941.47
223.91	1839.08
224.13	1830.88
224.35	1740.77
224.57	1867.75
224.78	1849.32
225.00	1779.68
225.22	1839.08
225.44	1744.87
225.66	1873.89
225.88	1851.36
226.10	1847.27
226.32	1806.31
226.53	1863.65
226.75	1791.97
226.97	1839.08
227.19	1748.97
227.41	1785.83
227.63	1738.73
227.85	1724.39
228.06	1794.02
228.28	1814.50
228.50	1935.33
228.72	1800.16
228.94	1783.78
229.16	1726.44
229.37	1697.77
229.59	1775.59
229.81	1914.85
230.03	1877.99
230.25	1691.62
230.47	1748.97
230.69	1718.25
230.90	1824.74
231.12	1796.07
231.34	1787.88
231.56	1904.61
231.78	1726.44
232.00	1859.56
232.21	1773.54
232.43	1828.84
232.65	1720.29
232.87	1869.80
233.09	1748.97
233.30	1794.02
233.52	1843.17
233.74	1771.49
233.96	1845.22
234.18	1847.27
234.40	1865.70
234.61	1955.81
234.83	1677.29
235.05	1652.71
235.27	1941.47
235.49	1925.09
235.70	1800.16
235.92	1869.80
236.14	1886.18
236.36	1978.34
236.58	1720.29
236.79	1847.27
237.01	1812.45
237.23	1839.08
237.45	1976.29
237.67	1767.40
237.88	1851.36
238.10	1867.75
238.32	1728.49
238.54	1779.68
238.76	1804.26
238.97	1734.63
239.19	1808.36
239.41	1845.22
239.63	1783.78
239.85	1832.93
240.06	1845.22
240.28	1791.97
240.50	1853.41
240.72	1906.66
240.93	1777.64
241.15	1880.04
241.37	1820.64
241.59	1902.56
241.81	1824.74
242.02	1791.97
242.24	1806.31
242.46	1929.19
242.68	1755.11
242.89	1871.84
243.11	1822.69
243.33	1812.45
243.55	1841.12
243.76	1791.97
243.98	1830.88
244.20	1822.69
244.42	1779.68
244.64	1779.68
244.85	1697.77
245.07	1744.87
245.29	1873.89
245.51	1824.74
245.72	1781.73
245.94	1843.17
246.16	1759.21
246.38	1771.49
246.59	1839.08
246.81	1671.14
247.03	1785.83
247.24	1742.82
247.46	1785.83
247.68	1804.26
247.90	1810.40
248.11	1738.73
248.33	1929.19
248.55	1787.88
248.77	1734.63
248.98	1869.80
249.20	1953.76
249.42	1830.88
249.64	1814.50
249.85	1796.07
250.07	1740.77
250.29	1861.60
250.50	1853.41
250.72	1761.25
250.94	1832.93
251.16	1955.81
251.37	1806.31
251.59	1863.65
251.81	1828.84
252.02	1880.04
252.24	1705.96
252.46	1886.18
252.68	1787.88
252.89	1798.12
253.11	1687.53
253.33	1925.09
253.54	1904.61
253.76	1720.29
253.98	1730.53
254.20	1724.39
254.41	1744.87
254.63	1767.40
254.85	1738.73
255.06	1847.27
255.28	1867.75
255.50	1746.92
255.71	1791.97
255.93	1740.77
256.15	1804.26
256.36	1886.18
256.58	1777.64
256.80	1839.08
257.02	1703.91
257.23	1843.17
257.45	1783.78
257.67	1847.27
257.88	1757.16
258.10	1767.40
258.32	1757.16
258.53	1779.68
258.75	1910.75
258.97	1824.74
259.18	1773.54
259.40	1738.73
259.62	1953.76
259.83	1929.19
260.05	1800.16
260.27	2156.51
260.48	1896.42
260.70	1787.88
260.92	1775.59
261.13	1839.08
261.35	1824.74
261.57	1804.26
261.78	1785.83
262.00	1716.20
262.22	1865.70
262.43	1697.77
262.65	1828.84
262.86	1796.07
263.08	1904.61
263.30	1902.56
263.51	1765.35
263.73	1738.73
263.95	1875.94
264.16	1746.92
264.38	1781.73
264.60	1783.78
264.81	1816.55
265.03	1906.66
265.25	1871.84
265.46	1791.97
265.68	1880.04
265.89	1865.70
266.11	1667.05
266.33	1869.80
266.54	1855.46
266.76	1816.55
266.98	1824.74
267.19	1923.04
267.41	1798.12
267.62	1800.16
267.84	1755.11
268.06	1818.60
268.27	1859.56
268.49	1822.69
268.70	1898.47
268.92	1751.01
269.14	1773.54
269.35	1656.81
269.57	1808.36
269.79	1834.98
270.00	1785.83
270.22	1959.91
270.43	1703.91
270.65	1681.38
270.87	1832.93
271.08	1808.36
271.30	1845.22
271.51	1837.03
271.73	1814.50
271.95	1935.33
272.16	1791.97
272.38	1818.60
272.59	1734.63
272.81	1892.32
273.02	1720.29
273.24	1785.83
273.46	1882.08
273.67	1724.39
273.89	1759.21
274.10	1757.16
274.32	1847.27
274.54	1865.70
274.75	1845.22
274.97	1730.53
275.18	1798.12
275.40	1888.23
275.61	1843.17
275.83	1873.89
276.05	1705.96
276.26	1849.32
276.48	1890.28
276.69	1746.92
276.91	1748.97
277.12	1902.56
277.34	1877.99
277.55	1941.47
277.77	1806.31
277.99	1742.82
278.20	1728.49
278.42	1705.96
278.63	1769.44
278.85	1746.92
279.06	1730.53
279.28	1861.60
279.49	1957.86
279.71	1914.85
279.93	1771.49
280.14	1818.60
280.36	1783.78
280.57	1863.65
280.79	1871.84
281.00	1824.74
281.22	1722.34
281.43	1869.80
281.65	1738.73
281.86	1708.01
282.08	1820.64
282.29	1869.80
282.51	1740.77
282.73	1816.55
282.94	1699.81
283.16	1822.69
283.37	1947.62
283.59	1839.08
283.80	1880.04
284.02	1847.27
284.23	1873.89
284.45	1851.36
284.66	1753.06
284.88	1726.44
285.09	1875.94
285.31	1877.99
285.52	1849.32
285.74	1669.09
285.95	1814.50
286.17	1828.84
286.38	1853.41
286.60	1826.79
286.81	1775.59
287.03	1763.30
287.24	1787.88
287.46	1808.36
287.67	1814.50
287.89	1961.95
288.10	1808.36
288.32	1779.68
288.53	1849.32
288.75	1783.78
288.96	1828.84
289.18	1789.92
289.39	1769.44
289.61	1884.13
289.82	1980.39
290.04	2000.87
290.25	1720.29
290.47	1789.92
290.68	1820.64
290.90	1810.40
291.11	1800.16
291.33	1877.99
291.54	1832.93
291.76	1736.68
291.97	1865.70
292.18	1806.31
292.40	1837.03
292.61	1789.92
292.83	2013.15
293.04	1869.80
293.26	1845.22
293.47	1816.55
293.69	1673.19
293.90	1818.60
294.12	1859.56
294.33	1845.22
294.55	1794.02
294.76	1904.61
294.97	1918.95
295.19	1906.66
295.40	1884.13
295.62	1888.23
295.83	1855.46
296.05	1755.11
296.26	1875.94
296.48	1765.35
296.69	1787.88
296.90	1863.65
297.12	1802.21
297.33	1884.13
297.55	1806.31
297.76	1863.65
297.98	1820.64
298.19	1808.36
298.41	1722.34
298.62	1730.53
298.83	1925.09
299.05	1773.54
299.26	1812.45
299.48	1730.53
299.69	1808.36
299.90	1806.31
300.12	1748.97
300.33	1837.03
300.55	1808.36
300.76	1794.02
300.98	1773.54
301.19	1841.12
301.40	1775.59
301.62	1830.88
301.83	1771.49
302.05	1785.83
302.26	1765.35
302.47	1867.75
302.69	1781.73
302.90	1939.43
303.12	1673.19
303.33	1851.36
303.54	1980.39
303.76	1828.84
303.97	1847.27
304.19	1861.60
304.40	1777.64
304.61	1832.93
304.83	1916.90
305.04	1853.41
305.26	1865.70
305.47	1886.18
305.68	1820.64
305.90	1708.01
306.11	1830.88
306.33	1791.97
306.54	1775.59
306.75	1685.48
306.97	1734.63
307.18	1736.68
307.39	1736.68
307.61	1902.56
307.82	1830.88
308.04	1751.01
308.25	1800.16
308.46	1845.22
308.68	1845.22
308.89	1859.56
309.10	1851.36
309.32	1816.55
309.53	1834.98
309.74	1877.99
309.96	1761.25
310.17	1845.22
310.39	1822.69
310.60	1822.69
310.81	1820.64
311.03	1742.82
311.24	1898.47
311.45	1794.02
311.67	1925.09
311.88	1810.40
312.09	1746.92
312.31	1775.59
312.52	1800.16
312.73	1791.97
312.95	1753.06
313.16	1785.83
313.37	1923.04
313.59	1814.50
313.80	1773.54
314.01	1933.28
314.23	1806.31
314.44	1738.73
314.65	1718.25
314.87	1767.40
315.08	1832.93
315.29	1783.78
315.51	1791.97
315.72	1746.92
315.93	1933.28
316.15	1865.70
316.36	1734.63
316.57	1824.74
316.79	1865.70
317.00	1734.63
317.21	1824.74
317.43	1791.97
317.64	1761.25
317.85	1763.30
318.07	1746.92
318.28	1818.60
318.49	2000.87
318.70	1990.63
318.92	1980.39
319.13	2002.91
319.34	2004.96
319.56	1890.28
319.77	1959.91
319.98	2033.63
320.20	1925.09
320.41	1914.85
320.62	1916.90
320.83	1755.11
321.05	1998.82
321.26	1787.88
321.47	1802.21
321.69	1867.75
321.90	1730.53
322.11	1841.12
322.32	1849.32
322.54	1906.66
322.75	1841.12
322.96	1923.04
323.18	1734.63
323.39	1736.68
323.60	1744.87
323.81	1898.47
324.03	1822.69
324.24	1798.12
324.45	1705.96
324.66	1757.16
324.88	1804.26
325.09	1941.47
325.30	1796.07
325.52	1839.08
325.73	1832.93
325.94	1796.07
326.15	1728.49
326.37	1890.28
326.58	1832.93
326.79	1890.28
327.00	1761.25
327.22	1832.93
327.43	1822.69
327.64	1748.97
327.85	1925.09
328.07	1863.65
328.28	1953.76
328.49	1808.36
328.70	1791.97
328.92	1802.21
329.13	1789.92
329.34	1871.84
329.55	1925.09
329.76	1974.24
329.98	1888.23
330.19	1867.75
330.40	1783.78
330.61	1859.56
330.83	1912.80
331.04	1730.53
331.25	1845.22
331.46	1738.73
331.68	1679.33
331.89	1873.89
332.10	1849.32
332.31	1732.58
332.52	1820.64
332.74	1863.65
332.95	1708.01
333.16	1759.21
333.37	1798.12
333.58	1767.40
333.80	1767.40
334.01	1714.15
334.22	1828.84
334.43	1779.68
334.64	1775.59
334.86	1673.19
335.07	1779.68
335.28	1818.60
335.49	1720.29
335.70	1888.23
335.92	1816.55
336.13	1961.95
336.34	1865.70
336.55	1798.12
336.76	1839.08
336.98	1685.48
337.19	1757.16
337.40	1880.04
337.61	1988.58
337.82	1806.31
338.04	1800.16
338.25	1701.86
338.46	1767.40
338.67	1820.64
338.88	1705.96
339.09	1802.21
339.31	1767.40
339.52	1742.82
339.73	1714.15
339.94	1810.40
340.15	1841.12
340.36	1757.16
340.58	1828.84
340.79	1818.60
341.00	1824.74
341.21	1777.64
341.42	1865.70
341.63	1804.26
341.85	1943.52
342.06	1894.37
342.27	1761.25
342.48	1920.99
342.69	1757.16
342.90	1841.12
343.12	1806.31
343.33	1808.36
343.54	1828.84
343.75	1920.99
343.96	1818.60
344.17	1761.25
344.38	1740.77
344.60	1820.64
344.81	1769.44
345.02	1775.59
345.23	1845.22
345.44	1923.04
345.65	1894.37
345.86	1877.99
346.07	1785.83
346.29	1761.25
346.50	1830.88
346.71	1855.46
346.92	1875.94
347.13	1912.80
347.34	1802.21
347.55	1841.12
347.76	1894.37
347.98	1722.34
348.19	1794.02
348.40	1877.99
348.61	1820.64
348.82	1853.41
349.03	1894.37
349.24	1751.01
349.45	1920.99
349.66	1697.77
349.88	1720.29
350.09	1791.97
350.30	1910.75
350.51	1880.04
350.72	1908.71
350.93	1841.12
351.14	1777.64
351.35	1837.03
351.56	1787.88
351.77	1777.64
351.99	1828.84
352.20	1888.23
352.41	1916.90
352.62	1748.97
352.83	1773.54
353.04	1841.12
353.25	1814.50
353.46	1896.42
353.67	1806.31
353.88	1732.58
354.09	1794.02
354.30	1847.27
354.52	1796.07
354.73	1818.60
354.94	1718.25
355.15	1779.68
355.36	1955.81
355.57	1761.25
355.78	1785.83
355.99	1755.11
356.20	1796.07
356.41	1935.33
356.62	1847.27
356.83	1798.12
357.04	1920.99
357.25	1800.16
357.46	1773.54
357.68	1683.43
357.89	1791.97
358.10	1785.83
358.31	1810.40
358.52	1814.50
358.73	1757.16
358.94	1794.02
359.15	1824.74
359.36	1873.89
359.57	1884.13
359.78	1779.68
359.99	1853.41
360.20	1771.49
360.41	1826.79
360.62	1898.47
360.83	1812.45
361.04	1796.07
361.25	1892.32
361.46	1808.36
361.67	1845.22
361.88	1798.12
362.09	1904.61
362.30	1814.50
362.51	1701.86
362.72	1746.92
362.93	1884.13
363.14	1861.60
363.35	1828.84
363.56	1789.92
363.78	1906.66
363.99	1798.12
364.20	1798.12
364.41	1888.23
364.62	1939.43
364.83	1834.98
365.04	1808.36
365.25	1800.16
365.46	1957.86
365.67	1734.63
365.88	1861.60
366.09	1853.41
366.30	1800.16
366.51	1781.73
366.72	1755.11
366.93	1814.50
367.14	1828.84
367.35	1845.22
367.56	1753.06
367.77	1914.85
367.98	1802.21
368.18	1873.89
368.39	1947.62
368.60	1761.25
368.81	1875.94
369.02	1855.46
369.23	1800.16
369.44	1722.34
369.65	1763.30
369.86	1812.45
370.07	1890.28
370.28	1759.21
370.49	1834.98
370.70	1906.66
370.91	1802.21
371.12	1695.72
371.33	1894.37
371.54	1718.25
371.75	1927.14
371.96	1794.02
372.17	1861.60
372.38	1802.21
372.59	1882.08
372.80	1830.88
373.01	1787.88
373.22	1875.94
373.43	1828.84
373.64	1767.40
373.85	1853.41
374.06	1982.43
374.26	1896.42
374.47	1804.26
374.68	1882.08
374.89	1800.16
375.10	1800.16
375.31	1894.37
375.52	1841.12
375.73	1873.89
375.94	1800.16
376.15	1933.28
376.36	1763.30
376.57	1794.02
376.78	1683.43
376.99	1861.60
377.20	1927.14
377.40	1777.64
377.61	1918.95
377.82	1728.49
378.03	1904.61
378.24	1863.65
378.45	1873.89
378.66	1800.16
378.87	1751.01
379.08	1708.01
379.29	1816.55
379.50	1918.95
379.71	1832.93
379.91	1861.60
380.12	1746.92
380.33	1853.41
380.54	1820.64
380.75	1789.92
380.96	1853.41
381.17	1867.75
381.38	1847.27
381.59	1886.18
381.80	1787.88
382.00	2029.54
382.21	1908.71
382.42	2039.78
382.63	2060.26
382.84	1855.46
383.05	1929.19
383.26	1935.33
383.47	1853.41
383.68	1794.02
383.88	1777.64
384.09	1853.41
384.30	1925.09
384.51	1794.02
384.72	1771.49
384.93	1769.44
385.14	1830.88
385.35	1890.28
385.55	1738.73
385.76	1943.52
385.97	1830.88
386.18	1810.40
386.39	1806.31
386.60	1763.30
386.81	1785.83
387.02	1746.92
387.22	1722.34
387.43	1839.08
387.64	1957.86
387.85	1988.58
388.06	2222.05
388.27	4288.45
388.48	8927.10
388.68	11777.87
388.89	13981.48
389.10	14782.24
389.31	13354.80
389.52	10534.75
389.73	9088.89
389.93	8277.89
390.14	7612.30
390.35	6952.85
390.56	6215.59
390.77	5142.45
390.98	3987.40
391.18	3057.62
391.39	2500.57
391.60	2078.69
391.81	1996.77
392.02	1763.30
392.23	1906.66
392.43	1834.98
392.64	1918.95
392.85	1849.32
393.06	1929.19
393.27	1785.83
393.47	1769.44
393.68	1804.26
393.89	1751.01
394.10	1890.28
394.31	1822.69
394.52	1757.16
394.72	1791.97
394.93	2004.96
395.14	1794.02
395.35	1851.36
395.56	1736.68
395.76	1806.31
395.97	1892.32
396.18	2033.63
396.39	1959.91
396.60	2224.09
396.80	2107.36
397.01	2000.87
397.22	2029.54
397.43	1929.19
397.64	1894.37
397.84	1900.52
398.05	1980.39
398.26	1953.76
398.47	1927.14
398.67	1859.56
398.88	1828.84
399.09	1822.69
399.30	1771.49
399.51	1820.64
399.71	1730.53
399.92	1816.55
400.13	1824.74
400.34	1769.44
400.54	1820.64
400.75	1918.95
400.96	1814.50
401.17	1966.05
401.37	1806.31
401.58	1767.40
401.79	1849.32
402.00	1937.38
402.21	2263.01
402.41	2213.85
402.62	2267.10
402.83	2320.35
403.04	2263.01
403.24	2385.88
403.45	2033.63
403.66	2117.60
403.87	2023.39
404.07	2117.60
404.28	2078.69
404.49	2021.35
404.70	1853.41
404.90	1959.91
405.11	1882.08
405.32	1877.99
405.52	1855.46
405.73	1785.83
405.94	1761.25
406.15	1816.55
406.35	1834.98
406.56	1851.36
406.77	1867.75
406.98	1847.27
407.18	1843.17
407.39	1904.61
407.60	1787.88
407.80	1863.65
408.01	1773.54
408.22	1851.36
408.43	1767.40
408.63	1796.07
408.84	1892.32
409.05	1818.60
409.25	1769.44
409.46	1759.21
409.67	1820.64
409.88	1841.12
410.08	1800.16
410.29	1757.16
410.50	1880.04
410.70	1783.78
410.91	1744.87
411.12	1900.52
411.32	1751.01
411.53	1759.21
411.74	1939.43
411.95	1931.23
412.15	1890.28
412.36	1869.80
412.57	1935.33
412.77	1947.62
412.98	1751.01
413.19	1800.16
413.39	1896.42
413.60	1830.88
413.81	1871.84
414.01	1787.88
414.22	1861.60
414.43	1886.18
414.63	1804.26
414.84	1882.08
415.05	1861.60
415.25	1773.54
415.46	1861.60
415.67	1820.64
415.87	1890.28
416.08	1773.54
416.29	1775.59
416.49	1808.36
416.70	1814.50
416.91	1861.60
417.11	1759.21
417.32	1820.64
417.53	1966.05
417.73	1808.36
417.94	1820.64
418.15	1845.22
418.35	1863.65
418.56	1818.60
418.77	1972.19
418.97	1832.93
419.18	1822.69
419.38	1669.09
419.59	1781.73
419.80	1857.51
420.00	1894.37
420.21	1761.25
420.42	1877.99
420.62	1837.03
420.83	1779.68
421.04	1783.78
421.24	1822.69
421.45	1863.65
421.65	1880.04
421.86	1779.68
422.07	1820.64
422.27	1837.03
422.48	1873.89
422.69	1757.16
422.89	1785.83
423.10	1849.32
423.30	1767.40
423.51	1812.45
423.72	1734.63
423.92	1894.37
424.13	1767.40
424.33	1828.84
424.54	1851.36
424.75	1843.17
424.95	1949.67
425.16	1837.03
425.36	1828.84
425.57	1906.66
425.78	1902.56
425.98	1880.04
426.19	1796.07
426.39	1732.58
426.60	1906.66
426.81	1945.57
427.01	1830.88
427.22	1789.92
427.42	1722.34
427.63	1787.88
427.83	1853.41
428.04	1906.66
428.25	1865.70
428.45	1931.23
428.66	1918.95
428.86	1853.41
429.07	1816.55
429.28	1861.60
429.48	1841.12
429.69	1730.53
429.89	1839.08
430.10	1810.40
430.30	1861.60
430.51	1902.56
430.71	1736.68
430.92	1773.54
431.13	1837.03
431.33	1814.50
431.54	1834.98
431.74	1890.28
431.95	1988.58
432.15	1804.26
432.36	1794.02
432.56	1857.51
432.77	1961.95
432.98	1959.91
433.18	1812.45
433.39	1796.07
433.59	1787.88
433.80	1871.84
434.00	1925.09
434.21	1804.26
434.41	1775.59
434.62	1961.95
434.82	1775.59
435.03	1724.39
435.23	1748.97
435.44	1714.15
435.64	1806.31
435.85	1865.70
436.06	1834.98
436.26	1830.88
436.47	1777.64
436.67	1777.64
436.88	1759.21
437.08	1957.86
437.29	1937.38
437.49	1882.08
437.70	1939.43
437.90	1822.69
438.11	1923.04
438.31	1886.18
438.52	2015.20
438.72	1912.80
438.93	2084.83
439.13	2017.25
439.34	1947.62
439.54	1818.60
439.75	1894.37
439.95	1888.23
440.16	1851.36
440.36	1918.95
440.57	1884.13
440.77	1855.46
440.98	1822.69
441.18	1863.65
441.39	1779.68
441.59	1751.01
441.80	1894.37
442.00	1882.08
442.21	1841.12
442.41	1798.12
442.62	1888.23
442.82	1814.50
443.02	1861.60
443.23	1834.98
443.43	1867.75
443.64	1959.91
443.84	1837.03
444.05	1902.56
444.25	1763.30
444.46	1902.56
444.66	1882.08
444.87	1951.71
445.07	1718.25
445.28	1837.03
445.48	1923.04
445.69	1837.03
445.89	2072.54
446.09	1816.55
446.30	2082.78
446.50	2566.10
446.71	4140.99
446.91	5234.61
447.12	6002.60
447.32	6231.97
447.53	5828.52
447.73	4695.99
447.93	4102.08
448.14	3741.64
448.34	3674.06
448.55	3311.57
448.75	3117.01
448.96	3166.16
449.16	2742.23
449.36	2447.32
449.57	2222.05
449.77	2043.87
449.98	1890.28
450.18	1898.47
450.39	1855.46
450.59	1880.04
450.79	1849.32
451.00	1814.50
451.20	1857.51
451.41	1816.55
451.61	1871.84
451.81	1839.08
452.02	1802.21
452.22	1818.60
452.43	1744.87
452.63	1796.07
