SpectraSuite Data File
++++++++++++++++++++++++++++++++++++
Date: Wed May 04 21:13:21 CEST 2016
User: root
Dark Spectrum Present: No
Reference Spectrum Present: No
Number of Sampled Component Spectra: 1
Spectrometers: USB4C02835
Integration Time (usec): 100000 (USB4C02835)
Spectra Averaged: 1 (USB4C02835)
Boxcar Smoothing: 0 (USB4C02835)
Correct for Electrical Dark: No (USB4C02835)
Strobe/Lamp Enabled: No (USB4C02835)
Correct for Detector Non-linearity: No (USB4C02835)
Correct for Stray Light: No (USB4C02835)
Number of Pixels in Processed Spectrum: 3648
>>>>>Begin Processed Spectral Data<<<<<
177.47	1499.11
177.69	1499.11
177.91	1499.11
178.13	1492.97
178.36	1550.31
178.58	1773.54
178.80	1847.27
179.02	1724.39
179.24	1839.08
179.46	1775.59
179.68	1814.50
179.90	1837.03
180.13	1859.56
180.35	1787.88
180.57	1800.16
180.79	1927.14
181.01	1798.12
181.23	1890.28
181.45	1847.27
181.67	1871.84
181.90	1865.70
182.12	1779.68
182.34	1738.73
182.56	1873.89
182.78	1785.83
183.00	1779.68
183.22	1841.12
183.44	1730.53
183.66	1994.72
183.89	1931.23
184.11	1826.79
184.33	1798.12
184.55	1861.60
184.77	1781.73
184.99	1828.84
185.21	1718.25
185.43	1974.24
185.65	1812.45
185.87	1791.97
186.10	1988.58
186.32	1927.14
186.54	1837.03
186.76	1843.17
186.98	1892.32
187.20	1832.93
187.42	1771.49
187.64	1873.89
187.86	1837.03
188.08	1871.84
188.30	1796.07
188.52	1830.88
188.75	1867.75
188.97	1943.52
189.19	1732.58
189.41	1730.53
189.63	1910.75
189.85	1783.78
190.07	1708.01
190.29	1781.73
190.51	1771.49
190.73	1843.17
190.95	1865.70
191.17	1781.73
191.39	1708.01
191.61	1832.93
191.84	1812.45
192.06	1861.60
192.28	1748.97
192.50	1943.52
192.72	1812.45
192.94	1837.03
193.16	1834.98
193.38	1845.22
193.60	1724.39
193.82	1816.55
194.04	1855.46
194.26	1832.93
194.48	1804.26
194.70	1746.92
194.92	1769.44
195.14	1837.03
195.36	1808.36
195.58	1732.58
195.80	1787.88
196.02	1738.73
196.24	1871.84
196.46	1789.92
196.69	1734.63
196.91	2084.83
197.13	1812.45
197.35	1765.35
197.57	1955.81
197.79	1839.08
198.01	1902.56
198.23	1886.18
198.45	1814.50
198.67	1740.77
198.89	1751.01
199.11	1828.84
199.33	1708.01
199.55	1693.67
199.77	1748.97
199.99	1843.17
200.21	1779.68
200.43	1849.32
200.65	1712.10
200.87	1703.91
201.09	1804.26
201.31	1773.54
201.53	1814.50
201.75	1892.32
201.97	1804.26
202.19	1804.26
202.41	1826.79
202.63	1939.43
202.85	1923.04
203.07	1804.26
203.29	1787.88
203.51	1708.01
203.73	1736.68
203.95	1914.85
204.17	1744.87
204.39	1761.25
204.61	1769.44
204.83	1789.92
205.05	1859.56
205.27	1882.08
205.49	1880.04
205.71	1820.64
205.93	1701.86
206.15	1681.38
206.37	1882.08
206.59	1855.46
206.81	1640.42
207.03	1759.21
207.25	1781.73
207.47	1918.95
207.69	1849.32
207.91	1904.61
208.13	1923.04
208.34	1822.69
208.56	1716.20
208.78	1845.22
209.00	1830.88
209.22	1804.26
209.44	1839.08
209.66	1773.54
209.88	1763.30
210.10	1720.29
210.32	1863.65
210.54	1918.95
210.76	1873.89
210.98	1894.37
211.20	1632.23
211.42	1800.16
211.64	1910.75
211.86	1843.17
212.08	1861.60
212.30	1787.88
212.52	1763.30
212.74	1837.03
212.96	1847.27
213.17	1847.27
213.39	1834.98
213.61	1869.80
213.83	1812.45
214.05	1771.49
214.27	1873.89
214.49	1738.73
214.71	1820.64
214.93	1923.04
215.15	1798.12
215.37	1884.13
215.59	1740.77
215.81	1865.70
216.03	1859.56
216.24	1812.45
216.46	1781.73
216.68	1859.56
216.90	1834.98
217.12	1855.46
217.34	1779.68
217.56	1837.03
217.78	1859.56
218.00	1845.22
218.22	1796.07
218.44	1791.97
218.66	1714.15
218.87	1953.76
219.09	1808.36
219.31	1865.70
219.53	1869.80
219.75	1722.34
219.97	1789.92
220.19	1861.60
220.41	1736.68
220.63	1937.38
220.85	1830.88
221.06	1777.64
221.28	1800.16
221.50	1863.65
221.72	1806.31
221.94	1816.55
222.16	1849.32
222.38	1804.26
222.60	1787.88
222.82	1845.22
223.03	1806.31
223.25	1712.10
223.47	1828.84
223.69	2002.91
223.91	1830.88
224.13	1736.68
224.35	1832.93
224.57	1875.94
224.78	1945.57
225.00	1810.40
225.22	1808.36
225.44	1832.93
225.66	1898.47
225.88	1787.88
226.10	1900.52
226.32	1787.88
226.53	1898.47
226.75	1796.07
226.97	1847.27
227.19	1753.06
227.41	1728.49
227.63	1761.25
227.85	1740.77
228.06	1832.93
228.28	1853.41
228.50	1724.39
228.72	1708.01
228.94	1863.65
229.16	1714.15
229.37	1771.49
229.59	1781.73
229.81	1888.23
230.03	1748.97
230.25	1730.53
230.47	1751.01
230.69	1681.38
230.90	1816.55
231.12	1724.39
231.34	1751.01
231.56	1916.90
231.78	1716.20
232.00	1787.88
232.21	1832.93
232.43	1814.50
232.65	1736.68
232.87	1853.41
233.09	1722.34
233.30	1722.34
233.52	1843.17
233.74	1804.26
233.96	1779.68
234.18	1794.02
234.40	1892.32
234.61	1931.23
234.83	1716.20
235.05	1730.53
235.27	1998.82
235.49	1816.55
235.70	1742.82
235.92	1918.95
236.14	1820.64
236.36	2021.35
236.58	1789.92
236.79	1822.69
237.01	1847.27
237.23	1806.31
237.45	1943.52
237.67	1796.07
237.88	1808.36
238.10	1910.75
238.32	1689.57
238.54	1726.44
238.76	1849.32
238.97	1804.26
239.19	1761.25
239.41	1849.32
239.63	1923.04
239.85	1812.45
240.06	1804.26
240.28	1787.88
240.50	1828.84
240.72	1849.32
240.93	1877.99
241.15	1863.65
241.37	1884.13
241.59	1912.80
241.81	1822.69
242.02	1761.25
242.24	1894.37
242.46	1894.37
242.68	1757.16
242.89	1812.45
243.11	1857.51
243.33	1812.45
243.55	1861.60
243.76	1943.52
243.98	1759.21
244.20	1783.78
244.42	1857.51
244.64	1789.92
244.85	1759.21
245.07	1753.06
245.29	1908.71
245.51	1830.88
245.72	1808.36
245.94	1941.47
246.16	1796.07
246.38	1914.85
246.59	1738.73
246.81	1755.11
247.03	1814.50
247.24	1695.72
247.46	1730.53
247.68	1810.40
247.90	1781.73
248.11	1767.40
248.33	1859.56
248.55	1773.54
248.77	1886.18
248.98	1855.46
249.20	1955.81
249.42	1828.84
249.64	1851.36
249.85	1765.35
250.07	1783.78
250.29	1816.55
250.50	1880.04
250.72	1751.01
250.94	1779.68
251.16	1935.33
251.37	1814.50
251.59	1804.26
251.81	1839.08
252.02	1914.85
252.24	1742.82
252.46	1935.33
252.68	1697.77
252.89	1777.64
253.11	1693.67
253.33	1859.56
253.54	1851.36
253.76	1783.78
253.98	1796.07
254.20	1886.18
254.41	1728.49
254.63	1730.53
254.85	1724.39
255.06	1777.64
255.28	1804.26
255.50	1890.28
255.71	1775.59
255.93	1673.19
256.15	1832.93
256.36	1791.97
256.58	1789.92
256.80	1839.08
257.02	1787.88
257.23	1794.02
257.45	1787.88
257.67	1873.89
257.88	1714.15
258.10	1771.49
258.32	1865.70
258.53	1861.60
258.75	1918.95
258.97	1777.64
259.18	1816.55
259.40	1877.99
259.62	1929.19
259.83	1888.23
260.05	1832.93
260.27	2095.07
260.48	1904.61
260.70	1775.59
260.92	1826.79
261.13	1828.84
261.35	1832.93
261.57	1837.03
261.78	1691.62
262.00	1718.25
262.22	1841.12
262.43	1773.54
262.65	1771.49
262.86	1814.50
263.08	2031.58
263.30	1914.85
263.51	1800.16
263.73	1779.68
263.95	1847.27
264.16	1818.60
264.38	1789.92
264.60	1865.70
264.81	1789.92
265.03	1791.97
265.25	1826.79
265.46	1800.16
265.68	1863.65
265.89	1830.88
266.11	1595.37
266.33	1859.56
266.54	1869.80
266.76	1853.41
266.98	1880.04
267.19	1904.61
267.41	1847.27
267.62	1697.77
267.84	1718.25
268.06	1843.17
268.27	1757.16
268.49	1816.55
268.70	1875.94
268.92	1828.84
269.14	1753.06
269.35	1714.15
269.57	1796.07
269.79	1894.37
270.00	1695.72
270.22	1986.53
270.43	1767.40
270.65	1687.53
270.87	1777.64
271.08	1824.74
271.30	1771.49
271.51	1798.12
271.73	1779.68
271.95	1927.14
272.16	1877.99
272.38	1748.97
272.59	1748.97
272.81	1867.75
273.02	1843.17
273.24	1869.80
273.46	1908.71
273.67	1800.16
273.89	1808.36
274.10	1714.15
274.32	1894.37
274.54	1923.04
274.75	1869.80
274.97	1798.12
275.18	1900.52
275.40	1882.08
275.61	1804.26
275.83	1816.55
276.05	1722.34
276.26	1787.88
276.48	1871.84
276.69	1761.25
276.91	1775.59
277.12	1912.80
277.34	1912.80
277.55	1845.22
277.77	1826.79
277.99	1736.68
278.20	1755.11
278.42	1751.01
278.63	1785.83
278.85	1798.12
279.06	1650.66
279.28	1869.80
279.49	1959.91
279.71	1888.23
279.93	1824.74
280.14	1804.26
280.36	1800.16
280.57	1837.03
280.79	1910.75
281.00	1841.12
281.22	1732.58
281.43	1904.61
281.65	1681.38
281.86	1783.78
282.08	1804.26
282.29	1910.75
282.51	1738.73
282.73	1724.39
282.94	1683.43
283.16	1837.03
283.37	1871.84
283.59	1812.45
283.80	1849.32
284.02	1748.97
284.23	1781.73
284.45	1837.03
284.66	1775.59
284.88	1763.30
285.09	1783.78
285.31	1853.41
285.52	1867.75
285.74	1726.44
285.95	1884.13
286.17	1843.17
286.38	1843.17
286.60	1775.59
286.81	1783.78
287.03	1781.73
287.24	1804.26
287.46	1869.80
287.67	1847.27
287.89	1925.09
288.10	1843.17
288.32	1812.45
288.53	1882.08
288.75	1812.45
288.96	1845.22
289.18	1804.26
289.39	1785.83
289.61	1863.65
289.82	1955.81
290.04	1947.62
290.25	1761.25
290.47	1865.70
290.68	1812.45
290.90	1796.07
291.11	1738.73
291.33	1812.45
291.54	1722.34
291.76	1853.41
291.97	1802.21
292.18	1847.27
292.40	1818.60
292.61	1787.88
292.83	1986.53
293.04	1855.46
293.26	1843.17
293.47	1710.05
293.69	1822.69
293.90	1853.41
294.12	1886.18
294.33	1816.55
294.55	1890.28
294.76	1927.14
294.97	1945.57
295.19	1931.23
295.40	1779.68
295.62	1839.08
295.83	1861.60
296.05	1675.24
296.26	1884.13
296.48	1728.49
296.69	1798.12
296.90	1732.58
297.12	1873.89
297.33	1955.81
297.55	1794.02
297.76	1812.45
297.98	1943.52
298.19	1820.64
298.41	1806.31
298.62	1783.78
298.83	1892.32
299.05	1767.40
299.26	1800.16
299.48	1769.44
299.69	1822.69
299.90	1824.74
300.12	1705.96
300.33	1861.60
300.55	1861.60
300.76	1845.22
300.98	1755.11
301.19	1894.37
301.40	1773.54
301.62	1740.77
301.83	1730.53
302.05	1877.99
302.26	1851.36
302.47	1794.02
302.69	1771.49
302.90	1882.08
303.12	1695.72
303.33	1880.04
303.54	1908.71
303.76	1791.97
303.97	1863.65
304.19	1943.52
304.40	1775.59
304.61	1894.37
304.83	1853.41
305.04	1830.88
305.26	1884.13
305.47	1832.93
305.68	1855.46
305.90	1746.92
306.11	1880.04
306.33	1712.10
306.54	1724.39
306.75	1783.78
306.97	1732.58
307.18	1761.25
307.39	1820.64
307.61	1873.89
307.82	1806.31
308.04	1812.45
308.25	1806.31
308.46	1783.78
308.68	1755.11
308.89	1761.25
309.10	1871.84
309.32	1830.88
309.53	1818.60
309.74	1832.93
309.96	1837.03
310.17	1898.47
310.39	1736.68
310.60	1822.69
310.81	1841.12
311.03	1738.73
311.24	1824.74
311.45	1791.97
311.67	1925.09
311.88	1894.37
312.09	1796.07
312.31	1732.58
312.52	1757.16
312.73	1748.97
312.95	1791.97
313.16	1761.25
313.37	1886.18
313.59	1832.93
313.80	1853.41
314.01	1933.28
314.23	1744.87
314.44	1734.63
314.65	1734.63
314.87	1787.88
315.08	1771.49
315.29	1804.26
315.51	1701.86
315.72	1755.11
315.93	1912.80
316.15	1765.35
316.36	1810.40
316.57	1853.41
316.79	1869.80
317.00	1695.72
317.21	1794.02
317.43	1734.63
317.64	1783.78
317.85	1765.35
318.07	1771.49
318.28	1916.90
318.49	1877.99
318.70	2047.97
318.92	2021.35
319.13	2047.97
319.34	2076.64
319.56	1953.76
319.77	1894.37
319.98	1943.52
320.20	1949.67
320.41	1959.91
320.62	1857.51
320.83	1716.20
321.05	1964.00
321.26	1785.83
321.47	1896.42
321.69	1824.74
321.90	1742.82
322.11	1748.97
322.32	1896.42
322.54	1908.71
322.75	1806.31
322.96	1945.57
323.18	1714.15
323.39	1740.77
323.60	1779.68
323.81	1861.60
324.03	1787.88
324.24	1787.88
324.45	1800.16
324.66	1773.54
324.88	1867.75
325.09	1931.23
325.30	1818.60
325.52	1830.88
325.73	1804.26
325.94	1763.30
326.15	1705.96
326.37	1808.36
326.58	1902.56
326.79	1900.52
327.00	1783.78
327.22	1830.88
327.43	1726.44
327.64	1769.44
327.85	1861.60
328.07	1816.55
328.28	1935.33
328.49	1855.46
328.70	1779.68
328.92	1771.49
329.13	1826.79
329.34	1818.60
329.55	1970.15
329.76	1847.27
329.98	1851.36
330.19	1910.75
330.40	1877.99
330.61	1824.74
330.83	1890.28
331.04	1812.45
331.25	1845.22
331.46	1746.92
331.68	1738.73
331.89	1888.23
332.10	1791.97
332.31	1800.16
332.52	1779.68
332.74	1896.42
332.95	1734.63
333.16	1763.30
333.37	1849.32
333.58	1787.88
333.80	1785.83
334.01	1718.25
334.22	1812.45
334.43	1810.40
334.64	1818.60
334.86	1677.29
335.07	1837.03
335.28	1914.85
335.49	1726.44
335.70	1914.85
335.92	1902.56
336.13	1918.95
336.34	1761.25
336.55	1849.32
336.76	1843.17
336.98	1679.33
337.19	1814.50
337.40	1918.95
337.61	1970.15
337.82	1787.88
338.04	1800.16
338.25	1742.82
338.46	1783.78
338.67	1765.35
338.88	1824.74
339.09	1703.91
339.31	1742.82
339.52	1740.77
339.73	1775.59
339.94	1820.64
340.15	1828.84
340.36	1777.64
340.58	1812.45
340.79	1724.39
341.00	1871.84
341.21	1744.87
341.42	1941.47
341.63	1824.74
341.85	1910.75
342.06	1857.51
342.27	1753.06
342.48	1812.45
342.69	1687.53
342.90	1804.26
343.12	1806.31
343.33	1824.74
343.54	1849.32
343.75	1898.47
343.96	1802.21
344.17	1734.63
344.38	1857.51
344.60	1804.26
344.81	1800.16
345.02	1794.02
345.23	1867.75
345.44	1966.05
345.65	1871.84
345.86	1888.23
346.07	1759.21
346.29	1771.49
346.50	1847.27
346.71	1841.12
346.92	1910.75
347.13	1869.80
347.34	1839.08
347.55	1841.12
347.76	1781.73
347.98	1734.63
348.19	1779.68
348.40	1867.75
348.61	1755.11
348.82	1902.56
349.03	1855.46
349.24	1816.55
349.45	1812.45
349.66	1777.64
349.88	1834.98
350.09	1802.21
350.30	1863.65
350.51	1931.23
350.72	1812.45
350.93	1867.75
351.14	1791.97
351.35	1822.69
351.56	1751.01
351.77	1824.74
351.99	1834.98
352.20	1890.28
352.41	1947.62
352.62	1763.30
352.83	1843.17
353.04	1814.50
353.25	1886.18
353.46	1828.84
353.67	1984.48
353.88	1746.92
354.09	1804.26
354.30	1767.40
354.52	1912.80
354.73	1765.35
354.94	1800.16
355.15	1865.70
355.36	1880.04
355.57	1820.64
355.78	1804.26
355.99	1740.77
356.20	1761.25
356.41	1972.19
356.62	1785.83
356.83	1796.07
357.04	1951.71
357.25	1718.25
357.46	1802.21
357.68	1619.94
357.89	1736.68
358.10	1806.31
358.31	1890.28
358.52	1841.12
358.73	1845.22
358.94	1785.83
359.15	1744.87
359.36	1910.75
359.57	1841.12
359.78	1789.92
359.99	1841.12
360.20	1714.15
360.41	1837.03
360.62	1804.26
360.83	1814.50
361.04	1828.84
361.25	1845.22
361.46	1935.33
361.67	1837.03
361.88	1843.17
362.09	1847.27
362.30	1929.19
362.51	1742.82
362.72	1816.55
362.93	1900.52
363.14	1888.23
363.35	1820.64
363.56	1791.97
363.78	1847.27
363.99	1923.04
364.20	1740.77
364.41	1826.79
364.62	1974.24
364.83	1839.08
365.04	1785.83
365.25	1855.46
365.46	1908.71
365.67	1806.31
365.88	1775.59
366.09	1703.91
366.30	1787.88
366.51	1832.93
366.72	1736.68
366.93	1787.88
367.14	1830.88
367.35	1972.19
367.56	1812.45
367.77	1888.23
367.98	1742.82
368.18	1804.26
368.39	1867.75
368.60	1763.30
368.81	1886.18
369.02	1783.78
369.23	1757.16
369.44	1746.92
369.65	1734.63
369.86	1816.55
370.07	1869.80
370.28	1787.88
370.49	1920.99
370.70	1849.32
370.91	1748.97
371.12	1765.35
371.33	1970.15
371.54	1839.08
371.75	1908.71
371.96	1677.29
372.17	1810.40
372.38	1789.92
372.59	1751.01
372.80	1787.88
373.01	1800.16
373.22	1816.55
373.43	1824.74
373.64	1759.21
373.85	1882.08
374.06	1925.09
374.26	1871.84
374.47	1841.12
374.68	1894.37
374.89	1832.93
375.10	1832.93
375.31	1925.09
375.52	1877.99
375.73	1886.18
375.94	1748.97
376.15	1939.43
376.36	1753.06
376.57	1779.68
376.78	1767.40
376.99	1849.32
377.20	1849.32
377.40	1855.46
377.61	1923.04
377.82	1730.53
378.03	1923.04
378.24	1916.90
378.45	1875.94
378.66	1863.65
378.87	1808.36
379.08	1714.15
379.29	1857.51
379.50	1812.45
379.71	1812.45
379.91	1886.18
380.12	1810.40
380.33	1804.26
380.54	1863.65
380.75	1837.03
380.96	1767.40
381.17	1865.70
381.38	1804.26
381.59	1849.32
381.80	1779.68
382.00	2009.06
382.21	1865.70
382.42	1943.52
382.63	2021.35
382.84	1806.31
383.05	1865.70
383.26	1972.19
383.47	1783.78
383.68	1873.89
383.88	1877.99
384.09	1818.60
384.30	1896.42
384.51	1886.18
384.72	1779.68
384.93	1816.55
385.14	1851.36
385.35	1843.17
385.55	1761.25
385.76	1955.81
385.97	1787.88
386.18	1796.07
386.39	1798.12
386.60	1816.55
386.81	1814.50
387.02	1771.49
387.22	1794.02
387.43	1861.60
387.64	1906.66
387.85	2029.54
388.06	2226.14
388.27	4282.30
388.48	8957.82
388.68	11978.57
388.89	13897.52
389.10	14790.43
389.31	13385.52
389.52	10385.25
389.73	9205.62
389.93	8159.11
390.14	7632.78
390.35	7137.17
390.56	6227.87
390.77	5115.83
390.98	4028.35
391.18	3092.43
391.39	2521.05
391.60	2013.15
391.81	1976.29
392.02	1939.43
392.23	2080.74
392.43	1830.88
392.64	2011.11
392.85	1818.60
393.06	1890.28
393.27	1877.99
393.47	1808.36
393.68	1812.45
393.89	1826.79
394.10	1857.51
394.31	1740.77
394.52	1708.01
394.72	1810.40
394.93	1908.71
395.14	1771.49
395.35	1877.99
395.56	1677.29
395.76	1800.16
395.97	1951.71
396.18	1937.38
396.39	1976.29
396.60	2160.61
396.80	2142.18
397.01	2000.87
397.22	1884.13
397.43	2037.73
397.64	1863.65
397.84	1976.29
398.05	1994.72
398.26	1800.16
398.47	1918.95
398.67	1994.72
398.88	1824.74
399.09	1857.51
399.30	1812.45
399.51	1851.36
399.71	1777.64
399.92	1841.12
400.13	1814.50
400.34	1759.21
400.54	1796.07
400.75	1849.32
400.96	1863.65
401.17	1931.23
401.37	1824.74
401.58	1783.78
401.79	1779.68
402.00	1961.95
402.21	2160.61
402.41	2213.85
402.62	2191.33
402.83	2285.53
403.04	2256.86
403.24	2301.92
403.45	2029.54
403.66	2093.02
403.87	1982.43
404.07	2033.63
404.28	2127.84
404.49	2047.97
404.70	1902.56
404.90	1849.32
405.11	1851.36
405.32	1871.84
405.52	1791.97
405.73	1798.12
405.94	1755.11
406.15	1843.17
406.35	1818.60
406.56	1902.56
406.77	1837.03
406.98	1855.46
407.18	1802.21
407.39	1945.57
407.60	1742.82
407.80	1888.23
408.01	1779.68
408.22	1910.75
408.43	1767.40
408.63	1877.99
408.84	1902.56
409.05	1855.46
409.25	1712.10
409.46	1796.07
409.67	1808.36
409.88	1755.11
410.08	1849.32
410.29	1755.11
410.50	1820.64
410.70	1834.98
410.91	1816.55
411.12	1896.42
411.32	1818.60
411.53	1787.88
411.74	1904.61
411.95	1845.22
412.15	1966.05
412.36	1953.76
412.57	1916.90
412.77	1892.32
412.98	1812.45
413.19	1877.99
413.39	1882.08
413.60	1822.69
413.81	1964.00
414.01	1861.60
414.22	1912.80
414.43	1841.12
414.63	1853.41
414.84	1877.99
415.05	1804.26
415.25	1753.06
415.46	1859.56
415.67	1832.93
415.87	1791.97
416.08	1800.16
416.29	1808.36
416.49	1800.16
416.70	1699.81
416.91	1880.04
417.11	1734.63
417.32	1886.18
417.53	1820.64
417.73	1865.70
417.94	1785.83
418.15	1814.50
418.35	1814.50
418.56	1882.08
418.77	2035.68
418.97	1857.51
419.18	1796.07
419.38	1669.09
419.59	1814.50
419.80	1912.80
420.00	1771.49
420.21	1812.45
420.42	1908.71
420.62	1839.08
420.83	1716.20
421.04	1871.84
421.24	1789.92
421.45	1837.03
421.65	1816.55
421.86	1794.02
422.07	1908.71
422.27	1865.70
422.48	1820.64
422.69	1718.25
422.89	1734.63
423.10	1812.45
423.30	1812.45
423.51	1845.22
423.72	1824.74
423.92	1865.70
424.13	1710.05
424.33	1841.12
424.54	1841.12
424.75	1781.73
424.95	1914.85
425.16	1810.40
425.36	1800.16
425.57	1869.80
425.78	1857.51
425.98	1853.41
426.19	1808.36
426.39	1812.45
426.60	1845.22
426.81	1902.56
427.01	1775.59
427.22	1708.01
427.42	1767.40
427.63	1834.98
427.83	1937.38
428.04	1955.81
428.25	1834.98
428.45	1875.94
428.66	1945.57
428.86	1806.31
429.07	1814.50
429.28	1814.50
429.48	1832.93
429.69	1755.11
429.89	1857.51
430.10	1755.11
430.30	1880.04
430.51	1847.27
430.71	1736.68
430.92	1904.61
431.13	1783.78
431.33	1855.46
431.54	1769.44
431.74	1916.90
431.95	1910.75
432.15	1816.55
432.36	1837.03
432.56	1949.67
432.77	1968.10
432.98	2021.35
433.18	1806.31
433.39	1802.21
433.59	1777.64
433.80	1976.29
434.00	2007.01
434.21	1736.68
434.41	1753.06
434.62	2011.11
434.82	1767.40
435.03	1798.12
435.23	1871.84
435.44	1732.58
435.64	1847.27
435.85	1816.55
436.06	1890.28
436.26	1873.89
436.47	1841.12
436.67	1783.78
436.88	1826.79
437.08	1964.00
437.29	1845.22
437.49	1880.04
437.70	1904.61
437.90	1783.78
438.11	1957.86
438.31	1918.95
438.52	2000.87
438.72	2015.20
438.93	2027.49
439.13	1941.47
439.34	1998.82
439.54	1847.27
439.75	1949.67
439.95	1908.71
440.16	1851.36
440.36	1877.99
440.57	1884.13
440.77	1880.04
440.98	1822.69
441.18	1953.76
441.39	1787.88
441.59	1710.05
441.80	1918.95
442.00	1834.98
442.21	1949.67
442.41	1800.16
442.62	1914.85
442.82	1820.64
443.02	1847.27
443.23	1847.27
443.43	1853.41
443.64	1920.99
443.84	1843.17
444.05	1992.67
444.25	1855.46
444.46	1806.31
444.66	1791.97
444.87	1986.53
445.07	1716.20
445.28	1892.32
445.48	1931.23
445.69	1867.75
445.89	1931.23
446.09	1853.41
446.30	2088.93
446.50	2537.43
446.71	4067.27
446.91	5148.59
447.12	6078.37
447.32	6154.15
447.53	5621.67
447.73	4648.89
447.93	4147.14
448.14	3743.69
448.34	3661.77
448.55	3399.63
448.75	3235.79
448.96	2973.65
449.16	2815.96
449.36	2564.06
449.57	2195.42
449.77	2000.87
449.98	1802.21
450.18	1933.28
450.39	1957.86
450.59	1839.08
450.79	1802.21
451.00	1763.30
451.20	1949.67
451.41	1841.12
451.61	1826.79
451.81	1812.45
452.02	1771.49
452.22	1820.64
452.43	1828.84
452.63	1822.69
