SpectraSuite Data File
++++++++++++++++++++++++++++++++++++
Date: Wed May 04 21:12:57 CEST 2016
User: root
Dark Spectrum Present: No
Reference Spectrum Present: No
Number of Sampled Component Spectra: 1
Spectrometers: USB4C02835
Integration Time (usec): 100000 (USB4C02835)
Spectra Averaged: 1 (USB4C02835)
Boxcar Smoothing: 0 (USB4C02835)
Correct for Electrical Dark: No (USB4C02835)
Strobe/Lamp Enabled: No (USB4C02835)
Correct for Detector Non-linearity: No (USB4C02835)
Correct for Stray Light: No (USB4C02835)
Number of Pixels in Processed Spectrum: 3648
>>>>>Begin Processed Spectral Data<<<<<
177.47	1550.31
177.69	1550.31
177.91	1550.31
178.13	1550.31
178.36	1513.45
178.58	1746.92
178.80	1736.68
179.02	1740.77
179.24	1738.73
179.46	1779.68
179.68	1890.28
179.90	1771.49
180.13	1837.03
180.35	1720.29
180.57	1783.78
180.79	1890.28
181.01	1775.59
181.23	1869.80
181.45	1839.08
181.67	1839.08
181.90	1877.99
182.12	1767.40
182.34	1755.11
182.56	1777.64
182.78	1796.07
183.00	1787.88
183.22	1767.40
183.44	1753.06
183.66	1904.61
183.89	1861.60
184.11	1783.78
184.33	1677.29
184.55	1845.22
184.77	1824.74
184.99	1802.21
185.21	1810.40
185.43	1892.32
185.65	1775.59
185.87	1818.60
186.10	1908.71
186.32	1970.15
186.54	1767.40
186.76	1796.07
186.98	1839.08
187.20	1800.16
187.42	1773.54
187.64	1806.31
187.86	1812.45
188.08	1834.98
188.30	1718.25
188.52	1837.03
188.75	1845.22
188.97	1945.57
189.19	1751.01
189.41	1722.34
189.63	1804.26
189.85	1806.31
190.07	1779.68
190.29	1744.87
190.51	1834.98
190.73	1677.29
190.95	1908.71
191.17	1787.88
191.39	1753.06
191.61	1798.12
191.84	1841.12
192.06	1832.93
192.28	1687.53
192.50	2002.91
192.72	1824.74
192.94	1748.97
193.16	1865.70
193.38	1857.51
193.60	1724.39
193.82	1818.60
194.04	1900.52
194.26	1828.84
194.48	1859.56
194.70	1746.92
194.92	1720.29
195.14	1869.80
195.36	1802.21
195.58	1824.74
195.80	1845.22
196.02	1802.21
196.24	1730.53
196.46	1875.94
196.69	1685.48
196.91	1941.47
197.13	1818.60
197.35	1783.78
197.57	1978.34
197.79	1837.03
198.01	1775.59
198.23	1816.55
198.45	1777.64
198.67	1683.43
198.89	1796.07
199.11	1849.32
199.33	1740.77
199.55	1636.33
199.77	1808.36
199.99	1904.61
200.21	1787.88
200.43	1853.41
200.65	1816.55
200.87	1669.09
201.09	1822.69
201.31	1794.02
201.53	1873.89
201.75	1779.68
201.97	1791.97
202.19	1890.28
202.41	1902.56
202.63	1927.14
202.85	1855.46
203.07	1869.80
203.29	1865.70
203.51	1726.44
203.73	1748.97
203.95	2060.26
204.17	1806.31
204.39	1882.08
204.61	1826.79
204.83	1798.12
205.05	1832.93
205.27	1904.61
205.49	1902.56
205.71	1818.60
205.93	1712.10
206.15	1730.53
206.37	1787.88
206.59	1869.80
206.81	1773.54
207.03	1724.39
207.25	1710.05
207.47	1906.66
207.69	1773.54
207.91	1875.94
208.13	1923.04
208.34	1773.54
208.56	1722.34
208.78	1861.60
209.00	1755.11
209.22	1785.83
209.44	1796.07
209.66	1744.87
209.88	1779.68
210.10	1796.07
210.32	1849.32
210.54	1906.66
210.76	1814.50
210.98	1900.52
211.20	1738.73
211.42	1800.16
211.64	1890.28
211.86	1785.83
212.08	1832.93
212.30	1847.27
212.52	1769.44
212.74	1845.22
212.96	1880.04
213.17	1847.27
213.39	1828.84
213.61	1951.71
213.83	1937.38
214.05	1798.12
214.27	1873.89
214.49	1798.12
214.71	1777.64
214.93	1853.41
215.15	1888.23
215.37	1810.40
215.59	1710.05
215.81	1814.50
216.03	1886.18
216.24	1769.44
216.46	1796.07
216.68	1880.04
216.90	1785.83
217.12	1812.45
217.34	1800.16
217.56	1851.36
217.78	1959.91
218.00	1861.60
218.22	1875.94
218.44	1798.12
218.66	1816.55
218.87	1914.85
219.09	1740.77
219.31	1847.27
219.53	1865.70
219.75	1738.73
219.97	1806.31
220.19	1816.55
220.41	1787.88
220.63	1906.66
220.85	1877.99
221.06	1816.55
221.28	1783.78
221.50	1880.04
221.72	1834.98
221.94	1791.97
222.16	1896.42
222.38	1841.12
222.60	1794.02
222.82	1804.26
223.03	1861.60
223.25	1763.30
223.47	1826.79
223.69	1984.48
223.91	1871.84
224.13	1802.21
224.35	1796.07
224.57	1779.68
224.78	1849.32
225.00	1791.97
225.22	1742.82
225.44	1757.16
225.66	1834.98
225.88	1849.32
226.10	1886.18
226.32	1861.60
226.53	2002.91
226.75	1853.41
226.97	1804.26
227.19	1822.69
227.41	1746.92
227.63	1800.16
227.85	1667.05
228.06	1849.32
228.28	1886.18
228.50	1869.80
228.72	1765.35
228.94	1814.50
229.16	1681.38
229.37	1716.20
229.59	1712.10
229.81	1855.46
230.03	1824.74
230.25	1787.88
230.47	1751.01
230.69	1728.49
230.90	1859.56
231.12	1839.08
231.34	1804.26
231.56	1935.33
231.78	1783.78
232.00	1761.25
232.21	1818.60
232.43	1699.81
232.65	1656.81
232.87	1877.99
233.09	1744.87
233.30	1710.05
233.52	1816.55
233.74	1830.88
233.96	1763.30
234.18	1826.79
234.40	1806.31
234.61	1959.91
234.83	1728.49
235.05	1771.49
235.27	1929.19
235.49	1886.18
235.70	1806.31
235.92	1871.84
236.14	1781.73
236.36	2037.73
236.58	1724.39
236.79	1769.44
237.01	1746.92
237.23	1796.07
237.45	1873.89
237.67	1708.01
237.88	1810.40
238.10	1974.24
238.32	1773.54
238.54	1822.69
238.76	1789.92
238.97	1757.16
239.19	1804.26
239.41	1892.32
239.63	1875.94
239.85	1828.84
240.06	1853.41
240.28	1759.21
240.50	1822.69
240.72	1818.60
240.93	1765.35
241.15	1853.41
241.37	1771.49
241.59	1996.77
241.81	1791.97
242.02	1794.02
242.24	1863.65
242.46	1847.27
242.68	1714.15
242.89	1857.51
243.11	1841.12
243.33	1787.88
243.55	1794.02
243.76	1877.99
243.98	1826.79
244.20	1830.88
244.42	1771.49
244.64	1806.31
244.85	1712.10
245.07	1787.88
245.29	1808.36
245.51	1798.12
245.72	1824.74
245.94	1853.41
246.16	1855.46
246.38	1896.42
246.59	1826.79
246.81	1820.64
247.03	1800.16
247.24	1693.67
247.46	1804.26
247.68	1820.64
247.90	1712.10
248.11	1855.46
248.33	1855.46
248.55	1837.03
248.77	1800.16
248.98	1873.89
249.20	1900.52
249.42	1873.89
249.64	1851.36
249.85	1759.21
250.07	1787.88
250.29	1871.84
250.50	1906.66
250.72	1699.81
250.94	1804.26
251.16	1992.67
251.37	1861.60
251.59	1861.60
251.81	1814.50
252.02	1918.95
252.24	1873.89
252.46	1875.94
252.68	1800.16
252.89	1728.49
253.11	1677.29
253.33	1953.76
253.54	1902.56
253.76	1748.97
253.98	1806.31
254.20	1744.87
254.41	1665.00
254.63	1791.97
254.85	1761.25
255.06	1818.60
255.28	1808.36
255.50	1796.07
255.71	1751.01
255.93	1753.06
256.15	1769.44
256.36	1802.21
256.58	1773.54
256.80	1822.69
257.02	1837.03
257.23	1787.88
257.45	1802.21
257.67	1834.98
257.88	1791.97
258.10	1834.98
258.32	1851.36
258.53	1871.84
258.75	1916.90
258.97	1751.01
259.18	1781.73
259.40	1832.93
259.62	1927.14
259.83	1814.50
260.05	1929.19
260.27	2125.79
260.48	1894.37
260.70	1787.88
260.92	1697.77
261.13	1771.49
261.35	1798.12
261.57	1931.23
261.78	1732.58
262.00	1826.79
262.22	1914.85
262.43	1800.16
262.65	1798.12
262.86	1814.50
263.08	1984.48
263.30	1828.84
263.51	1724.39
263.73	1755.11
263.95	1906.66
264.16	1763.30
264.38	1736.68
264.60	1859.56
264.81	1839.08
265.03	1851.36
265.25	1888.23
265.46	1796.07
265.68	1841.12
265.89	1902.56
266.11	1769.44
266.33	1914.85
266.54	1873.89
266.76	1736.68
266.98	1890.28
267.19	1937.38
267.41	1843.17
267.62	1804.26
267.84	1689.57
268.06	1822.69
268.27	1875.94
268.49	1873.89
268.70	1839.08
268.92	1775.59
269.14	1728.49
269.35	1771.49
269.57	1824.74
269.79	1824.74
270.00	1814.50
270.22	1947.62
270.43	1781.73
270.65	1628.14
270.87	1804.26
271.08	1824.74
271.30	1923.04
271.51	1816.55
271.73	1796.07
271.95	1882.08
272.16	1779.68
272.38	1851.36
272.59	1767.40
272.81	1859.56
273.02	1914.85
273.24	1877.99
273.46	1906.66
273.67	1773.54
273.89	1789.92
274.10	1667.05
274.32	1824.74
274.54	1847.27
274.75	1824.74
274.97	1681.38
275.18	1863.65
275.40	1832.93
275.61	1806.31
275.83	1869.80
276.05	1783.78
276.26	1812.45
276.48	1898.47
276.69	1779.68
276.91	1751.01
277.12	1845.22
277.34	1875.94
277.55	1841.12
277.77	1841.12
277.99	1746.92
278.20	1720.29
278.42	1705.96
278.63	1763.30
278.85	1757.16
279.06	1693.67
279.28	1857.51
279.49	1810.40
279.71	1837.03
279.93	1798.12
280.14	1755.11
280.36	1771.49
280.57	1826.79
280.79	1957.86
281.00	1757.16
281.22	1761.25
281.43	1884.13
281.65	1679.33
281.86	1751.01
282.08	1890.28
282.29	1949.67
282.51	1812.45
282.73	1718.25
282.94	1734.63
283.16	1867.75
283.37	1953.76
283.59	1916.90
283.80	1849.32
284.02	1843.17
284.23	1955.81
284.45	1767.40
284.66	1703.91
284.88	1804.26
285.09	1871.84
285.31	1908.71
285.52	1853.41
285.74	1687.53
285.95	1855.46
286.17	1851.36
286.38	1961.95
286.60	1804.26
286.81	1789.92
287.03	1822.69
287.24	1751.01
287.46	1814.50
287.67	1810.40
287.89	1912.80
288.10	1769.44
288.32	1814.50
288.53	1830.88
288.75	1771.49
288.96	1826.79
289.18	1781.73
289.39	1832.93
289.61	1830.88
289.82	1929.19
290.04	1996.77
290.25	1759.21
290.47	1800.16
290.68	1787.88
290.90	1871.84
291.11	1742.82
291.33	1877.99
291.54	1859.56
291.76	1826.79
291.97	1867.75
292.18	1804.26
292.40	1775.59
292.61	1746.92
292.83	2002.91
293.04	1863.65
293.26	1720.29
293.47	1791.97
293.69	1675.24
293.90	1740.77
294.12	1869.80
294.33	1808.36
294.55	1822.69
294.76	1826.79
294.97	1906.66
295.19	1925.09
295.40	1783.78
295.62	1873.89
295.83	1787.88
296.05	1796.07
296.26	1902.56
296.48	1710.05
296.69	1837.03
296.90	1757.16
297.12	1867.75
297.33	1871.84
297.55	1877.99
297.76	1810.40
297.98	1880.04
298.19	1765.35
298.41	1832.93
298.62	1781.73
298.83	1949.67
299.05	1865.70
299.26	1785.83
299.48	1791.97
299.69	1882.08
299.90	1853.41
300.12	1726.44
300.33	1828.84
300.55	1818.60
300.76	1837.03
300.98	1804.26
301.19	1845.22
301.40	1755.11
301.62	1730.53
301.83	1877.99
302.05	1847.27
302.26	1765.35
302.47	1875.94
302.69	1738.73
302.90	1775.59
303.12	1665.00
303.33	1826.79
303.54	1888.23
303.76	1789.92
303.97	1847.27
304.19	1941.47
304.40	1730.53
304.61	1826.79
304.83	1888.23
305.04	1888.23
305.26	1877.99
305.47	1845.22
305.68	1785.83
305.90	1787.88
306.11	1830.88
306.33	1744.87
306.54	1724.39
306.75	1781.73
306.97	1695.72
307.18	1718.25
307.39	1783.78
307.61	1818.60
307.82	1861.60
308.04	1832.93
308.25	1708.01
308.46	1884.13
308.68	1798.12
308.89	1804.26
309.10	1925.09
309.32	1851.36
309.53	1775.59
309.74	1804.26
309.96	1785.83
310.17	1927.14
310.39	1800.16
310.60	1886.18
310.81	1808.36
311.03	1757.16
311.24	1892.32
311.45	1802.21
311.67	1904.61
311.88	1896.42
312.09	1769.44
312.31	1763.30
312.52	1822.69
312.73	1759.21
312.95	1724.39
313.16	1771.49
313.37	1818.60
313.59	1824.74
313.80	1800.16
314.01	1943.52
314.23	1791.97
314.44	1722.34
314.65	1710.05
314.87	1767.40
315.08	1785.83
315.29	1863.65
315.51	1746.92
315.72	1757.16
315.93	1939.43
316.15	1882.08
316.36	1718.25
316.57	1822.69
316.79	1863.65
317.00	1882.08
317.21	1857.51
317.43	1787.88
317.64	1867.75
317.85	1857.51
318.07	1757.16
318.28	1849.32
318.49	1945.57
318.70	2164.70
318.92	2033.63
319.13	1982.43
319.34	2000.87
319.56	1939.43
319.77	1986.53
319.98	1939.43
320.20	1961.95
320.41	1888.23
320.62	1900.52
320.83	1845.22
321.05	1978.34
321.26	1886.18
321.47	1787.88
321.69	1904.61
321.90	1767.40
322.11	1794.02
322.32	1787.88
322.54	1877.99
322.75	1800.16
322.96	1976.29
323.18	1746.92
323.39	1730.53
323.60	1751.01
323.81	1918.95
324.03	1736.68
324.24	1830.88
324.45	1822.69
324.66	1853.41
324.88	1757.16
325.09	1902.56
325.30	1845.22
325.52	1853.41
325.73	1849.32
325.94	1753.06
326.15	1640.42
326.37	1777.64
326.58	1812.45
326.79	1970.15
327.00	1691.62
327.22	1814.50
327.43	1800.16
327.64	1753.06
327.85	1902.56
328.07	1751.01
328.28	1861.60
328.49	1804.26
328.70	1873.89
328.92	1802.21
329.13	1710.05
329.34	1841.12
329.55	1920.99
329.76	1855.46
329.98	1712.10
330.19	1900.52
330.40	1822.69
330.61	1783.78
330.83	1843.17
331.04	1765.35
331.25	1775.59
331.46	1777.64
331.68	1738.73
331.89	1855.46
332.10	1720.29
332.31	1781.73
332.52	1806.31
332.74	1902.56
332.95	1726.44
333.16	1751.01
333.37	1814.50
333.58	1785.83
333.80	1845.22
334.01	1726.44
334.22	1787.88
334.43	1751.01
334.64	1763.30
334.86	1734.63
335.07	1751.01
335.28	1949.67
335.49	1689.57
335.70	1849.32
335.92	1884.13
336.13	1953.76
336.34	1908.71
336.55	1890.28
336.76	1775.59
336.98	1716.20
337.19	1769.44
337.40	1888.23
337.61	1925.09
337.82	1710.05
338.04	1939.43
338.25	1703.91
338.46	1726.44
338.67	1781.73
338.88	1812.45
339.09	1746.92
339.31	1826.79
339.52	1732.58
339.73	1757.16
339.94	1816.55
340.15	1820.64
340.36	1767.40
340.58	1755.11
340.79	1710.05
341.00	1923.04
341.21	1742.82
341.42	1931.23
341.63	1746.92
341.85	1898.47
342.06	1830.88
342.27	1804.26
342.48	1920.99
342.69	1708.01
342.90	1849.32
343.12	1832.93
343.33	1769.44
343.54	1837.03
343.75	1947.62
343.96	1785.83
344.17	1742.82
344.38	1851.36
344.60	1765.35
344.81	1761.25
345.02	1859.56
345.23	1877.99
345.44	2072.54
345.65	1843.17
345.86	1761.25
346.07	1798.12
346.29	1783.78
346.50	1865.70
346.71	1880.04
346.92	1896.42
347.13	1986.53
347.34	1873.89
347.55	1834.98
347.76	1814.50
347.98	1769.44
348.19	1818.60
348.40	1832.93
348.61	1791.97
348.82	1871.84
349.03	1853.41
349.24	1777.64
349.45	1955.81
349.66	1781.73
349.88	1806.31
350.09	1800.16
350.30	1875.94
350.51	1837.03
350.72	1818.60
350.93	1857.51
351.14	1781.73
351.35	1875.94
351.56	1927.14
351.77	1839.08
351.99	1880.04
352.20	1898.47
352.41	1912.80
352.62	1671.14
352.83	1822.69
353.04	1767.40
353.25	1783.78
353.46	1847.27
353.67	1859.56
353.88	1771.49
354.09	1837.03
354.30	1812.45
354.52	1845.22
354.73	1804.26
354.94	1800.16
355.15	1841.12
355.36	1918.95
355.57	1820.64
355.78	1916.90
355.99	1748.97
356.20	1834.98
356.41	1896.42
356.62	1787.88
356.83	1834.98
357.04	1814.50
357.25	1693.67
357.46	1851.36
357.68	1757.16
357.89	1710.05
358.10	1861.60
358.31	1771.49
358.52	1810.40
358.73	1714.15
358.94	1779.68
359.15	1804.26
359.36	1818.60
359.57	1863.65
359.78	1785.83
359.99	1875.94
360.20	1787.88
360.41	1742.82
360.62	1837.03
360.83	1882.08
361.04	1822.69
361.25	1896.42
361.46	1890.28
361.67	1808.36
361.88	1834.98
362.09	1900.52
362.30	1837.03
362.51	1884.13
362.72	1841.12
362.93	1873.89
363.14	1916.90
363.35	1849.32
363.56	1753.06
363.78	1834.98
363.99	1839.08
364.20	1800.16
364.41	1832.93
364.62	1904.61
364.83	1796.07
365.04	1843.17
365.25	1816.55
365.46	1939.43
365.67	1796.07
365.88	1818.60
366.09	1798.12
366.30	1800.16
366.51	1787.88
366.72	1738.73
366.93	1822.69
367.14	1779.68
367.35	1884.13
367.56	1824.74
367.77	1871.84
367.98	1804.26
368.18	1724.39
368.39	1880.04
368.60	1730.53
368.81	1822.69
369.02	1880.04
369.23	1775.59
369.44	1769.44
369.65	1767.40
369.86	1896.42
370.07	1902.56
370.28	1759.21
370.49	1769.44
370.70	1832.93
370.91	1834.98
371.12	1712.10
371.33	1951.71
371.54	1796.07
371.75	2004.96
371.96	1730.53
372.17	1863.65
372.38	1908.71
372.59	1802.21
372.80	1867.75
373.01	1800.16
373.22	1800.16
373.43	1808.36
373.64	1757.16
373.85	1890.28
374.06	1904.61
374.26	1908.71
374.47	1830.88
374.68	1880.04
374.89	1777.64
375.10	1781.73
375.31	1910.75
375.52	1871.84
375.73	1853.41
375.94	1777.64
376.15	1892.32
376.36	1832.93
376.57	1826.79
376.78	1812.45
376.99	1861.60
377.20	1904.61
377.40	1783.78
377.61	1929.19
377.82	1761.25
378.03	1894.37
378.24	1869.80
378.45	1865.70
378.66	1847.27
378.87	1685.48
379.08	1738.73
379.29	1783.78
379.50	1822.69
379.71	1802.21
379.91	1882.08
380.12	1759.21
380.33	1804.26
380.54	1824.74
380.75	1845.22
380.96	1791.97
381.17	1910.75
381.38	1904.61
381.59	1931.23
381.80	1804.26
382.00	1982.43
382.21	1826.79
382.42	1941.47
382.63	2031.58
382.84	1939.43
383.05	1890.28
383.26	1941.47
383.47	1863.65
383.68	1847.27
383.88	1861.60
384.09	1837.03
384.30	1857.51
384.51	1861.60
384.72	1718.25
384.93	1746.92
385.14	1759.21
385.35	1914.85
385.55	1763.30
385.76	1939.43
385.97	1753.06
386.18	1687.53
386.39	1810.40
386.60	1861.60
386.81	1900.52
387.02	1822.69
387.22	1791.97
387.43	1830.88
387.64	1953.76
387.85	2002.91
388.06	2211.81
388.27	4106.18
388.48	8869.75
388.68	11741.00
388.89	13905.71
389.10	14751.52
389.31	13014.84
389.52	10286.95
389.73	9148.28
389.93	8238.98
390.14	7546.76
390.35	6838.17
390.56	6252.45
390.77	5093.30
390.98	4179.90
391.18	3074.00
391.39	2502.62
391.60	1986.53
391.81	1951.71
392.02	1865.70
392.23	2052.06
392.43	1839.08
392.64	1841.12
392.85	1804.26
393.06	1939.43
393.27	1855.46
393.47	1753.06
393.68	1820.64
393.89	1796.07
394.10	1892.32
394.31	1857.51
394.52	1759.21
394.72	1779.68
394.93	1886.18
395.14	1818.60
395.35	1888.23
395.56	1767.40
395.76	1861.60
395.97	1888.23
396.18	1992.67
396.39	1964.00
396.60	2238.43
396.80	2117.60
397.01	1945.57
397.22	1947.62
397.43	1996.77
397.64	1894.37
397.84	1984.48
398.05	2029.54
398.26	1834.98
398.47	1871.84
398.67	1857.51
398.88	1751.01
399.09	1890.28
399.30	1789.92
399.51	1841.12
399.71	1769.44
399.92	1877.99
400.13	1894.37
400.34	1810.40
400.54	1794.02
400.75	1927.14
400.96	1800.16
401.17	1927.14
401.37	1875.94
401.58	1871.84
401.79	1869.80
402.00	1949.67
402.21	2179.04
402.41	2209.76
402.62	2250.72
402.83	2310.11
403.04	2222.05
403.24	2318.30
403.45	2011.11
403.66	2033.63
403.87	2097.12
404.07	2035.68
404.28	2072.54
404.49	2017.25
404.70	2004.96
404.90	1961.95
405.11	1808.36
405.32	1918.95
405.52	1755.11
405.73	1820.64
405.94	1851.36
406.15	1832.93
406.35	1886.18
406.56	1853.41
406.77	1804.26
406.98	1865.70
407.18	1765.35
407.39	1951.71
407.60	1787.88
407.80	1828.84
408.01	1751.01
408.22	1886.18
408.43	1724.39
408.63	1871.84
408.84	1900.52
409.05	1824.74
409.25	1794.02
409.46	1806.31
409.67	1810.40
409.88	1859.56
410.08	1906.66
410.29	1755.11
410.50	1812.45
410.70	1902.56
410.91	1681.38
411.12	1814.50
411.32	1896.42
411.53	1802.21
411.74	1935.33
411.95	1974.24
412.15	1861.60
412.36	1884.13
412.57	2017.25
412.77	1990.63
412.98	1859.56
413.19	1839.08
413.39	1949.67
413.60	1880.04
413.81	1914.85
414.01	1832.93
414.22	1925.09
414.43	1908.71
414.63	1861.60
414.84	1886.18
415.05	1804.26
415.25	1814.50
415.46	1865.70
415.67	1757.16
415.87	1794.02
416.08	1843.17
416.29	1771.49
416.49	1820.64
416.70	1796.07
416.91	1814.50
417.11	1820.64
417.32	1855.46
417.53	1867.75
417.73	1822.69
417.94	1828.84
418.15	1800.16
418.35	1800.16
418.56	1830.88
418.77	1984.48
418.97	1816.55
419.18	1761.25
419.38	1716.20
419.59	1798.12
419.80	1902.56
420.00	1810.40
420.21	1843.17
420.42	1904.61
420.62	1847.27
420.83	1826.79
421.04	1775.59
421.24	1714.15
421.45	1834.98
421.65	1785.83
421.86	1837.03
422.07	1824.74
422.27	1939.43
422.48	1783.78
422.69	1820.64
422.89	1730.53
423.10	1791.97
423.30	1714.15
423.51	1824.74
423.72	1834.98
423.92	1935.33
424.13	1685.48
424.33	1806.31
424.54	1775.59
424.75	1834.98
424.95	1908.71
425.16	1847.27
425.36	1834.98
425.57	1886.18
425.78	1798.12
425.98	1902.56
426.19	1871.84
426.39	1761.25
426.60	1806.31
426.81	1910.75
427.01	1875.94
427.22	1783.78
427.42	1697.77
427.63	1785.83
427.83	1884.13
428.04	1957.86
428.25	1945.57
428.45	1923.04
428.66	1916.90
428.86	1785.83
429.07	1880.04
429.28	1849.32
429.48	1771.49
429.69	1839.08
429.89	1859.56
430.10	1722.34
430.30	1853.41
430.51	1957.86
430.71	1775.59
430.92	1804.26
431.13	1849.32
431.33	1861.60
431.54	1738.73
431.74	1914.85
431.95	2013.15
432.15	1714.15
432.36	1925.09
432.56	1902.56
432.77	1941.47
432.98	1951.71
433.18	1880.04
433.39	1802.21
433.59	1771.49
433.80	1923.04
434.00	1964.00
434.21	1839.08
434.41	1748.97
434.62	1959.91
434.82	1716.20
435.03	1736.68
435.23	1888.23
435.44	1763.30
435.64	1787.88
435.85	1828.84
436.06	1894.37
436.26	1853.41
436.47	1785.83
436.67	1796.07
436.88	1843.17
437.08	1904.61
437.29	1888.23
437.49	1818.60
437.70	1916.90
437.90	1912.80
438.11	1933.28
438.31	1898.47
438.52	1945.57
438.72	1970.15
438.93	1998.82
439.13	1986.53
439.34	2009.06
439.54	1871.84
439.75	1929.19
439.95	1916.90
440.16	1839.08
440.36	1871.84
440.57	1853.41
440.77	1802.21
440.98	1830.88
441.18	1863.65
441.39	1771.49
441.59	1783.78
441.80	1996.77
442.00	1880.04
442.21	1875.94
442.41	1712.10
442.62	1865.70
442.82	1857.51
443.02	1816.55
443.23	1894.37
443.43	1837.03
443.64	1908.71
443.84	1814.50
444.05	1957.86
444.25	1820.64
444.46	1843.17
444.66	1904.61
444.87	1955.81
445.07	1791.97
445.28	1767.40
445.48	1939.43
445.69	1941.47
445.89	1972.19
446.09	1898.47
446.30	2035.68
446.50	2551.77
446.71	4179.90
446.91	5109.68
447.12	5871.53
447.32	6221.73
447.53	5857.19
447.73	4720.57
447.93	4280.25
448.14	3827.65
448.34	3612.62
448.55	3239.89
448.75	3286.99
448.96	3147.73
449.16	2756.57
449.36	2535.39
449.57	2185.18
449.77	2054.11
449.98	1894.37
450.18	1880.04
450.39	1951.71
450.59	1853.41
450.79	1812.45
451.00	1804.26
451.20	1910.75
451.41	1884.13
451.61	1826.79
451.81	1822.69
452.02	1847.27
452.22	1800.16
452.43	1861.60
452.63	1886.18
