SpectraSuite Data File
++++++++++++++++++++++++++++++++++++
Date: Wed May 04 21:13:37 CEST 2016
User: root
Dark Spectrum Present: No
Reference Spectrum Present: No
Number of Sampled Component Spectra: 1
Spectrometers: USB4C02835
Integration Time (usec): 100000 (USB4C02835)
Spectra Averaged: 1 (USB4C02835)
Boxcar Smoothing: 0 (USB4C02835)
Correct for Electrical Dark: No (USB4C02835)
Strobe/Lamp Enabled: No (USB4C02835)
Correct for Detector Non-linearity: No (USB4C02835)
Correct for Stray Light: No (USB4C02835)
Number of Pixels in Processed Spectrum: 3648
>>>>>Begin Processed Spectral Data<<<<<
177.47	1525.74
177.69	1525.74
177.91	1525.74
178.13	1558.50
178.36	1597.42
178.58	1771.49
178.80	1820.64
179.02	1708.01
179.24	1810.40
179.46	1783.78
179.68	1828.84
179.90	1880.04
180.13	1794.02
180.35	1746.92
180.57	1804.26
180.79	1863.65
181.01	1820.64
181.23	1851.36
181.45	1873.89
181.67	1845.22
181.90	1875.94
182.12	1662.95
182.34	1759.21
182.56	1761.25
182.78	1787.88
183.00	1796.07
183.22	1832.93
183.44	1677.29
183.66	1982.43
183.89	1984.48
184.11	1863.65
184.33	1902.56
184.55	1908.71
184.77	1830.88
184.99	1746.92
185.21	1722.34
185.43	1939.43
185.65	1769.44
185.87	1755.11
186.10	1959.91
186.32	1898.47
186.54	1888.23
186.76	1787.88
186.98	1822.69
187.20	1847.27
187.42	1826.79
187.64	1828.84
187.86	1845.22
188.08	1918.95
188.30	1814.50
188.52	1746.92
188.75	1912.80
188.97	1886.18
189.19	1785.83
189.41	1773.54
189.63	1802.21
189.85	1789.92
190.07	1679.33
190.29	1691.62
190.51	1808.36
190.73	1648.61
190.95	1873.89
191.17	1824.74
191.39	1763.30
191.61	1857.51
191.84	1783.78
192.06	1877.99
192.28	1677.29
192.50	2054.11
192.72	1839.08
192.94	1785.83
193.16	1845.22
193.38	1740.77
193.60	1765.35
193.82	1785.83
194.04	1851.36
194.26	1877.99
194.48	1802.21
194.70	1703.91
194.92	1781.73
195.14	1849.32
195.36	1804.26
195.58	1830.88
195.80	1832.93
196.02	1832.93
196.24	1753.06
196.46	1791.97
196.69	1757.16
196.91	1984.48
197.13	1746.92
197.35	1820.64
197.57	1925.09
197.79	1822.69
198.01	1841.12
198.23	1820.64
198.45	1951.71
198.67	1681.38
198.89	1791.97
199.11	1834.98
199.33	1781.73
199.55	1689.57
199.77	1810.40
199.99	1920.99
200.21	1722.34
200.43	1853.41
200.65	1785.83
200.87	1736.68
201.09	1755.11
201.31	1767.40
201.53	1888.23
201.75	1769.44
201.97	1849.32
202.19	1755.11
202.41	1855.46
202.63	1892.32
202.85	1804.26
203.07	1931.23
203.29	1783.78
203.51	1761.25
203.73	1773.54
203.95	2041.82
204.17	1869.80
204.39	1849.32
204.61	1884.13
204.83	1779.68
205.05	1943.52
205.27	1906.66
205.49	1931.23
205.71	1800.16
205.93	1830.88
206.15	1730.53
206.37	1738.73
206.59	1716.20
206.81	1730.53
207.03	1753.06
207.25	1753.06
207.47	1869.80
207.69	1755.11
207.91	1877.99
208.13	1912.80
208.34	1820.64
208.56	1773.54
208.78	1851.36
209.00	1783.78
209.22	1769.44
209.44	1755.11
209.66	1787.88
209.88	1834.98
210.10	1783.78
210.32	1710.05
210.54	1898.47
210.76	1728.49
210.98	1861.60
211.20	1751.01
211.42	1759.21
211.64	1898.47
211.86	1816.55
212.08	1853.41
212.30	1843.17
212.52	1806.31
212.74	1861.60
212.96	1814.50
213.17	1808.36
213.39	1877.99
213.61	1863.65
213.83	1765.35
214.05	1808.36
214.27	1925.09
214.49	1679.33
214.71	1818.60
214.93	1783.78
215.15	1814.50
215.37	1855.46
215.59	1693.67
215.81	1767.40
216.03	1849.32
216.24	1820.64
216.46	1849.32
216.68	1822.69
216.90	1857.51
217.12	1802.21
217.34	1804.26
217.56	1916.90
217.78	1904.61
218.00	1808.36
218.22	1845.22
218.44	1804.26
218.66	1812.45
218.87	1951.71
219.09	1820.64
219.31	1787.88
219.53	1873.89
219.75	1814.50
219.97	1794.02
220.19	1789.92
220.41	1791.97
220.63	1896.42
220.85	1804.26
221.06	1783.78
221.28	1888.23
221.50	1837.03
221.72	1828.84
221.94	1810.40
222.16	1886.18
222.38	1882.08
222.60	1798.12
222.82	1853.41
223.03	1890.28
223.25	1699.81
223.47	1845.22
223.69	1900.52
223.91	1820.64
224.13	1812.45
224.35	1832.93
224.57	1912.80
224.78	1796.07
225.00	1837.03
225.22	1816.55
225.44	1839.08
225.66	1828.84
225.88	1808.36
226.10	1923.04
226.32	1820.64
226.53	1955.81
226.75	1763.30
226.97	1779.68
227.19	1751.01
227.41	1767.40
227.63	1785.83
227.85	1671.14
228.06	1828.84
228.28	1877.99
228.50	1902.56
228.72	1798.12
228.94	1767.40
229.16	1658.85
229.37	1740.77
229.59	1779.68
229.81	1916.90
230.03	1736.68
230.25	1703.91
230.47	1746.92
230.69	1767.40
230.90	1880.04
231.12	1724.39
231.34	1834.98
231.56	1875.94
231.78	1708.01
232.00	1748.97
232.21	1904.61
232.43	1832.93
232.65	1759.21
232.87	1859.56
233.09	1710.05
233.30	1820.64
233.52	1812.45
233.74	1830.88
233.96	1767.40
234.18	1753.06
234.40	1880.04
234.61	1966.05
234.83	1710.05
235.05	1757.16
235.27	1972.19
235.49	1884.13
235.70	1847.27
235.92	1914.85
236.14	1853.41
236.36	1976.29
236.58	1755.11
236.79	1832.93
237.01	1861.60
237.23	1759.21
237.45	1849.32
237.67	1812.45
237.88	1886.18
238.10	1923.04
238.32	1722.34
238.54	1853.41
238.76	1775.59
238.97	1751.01
239.19	1736.68
239.41	1869.80
239.63	1869.80
239.85	1726.44
240.06	1791.97
240.28	1779.68
240.50	1816.55
240.72	1802.21
240.93	1832.93
241.15	1892.32
241.37	1779.68
241.59	1908.71
241.81	1834.98
242.02	1761.25
242.24	1896.42
242.46	1871.84
242.68	1763.30
242.89	1814.50
243.11	1820.64
243.33	1796.07
243.55	1791.97
243.76	1802.21
243.98	1761.25
244.20	1830.88
244.42	1832.93
244.64	1767.40
244.85	1753.06
245.07	1755.11
245.29	1871.84
245.51	1791.97
245.72	1855.46
245.94	1916.90
246.16	1834.98
246.38	1789.92
246.59	1767.40
246.81	1775.59
247.03	1753.06
247.24	1683.43
247.46	1810.40
247.68	1802.21
247.90	1697.77
248.11	1781.73
248.33	1937.38
248.55	1757.16
248.77	1769.44
248.98	1775.59
249.20	1863.65
249.42	1767.40
249.64	1804.26
249.85	1820.64
250.07	1759.21
250.29	1791.97
250.50	1861.60
250.72	1771.49
250.94	1892.32
251.16	1931.23
251.37	1853.41
251.59	1730.53
251.81	1882.08
252.02	1937.38
252.24	1763.30
252.46	2002.91
252.68	1816.55
252.89	1814.50
253.11	1730.53
253.33	1974.24
253.54	1886.18
253.76	1710.05
253.98	1753.06
254.20	1791.97
254.41	1781.73
254.63	1765.35
254.85	1751.01
255.06	1779.68
255.28	1841.12
255.50	1769.44
255.71	1832.93
255.93	1826.79
256.15	1871.84
256.36	1853.41
256.58	1660.90
256.80	1859.56
257.02	1800.16
257.23	1767.40
257.45	1867.75
257.67	1918.95
257.88	1794.02
258.10	1886.18
258.32	1810.40
258.53	1820.64
258.75	1920.99
258.97	1857.51
259.18	1771.49
259.40	1753.06
259.62	1927.14
259.83	1980.39
260.05	1912.80
260.27	2058.21
260.48	1830.88
260.70	1755.11
260.92	1765.35
261.13	1814.50
261.35	1869.80
261.57	1787.88
261.78	1695.72
262.00	1775.59
262.22	1785.83
262.43	1816.55
262.65	1789.92
262.86	1832.93
263.08	1931.23
263.30	1830.88
263.51	1746.92
263.73	1755.11
263.95	1853.41
264.16	1812.45
264.38	1748.97
264.60	1826.79
264.81	1818.60
265.03	1877.99
265.25	1832.93
265.46	1789.92
265.68	1884.13
265.89	1798.12
266.11	1753.06
266.33	1861.60
266.54	1869.80
266.76	1886.18
266.98	1859.56
267.19	1892.32
267.41	1834.98
267.62	1773.54
267.84	1718.25
268.06	1832.93
268.27	1800.16
268.49	1873.89
268.70	1849.32
268.92	1818.60
269.14	1771.49
269.35	1718.25
269.57	1865.70
269.79	1781.73
270.00	1775.59
270.22	1959.91
270.43	1718.25
270.65	1621.99
270.87	1740.77
271.08	1949.67
271.30	1832.93
271.51	1826.79
271.73	1894.37
271.95	1914.85
272.16	1830.88
272.38	1884.13
272.59	1841.12
272.81	1851.36
273.02	1841.12
273.24	1757.16
273.46	1748.97
273.67	1730.53
273.89	1734.63
274.10	1771.49
274.32	1873.89
274.54	1839.08
274.75	1861.60
274.97	1796.07
275.18	1929.19
275.40	1855.46
275.61	1744.87
275.83	1877.99
276.05	1779.68
276.26	1767.40
276.48	1826.79
276.69	1824.74
276.91	1816.55
277.12	1923.04
277.34	1849.32
277.55	1890.28
277.77	1789.92
277.99	1763.30
278.20	1763.30
278.42	1798.12
278.63	1753.06
278.85	1828.84
279.06	1779.68
279.28	1855.46
279.49	1890.28
279.71	1830.88
279.93	1875.94
280.14	1746.92
280.36	1765.35
280.57	1886.18
280.79	1908.71
281.00	1740.77
281.22	1746.92
281.43	1937.38
281.65	1755.11
281.86	1722.34
282.08	1865.70
282.29	1970.15
282.51	1710.05
282.73	1726.44
282.94	1761.25
283.16	1812.45
283.37	1873.89
283.59	1800.16
283.80	1849.32
284.02	1855.46
284.23	1855.46
284.45	1775.59
284.66	1730.53
284.88	1767.40
285.09	1839.08
285.31	1806.31
285.52	1867.75
285.74	1816.55
285.95	1867.75
286.17	1808.36
286.38	1789.92
286.60	1808.36
286.81	1812.45
287.03	1777.64
287.24	1812.45
287.46	1796.07
287.67	1832.93
287.89	1861.60
288.10	1818.60
288.32	1816.55
288.53	1830.88
288.75	1863.65
288.96	1771.49
289.18	1769.44
289.39	1820.64
289.61	1892.32
289.82	1978.34
290.04	1943.52
290.25	1691.62
290.47	1857.51
290.68	1783.78
290.90	1853.41
291.11	1773.54
291.33	1855.46
291.54	1796.07
291.76	1726.44
291.97	1820.64
292.18	1828.84
292.40	1814.50
292.61	1757.16
292.83	1984.48
293.04	1939.43
293.26	1783.78
293.47	1789.92
293.69	1796.07
293.90	1748.97
294.12	1877.99
294.33	1812.45
294.55	1710.05
294.76	1880.04
294.97	1937.38
295.19	1933.28
295.40	1804.26
295.62	1806.31
295.83	1839.08
296.05	1755.11
296.26	1900.52
296.48	1824.74
296.69	1765.35
296.90	1826.79
297.12	1888.23
297.33	1882.08
297.55	1765.35
297.76	1916.90
297.98	1869.80
298.19	1814.50
298.41	1845.22
298.62	1826.79
298.83	1927.14
299.05	1767.40
299.26	1757.16
299.48	1767.40
299.69	1843.17
299.90	1828.84
300.12	1816.55
300.33	1871.84
300.55	1847.27
300.76	1847.27
300.98	1767.40
301.19	1894.37
301.40	1832.93
301.62	1787.88
301.83	1843.17
302.05	1810.40
302.26	1787.88
302.47	1814.50
302.69	1759.21
302.90	1791.97
303.12	1640.42
303.33	1849.32
303.54	2007.01
303.76	1828.84
303.97	1763.30
304.19	1912.80
304.40	1705.96
304.61	1853.41
304.83	1943.52
305.04	1855.46
305.26	1841.12
305.47	1808.36
305.68	1839.08
305.90	1789.92
306.11	1814.50
306.33	1785.83
306.54	1773.54
306.75	1777.64
306.97	1720.29
307.18	1804.26
307.39	1787.88
307.61	1814.50
307.82	1832.93
308.04	1853.41
308.25	1742.82
308.46	1751.01
308.68	1837.03
308.89	1888.23
309.10	1849.32
309.32	1904.61
309.53	1787.88
309.74	1828.84
309.96	1759.21
310.17	1863.65
310.39	1804.26
310.60	1765.35
310.81	1781.73
311.03	1714.15
311.24	1847.27
311.45	1839.08
311.67	1968.10
311.88	1779.68
312.09	1779.68
312.31	1787.88
312.52	1759.21
312.73	1849.32
312.95	1734.63
313.16	1697.77
313.37	1933.28
313.59	1818.60
313.80	1867.75
314.01	1843.17
314.23	1751.01
314.44	1753.06
314.65	1718.25
314.87	1771.49
315.08	1734.63
315.29	1773.54
315.51	1734.63
315.72	1744.87
315.93	1964.00
316.15	1843.17
316.36	1802.21
316.57	1818.60
316.79	1855.46
317.00	1800.16
317.21	1822.69
317.43	1791.97
317.64	1843.17
317.85	1798.12
318.07	1755.11
318.28	1865.70
318.49	2004.96
318.70	2015.20
318.92	1943.52
319.13	2035.68
319.34	2027.49
319.56	1910.75
319.77	1937.38
319.98	1904.61
320.20	1904.61
320.41	1916.90
320.62	1908.71
320.83	1781.73
321.05	1988.58
321.26	1847.27
321.47	1789.92
321.69	1894.37
321.90	1669.09
322.11	1724.39
322.32	1853.41
322.54	1961.95
322.75	1781.73
322.96	2000.87
323.18	1791.97
323.39	1763.30
323.60	1832.93
323.81	1882.08
324.03	1798.12
324.24	1841.12
324.45	1824.74
324.66	1855.46
324.88	1828.84
325.09	1920.99
325.30	1791.97
325.52	1869.80
325.73	1867.75
325.94	1796.07
326.15	1697.77
326.37	1730.53
326.58	1818.60
326.79	1906.66
327.00	1828.84
327.22	1783.78
327.43	1785.83
327.64	1695.72
327.85	1822.69
328.07	1931.23
328.28	1978.34
328.49	1748.97
328.70	1816.55
328.92	1794.02
329.13	1736.68
329.34	1832.93
329.55	1763.30
329.76	1798.12
329.98	1828.84
330.19	1918.95
330.40	1859.56
330.61	1849.32
330.83	1880.04
331.04	1683.43
331.25	1791.97
331.46	1785.83
331.68	1781.73
331.89	1867.75
332.10	1695.72
332.31	1736.68
332.52	1843.17
332.74	1882.08
332.95	1687.53
333.16	1755.11
333.37	1859.56
333.58	1830.88
333.80	1787.88
334.01	1683.43
334.22	1861.60
334.43	1783.78
334.64	1834.98
334.86	1753.06
335.07	1732.58
335.28	1910.75
335.49	1740.77
335.70	1812.45
335.92	1951.71
336.13	1955.81
336.34	1812.45
336.55	1863.65
336.76	1837.03
336.98	1740.77
337.19	1888.23
337.40	1882.08
337.61	1886.18
337.82	1812.45
338.04	1880.04
338.25	1753.06
338.46	1830.88
338.67	1855.46
338.88	1777.64
339.09	1755.11
339.31	1857.51
339.52	1769.44
339.73	1708.01
339.94	1773.54
340.15	1871.84
340.36	1857.51
340.58	1767.40
340.79	1804.26
341.00	1877.99
341.21	1785.83
341.42	1880.04
341.63	1820.64
341.85	1843.17
342.06	1863.65
342.27	1751.01
342.48	1847.27
342.69	1783.78
342.90	1834.98
343.12	1820.64
343.33	1767.40
343.54	1898.47
343.75	1943.52
343.96	1808.36
344.17	1751.01
344.38	1771.49
344.60	1751.01
344.81	1699.81
345.02	1828.84
345.23	1851.36
345.44	1949.67
345.65	1900.52
345.86	1845.22
346.07	1845.22
346.29	1812.45
346.50	1822.69
346.71	1841.12
346.92	1861.60
347.13	2027.49
347.34	1794.02
347.55	1882.08
347.76	1824.74
347.98	1681.38
348.19	1802.21
348.40	1970.15
348.61	1794.02
348.82	1849.32
349.03	1816.55
349.24	1763.30
349.45	1904.61
349.66	1685.48
349.88	1796.07
350.09	1791.97
350.30	1865.70
350.51	1888.23
350.72	1748.97
350.93	1814.50
351.14	1775.59
351.35	1927.14
351.56	1810.40
351.77	1771.49
351.99	1808.36
352.20	1890.28
352.41	1904.61
352.62	1683.43
352.83	1783.78
353.04	1779.68
353.25	1794.02
353.46	1802.21
353.67	1814.50
353.88	1718.25
354.09	1828.84
354.30	1755.11
354.52	1826.79
354.73	1787.88
354.94	1734.63
355.15	1775.59
355.36	1923.04
355.57	1794.02
355.78	1861.60
355.99	1779.68
356.20	1853.41
356.41	1955.81
356.62	1892.32
356.83	1779.68
357.04	1894.37
357.25	1740.77
357.46	1796.07
357.68	1820.64
357.89	1718.25
358.10	1789.92
358.31	1824.74
358.52	1755.11
358.73	1746.92
358.94	1748.97
359.15	1732.58
359.36	1880.04
359.57	1796.07
359.78	1787.88
359.99	1863.65
360.20	1779.68
360.41	1853.41
360.62	1851.36
360.83	1861.60
361.04	1855.46
361.25	1894.37
361.46	1923.04
361.67	1857.51
361.88	1923.04
362.09	1949.67
362.30	1902.56
362.51	1748.97
362.72	1794.02
362.93	1828.84
363.14	1863.65
363.35	1820.64
363.56	1789.92
363.78	1904.61
363.99	1845.22
364.20	1751.01
364.41	1812.45
364.62	1968.10
364.83	1839.08
365.04	1820.64
365.25	1871.84
365.46	1964.00
365.67	1781.73
365.88	1832.93
366.09	1873.89
366.30	1794.02
366.51	1822.69
366.72	1712.10
366.93	1753.06
367.14	1834.98
367.35	1927.14
367.56	1888.23
367.77	1789.92
367.98	1796.07
368.18	1740.77
368.39	1937.38
368.60	1800.16
368.81	1898.47
369.02	1884.13
369.23	1824.74
369.44	1720.29
369.65	1834.98
369.86	1861.60
370.07	1830.88
370.28	1814.50
370.49	1832.93
370.70	1943.52
370.91	1812.45
371.12	1687.53
371.33	1902.56
371.54	1742.82
371.75	1972.19
371.96	1679.33
372.17	1787.88
372.38	1732.58
372.59	1769.44
372.80	1775.59
373.01	1802.21
373.22	1863.65
373.43	1820.64
373.64	1705.96
373.85	1861.60
374.06	1959.91
374.26	1763.30
374.47	1787.88
374.68	1920.99
374.89	1814.50
375.10	1771.49
375.31	1923.04
375.52	1839.08
375.73	1847.27
375.94	1779.68
376.15	1914.85
376.36	1712.10
376.57	1804.26
376.78	1763.30
376.99	1773.54
377.20	1849.32
377.40	1787.88
377.61	2009.06
377.82	1789.92
378.03	1871.84
378.24	1877.99
378.45	1875.94
378.66	1877.99
378.87	1710.05
379.08	1699.81
379.29	1849.32
379.50	1953.76
379.71	1826.79
379.91	1841.12
380.12	1796.07
380.33	1767.40
380.54	1839.08
380.75	1781.73
380.96	1773.54
381.17	1890.28
381.38	1826.79
381.59	1830.88
381.80	1822.69
382.00	1951.71
382.21	1867.75
382.42	1955.81
382.63	2017.25
382.84	1927.14
383.05	1916.90
383.26	1931.23
383.47	1818.60
383.68	1888.23
383.88	1863.65
384.09	1839.08
384.30	1966.05
384.51	1863.65
384.72	1804.26
384.93	1658.85
385.14	1867.75
385.35	1902.56
385.55	1736.68
385.76	1920.99
385.97	1906.66
386.18	1779.68
386.39	1794.02
386.60	1759.21
386.81	1771.49
387.02	1691.62
387.22	1791.97
387.43	1949.67
387.64	1939.43
387.85	1990.63
388.06	2203.61
388.27	4212.67
388.48	8808.31
388.68	11677.52
388.89	13899.56
389.10	14610.21
389.31	12971.83
389.52	10241.89
389.73	9045.88
389.93	8109.96
390.14	7493.52
390.35	6885.27
390.56	6121.38
390.77	5156.79
390.98	3975.11
391.18	3049.43
391.39	2498.52
391.60	2121.70
391.81	1959.91
392.02	1804.26
392.23	2039.78
392.43	1910.75
392.64	1923.04
392.85	1800.16
393.06	1957.86
393.27	1888.23
393.47	1775.59
393.68	1857.51
393.89	1712.10
394.10	1923.04
394.31	1814.50
394.52	1759.21
394.72	1814.50
394.93	1974.24
395.14	1767.40
395.35	1812.45
395.56	1812.45
395.76	1794.02
395.97	1951.71
396.18	2025.44
396.39	1972.19
396.60	2258.91
396.80	2103.26
397.01	1992.67
397.22	1964.00
397.43	1931.23
397.64	1832.93
397.84	1966.05
398.05	2019.30
398.26	1839.08
398.47	1884.13
398.67	1869.80
398.88	1832.93
399.09	1796.07
399.30	1802.21
399.51	1882.08
399.71	1857.51
399.92	1775.59
400.13	1843.17
400.34	1746.92
400.54	1781.73
400.75	1953.76
400.96	1812.45
401.17	1947.62
401.37	1863.65
401.58	1787.88
401.79	1853.41
402.00	1947.62
402.21	2105.31
402.41	2150.37
402.62	2133.98
402.83	2279.39
403.04	2205.66
403.24	2351.07
403.45	1951.71
403.66	2109.41
403.87	2025.44
404.07	2043.87
404.28	2136.03
404.49	1964.00
404.70	1894.37
404.90	1847.27
405.11	1884.13
405.32	1896.42
405.52	1857.51
405.73	1724.39
405.94	1757.16
406.15	1849.32
406.35	1834.98
406.56	1847.27
406.77	1814.50
406.98	1787.88
407.18	1789.92
407.39	1931.23
407.60	1748.97
407.80	1877.99
408.01	1816.55
408.22	1841.12
408.43	1800.16
408.63	1888.23
408.84	1869.80
409.05	1873.89
409.25	1720.29
409.46	1775.59
409.67	1812.45
409.88	1816.55
410.08	1841.12
410.29	1810.40
410.50	1822.69
410.70	1839.08
410.91	1697.77
411.12	1877.99
411.32	1853.41
411.53	1730.53
411.74	1941.47
411.95	1933.28
412.15	1923.04
412.36	1972.19
412.57	1816.55
412.77	1916.90
412.98	1798.12
413.19	1875.94
413.39	1964.00
413.60	1837.03
413.81	1978.34
414.01	1736.68
414.22	1908.71
414.43	1853.41
414.63	1806.31
414.84	1933.28
415.05	1851.36
415.25	1751.01
415.46	1812.45
415.67	1812.45
415.87	1841.12
416.08	1918.95
416.29	1869.80
416.49	1896.42
416.70	1810.40
416.91	1816.55
417.11	1777.64
417.32	1794.02
417.53	1869.80
417.73	1841.12
417.94	1775.59
418.15	1777.64
418.35	1791.97
418.56	1791.97
418.77	1984.48
418.97	1814.50
419.18	1757.16
419.38	1730.53
419.59	1847.27
419.80	1873.89
420.00	1812.45
420.21	1789.92
420.42	1800.16
420.62	1810.40
420.83	1742.82
421.04	1775.59
421.24	1763.30
421.45	1869.80
421.65	1865.70
421.86	1794.02
422.07	1886.18
422.27	1820.64
422.48	1769.44
422.69	1753.06
422.89	1859.56
423.10	1820.64
423.30	1763.30
423.51	1886.18
423.72	1771.49
423.92	1875.94
424.13	1703.91
424.33	1808.36
424.54	1894.37
424.75	1781.73
424.95	1933.28
425.16	1898.47
425.36	1857.51
425.57	1912.80
425.78	1861.60
425.98	1820.64
426.19	1753.06
426.39	1769.44
426.60	1873.89
426.81	1896.42
427.01	1843.17
427.22	1746.92
427.42	1667.05
427.63	1826.79
427.83	1861.60
428.04	1861.60
428.25	1884.13
428.45	1970.15
428.66	1886.18
428.86	1804.26
429.07	1802.21
429.28	1837.03
429.48	1708.01
429.69	1798.12
429.89	1849.32
430.10	1738.73
430.30	1871.84
430.51	1923.04
430.71	1687.53
430.92	1851.36
431.13	1748.97
431.33	1837.03
431.54	1820.64
431.74	1865.70
431.95	1939.43
432.15	1759.21
432.36	1804.26
432.56	1871.84
432.77	1949.67
432.98	1918.95
433.18	1859.56
433.39	1828.84
433.59	1832.93
433.80	1871.84
434.00	1957.86
434.21	1746.92
434.41	1765.35
434.62	2000.87
434.82	1771.49
435.03	1744.87
435.23	1841.12
435.44	1740.77
435.64	1804.26
435.85	1738.73
436.06	1808.36
436.26	1847.27
436.47	1894.37
436.67	1828.84
436.88	1839.08
437.08	1865.70
437.29	1875.94
437.49	1863.65
437.70	1865.70
437.90	1845.22
438.11	1986.53
438.31	1906.66
438.52	2027.49
438.72	1933.28
438.93	2164.70
439.13	1937.38
439.34	1988.58
439.54	1912.80
439.75	1890.28
439.95	1869.80
440.16	1839.08
440.36	1841.12
440.57	1841.12
440.77	1798.12
440.98	1886.18
441.18	1945.57
441.39	1865.70
441.59	1777.64
441.80	1937.38
442.00	1873.89
442.21	2000.87
442.41	1732.58
442.62	1910.75
442.82	1777.64
443.02	1832.93
443.23	1802.21
443.43	1714.15
443.64	1904.61
443.84	1771.49
444.05	1906.66
444.25	1886.18
444.46	1847.27
444.66	1886.18
444.87	1902.56
445.07	1722.34
445.28	1865.70
445.48	1937.38
445.69	1904.61
445.89	1892.32
446.09	1843.17
446.30	2080.74
446.50	2602.97
446.71	4247.49
446.91	5226.42
447.12	5871.53
447.32	6123.43
447.53	5691.31
447.73	4685.75
447.93	4179.90
448.14	3811.27
448.34	3594.19
448.55	3147.73
448.75	3182.54
448.96	3045.33
449.16	2680.79
449.36	2586.58
449.57	2234.33
449.77	1976.29
449.98	1916.90
450.18	1931.23
450.39	1912.80
450.59	1933.28
450.79	1892.32
451.00	1771.49
451.20	1859.56
451.41	1882.08
451.61	1873.89
451.81	1873.89
452.02	1800.16
452.22	1800.16
452.43	1804.26
452.63	1841.12
