SpectraSuite Data File
++++++++++++++++++++++++++++++++++++
Date: Wed May 04 21:13:18 CEST 2016
User: root
Dark Spectrum Present: No
Reference Spectrum Present: No
Number of Sampled Component Spectra: 1
Spectrometers: USB4C02835
Integration Time (usec): 100000 (USB4C02835)
Spectra Averaged: 1 (USB4C02835)
Boxcar Smoothing: 0 (USB4C02835)
Correct for Electrical Dark: No (USB4C02835)
Strobe/Lamp Enabled: No (USB4C02835)
Correct for Detector Non-linearity: No (USB4C02835)
Correct for Stray Light: No (USB4C02835)
Number of Pixels in Processed Spectrum: 3648
>>>>>Begin Processed Spectral Data<<<<<
177.47	1576.94
177.69	1576.94
177.91	1576.94
178.13	1558.50
178.36	1515.50
178.58	1787.88
178.80	1773.54
179.02	1738.73
179.24	1726.44
179.46	1777.64
179.68	1882.08
179.90	1791.97
180.13	1853.41
180.35	1714.15
180.57	1800.16
180.79	1791.97
181.01	1806.31
181.23	1800.16
181.45	1898.47
181.67	1855.46
181.90	1914.85
182.12	1804.26
182.34	1767.40
182.56	1828.84
182.78	1857.51
183.00	1720.29
183.22	1812.45
183.44	1705.96
183.66	2000.87
183.89	1877.99
184.11	1759.21
184.33	1900.52
184.55	1884.13
184.77	1822.69
184.99	1810.40
185.21	1779.68
185.43	1884.13
185.65	1877.99
185.87	1785.83
186.10	1957.86
186.32	1920.99
186.54	1855.46
186.76	1816.55
186.98	1894.37
187.20	1828.84
187.42	1814.50
187.64	1789.92
187.86	1896.42
188.08	1894.37
188.30	1751.01
188.52	1861.60
188.75	1920.99
188.97	1953.76
189.19	1802.21
189.41	1806.31
189.63	1865.70
189.85	1773.54
190.07	1683.43
190.29	1814.50
190.51	1929.19
190.73	1814.50
190.95	1888.23
191.17	1822.69
191.39	1800.16
191.61	1748.97
191.84	1814.50
192.06	1828.84
192.28	1703.91
192.50	1988.58
192.72	1832.93
192.94	1853.41
193.16	1853.41
193.38	1781.73
193.60	1773.54
193.82	1744.87
194.04	1906.66
194.26	1855.46
194.48	1785.83
194.70	1738.73
194.92	1884.13
195.14	1841.12
195.36	1781.73
195.58	1806.31
195.80	1812.45
196.02	1757.16
196.24	1873.89
196.46	1822.69
196.69	1748.97
196.91	1972.19
197.13	1748.97
197.35	1765.35
197.57	1855.46
197.79	1882.08
198.01	1796.07
198.23	1783.78
198.45	1871.84
198.67	1769.44
198.89	1812.45
199.11	1892.32
199.33	1767.40
199.55	1685.48
199.77	1777.64
199.99	1906.66
200.21	1705.96
200.43	1816.55
200.65	1673.19
200.87	1638.38
201.09	1771.49
201.31	1791.97
201.53	1867.75
201.75	1855.46
201.97	1814.50
202.19	1789.92
202.41	1865.70
202.63	1923.04
202.85	1877.99
203.07	1894.37
203.29	1781.73
203.51	1849.32
203.73	1771.49
203.95	1959.91
204.17	1742.82
204.39	1796.07
204.61	1781.73
204.83	1798.12
205.05	1855.46
205.27	1861.60
205.49	1920.99
205.71	1841.12
205.93	1814.50
206.15	1765.35
206.37	1802.21
206.59	1748.97
206.81	1775.59
207.03	1742.82
207.25	1748.97
207.47	1882.08
207.69	1791.97
207.91	1886.18
208.13	1843.17
208.34	1783.78
208.56	1695.72
208.78	1812.45
209.00	1808.36
209.22	1816.55
209.44	1759.21
209.66	1841.12
209.88	1810.40
210.10	1765.35
210.32	1775.59
210.54	1886.18
210.76	1812.45
210.98	1824.74
211.20	1683.43
211.42	1832.93
211.64	1900.52
211.86	1951.71
212.08	1898.47
212.30	1798.12
212.52	1781.73
212.74	1804.26
212.96	1828.84
213.17	1900.52
213.39	1841.12
213.61	1937.38
213.83	1816.55
214.05	1830.88
214.27	1916.90
214.49	1718.25
214.71	1708.01
214.93	1920.99
215.15	1771.49
215.37	1841.12
215.59	1714.15
215.81	1804.26
216.03	1902.56
216.24	1834.98
216.46	1775.59
216.68	1804.26
216.90	1855.46
217.12	1869.80
217.34	1837.03
217.56	1912.80
217.78	1820.64
218.00	1853.41
218.22	1814.50
218.44	1851.36
218.66	1785.83
218.87	1925.09
219.09	1820.64
219.31	1808.36
219.53	1800.16
219.75	1794.02
219.97	1775.59
220.19	1880.04
220.41	1787.88
220.63	1933.28
220.85	1822.69
221.06	1759.21
221.28	1898.47
221.50	1865.70
221.72	1783.78
221.94	1771.49
222.16	1877.99
222.38	1843.17
222.60	1920.99
222.82	1808.36
223.03	1847.27
223.25	1785.83
223.47	1912.80
223.69	1964.00
223.91	1886.18
224.13	1791.97
224.35	1791.97
224.57	1896.42
224.78	1839.08
225.00	1771.49
225.22	1724.39
225.44	1875.94
225.66	1877.99
225.88	1763.30
226.10	1851.36
226.32	1871.84
226.53	1869.80
226.75	1851.36
226.97	1830.88
227.19	1808.36
227.41	1753.06
227.63	1730.53
227.85	1697.77
228.06	1820.64
228.28	1751.01
228.50	1861.60
228.72	1773.54
228.94	1742.82
229.16	1648.61
229.37	1781.73
229.59	1810.40
229.81	1912.80
230.03	1744.87
230.25	1740.77
230.47	1699.81
230.69	1699.81
230.90	1834.98
231.12	1751.01
231.34	1861.60
231.56	1808.36
231.78	1781.73
232.00	1861.60
232.21	1816.55
232.43	1814.50
232.65	1775.59
232.87	1837.03
233.09	1740.77
233.30	1785.83
233.52	1927.14
233.74	1869.80
233.96	1726.44
234.18	1875.94
234.40	1757.16
234.61	1900.52
234.83	1785.83
235.05	1771.49
235.27	1957.86
235.49	1857.51
235.70	1804.26
235.92	1894.37
236.14	1783.78
236.36	1990.63
236.58	1726.44
236.79	1828.84
237.01	1804.26
237.23	1828.84
237.45	1943.52
237.67	1732.58
237.88	1794.02
238.10	2000.87
238.32	1791.97
238.54	1759.21
238.76	1783.78
238.97	1730.53
239.19	1742.82
239.41	1761.25
239.63	1877.99
239.85	1861.60
240.06	1744.87
240.28	1824.74
240.50	1843.17
240.72	1824.74
240.93	1804.26
241.15	1865.70
241.37	1796.07
241.59	1871.84
241.81	1816.55
242.02	1777.64
242.24	1853.41
242.46	1861.60
242.68	1800.16
242.89	1775.59
243.11	1845.22
243.33	1783.78
243.55	1890.28
243.76	1820.64
243.98	1779.68
244.20	1734.63
244.42	1732.58
244.64	1834.98
244.85	1755.11
245.07	1791.97
245.29	1804.26
245.51	1802.21
245.72	1830.88
245.94	1875.94
246.16	1925.09
246.38	1843.17
246.59	1818.60
246.81	1814.50
247.03	1763.30
247.24	1701.86
247.46	1806.31
247.68	1808.36
247.90	1794.02
248.11	1734.63
248.33	1841.12
248.55	1808.36
248.77	1863.65
248.98	1918.95
249.20	1982.43
249.42	1843.17
249.64	1822.69
249.85	1888.23
250.07	1767.40
250.29	1855.46
250.50	1896.42
250.72	1705.96
250.94	1804.26
251.16	1951.71
251.37	1914.85
251.59	1834.98
251.81	1902.56
252.02	1894.37
252.24	1800.16
252.46	1943.52
252.68	1763.30
252.89	1802.21
253.11	1730.53
253.33	1927.14
253.54	1923.04
253.76	1773.54
253.98	1755.11
254.20	1736.68
254.41	1697.77
254.63	1740.77
254.85	1781.73
255.06	1777.64
255.28	1828.84
255.50	1771.49
255.71	1775.59
255.93	1685.48
256.15	1781.73
256.36	1845.22
256.58	1734.63
256.80	1814.50
257.02	1775.59
257.23	1873.89
257.45	1763.30
257.67	1763.30
257.88	1724.39
258.10	1808.36
258.32	1742.82
258.53	1863.65
258.75	1943.52
258.97	1708.01
259.18	1787.88
259.40	1826.79
259.62	1841.12
259.83	1867.75
260.05	1923.04
260.27	2050.02
260.48	1845.22
260.70	1775.59
260.92	1787.88
261.13	1830.88
261.35	1820.64
261.57	1849.32
261.78	1753.06
262.00	1718.25
262.22	1837.03
262.43	1757.16
262.65	1863.65
262.86	1779.68
263.08	1914.85
263.30	1775.59
263.51	1703.91
263.73	1740.77
263.95	1853.41
264.16	1775.59
264.38	1775.59
264.60	1800.16
264.81	1861.60
265.03	1935.33
265.25	1863.65
265.46	1830.88
265.68	1943.52
265.89	1906.66
266.11	1656.81
266.33	1832.93
266.54	1857.51
266.76	1851.36
266.98	1779.68
267.19	1890.28
267.41	1880.04
267.62	1761.25
267.84	1742.82
268.06	1775.59
268.27	1867.75
268.49	1877.99
268.70	1771.49
268.92	1785.83
269.14	1759.21
269.35	1759.21
269.57	1816.55
269.79	1800.16
270.00	1824.74
270.22	2000.87
270.43	1695.72
270.65	1718.25
270.87	1806.31
271.08	1800.16
271.30	1890.28
271.51	1787.88
271.73	1826.79
271.95	1935.33
272.16	1796.07
272.38	1832.93
272.59	1802.21
272.81	1818.60
273.02	1834.98
273.24	1824.74
273.46	1787.88
273.67	1773.54
273.89	1781.73
274.10	1832.93
274.32	1863.65
274.54	1816.55
274.75	1873.89
274.97	1779.68
275.18	1906.66
275.40	1882.08
275.61	1742.82
275.83	1824.74
276.05	1732.58
276.26	1751.01
276.48	1847.27
276.69	1804.26
276.91	1798.12
277.12	1908.71
277.34	1818.60
277.55	1908.71
277.77	1796.07
277.99	1779.68
278.20	1740.77
278.42	1812.45
278.63	1818.60
278.85	1796.07
279.06	1785.83
279.28	1832.93
279.49	1867.75
279.71	1875.94
279.93	1808.36
280.14	1775.59
280.36	1769.44
280.57	1896.42
280.79	1828.84
281.00	1767.40
281.22	1785.83
281.43	1904.61
281.65	1617.90
281.86	1791.97
282.08	1828.84
282.29	1920.99
282.51	1777.64
282.73	1763.30
282.94	1650.66
283.16	1789.92
283.37	1884.13
283.59	1705.96
283.80	1834.98
284.02	1697.77
284.23	1818.60
284.45	1757.16
284.66	1771.49
284.88	1732.58
285.09	1810.40
285.31	1902.56
285.52	1859.56
285.74	1791.97
285.95	1859.56
286.17	1832.93
286.38	1861.60
286.60	1691.62
286.81	1759.21
287.03	1744.87
287.24	1869.80
287.46	1820.64
287.67	1738.73
287.89	1918.95
288.10	1832.93
288.32	1837.03
288.53	1839.08
288.75	1796.07
288.96	1800.16
289.18	1738.73
289.39	1845.22
289.61	1877.99
289.82	1910.75
290.04	1910.75
290.25	1783.78
290.47	1847.27
290.68	1802.21
290.90	1816.55
291.11	1738.73
291.33	1882.08
291.54	1753.06
291.76	1796.07
291.97	1736.68
292.18	1867.75
292.40	1800.16
292.61	1798.12
292.83	1873.89
293.04	1765.35
293.26	1814.50
293.47	1847.27
293.69	1703.91
293.90	1789.92
294.12	1869.80
294.33	1822.69
294.55	1814.50
294.76	1882.08
294.97	1947.62
295.19	1966.05
295.40	1839.08
295.62	1806.31
295.83	1859.56
296.05	1812.45
296.26	1865.70
296.48	1740.77
296.69	1791.97
296.90	1884.13
297.12	1820.64
297.33	1820.64
297.55	1814.50
297.76	1783.78
297.98	1865.70
298.19	1871.84
298.41	1849.32
298.62	1751.01
298.83	1855.46
299.05	1771.49
299.26	1785.83
299.48	1726.44
299.69	1863.65
299.90	1863.65
300.12	1789.92
300.33	1861.60
300.55	1880.04
300.76	1742.82
300.98	1738.73
301.19	1853.41
301.40	1816.55
301.62	1791.97
301.83	1851.36
302.05	1810.40
302.26	1871.84
302.47	1810.40
302.69	1712.10
302.90	1830.88
303.12	1703.91
303.33	1834.98
303.54	1988.58
303.76	1791.97
303.97	1880.04
304.19	1871.84
304.40	1667.05
304.61	1861.60
304.83	1910.75
305.04	1865.70
305.26	1845.22
305.47	1796.07
305.68	1789.92
305.90	1755.11
306.11	1867.75
306.33	1800.16
306.54	1787.88
306.75	1761.25
306.97	1705.96
307.18	1771.49
307.39	1738.73
307.61	1896.42
307.82	1857.51
308.04	1818.60
308.25	1812.45
308.46	1837.03
308.68	1810.40
308.89	1818.60
309.10	1849.32
309.32	1751.01
309.53	1783.78
309.74	1830.88
309.96	1861.60
310.17	1904.61
310.39	1806.31
310.60	1806.31
310.81	1849.32
311.03	1683.43
311.24	1886.18
311.45	1847.27
311.67	1845.22
311.88	1849.32
312.09	1822.69
312.31	1759.21
312.52	1798.12
312.73	1785.83
312.95	1763.30
313.16	1746.92
313.37	1886.18
313.59	1867.75
313.80	1900.52
314.01	1927.14
314.23	1816.55
314.44	1728.49
314.65	1722.34
314.87	1812.45
315.08	1814.50
315.29	1771.49
315.51	1677.29
315.72	1759.21
315.93	1939.43
316.15	1806.31
316.36	1775.59
316.57	1853.41
316.79	1826.79
317.00	1857.51
317.21	1798.12
317.43	1845.22
317.64	1834.98
317.85	1755.11
318.07	1761.25
318.28	1877.99
318.49	1875.94
318.70	2146.27
318.92	1939.43
319.13	2068.45
319.34	1998.82
319.56	1927.14
319.77	1996.77
319.98	1943.52
320.20	1912.80
320.41	1857.51
320.62	1820.64
320.83	1771.49
321.05	1974.24
321.26	1826.79
321.47	1734.63
321.69	1857.51
321.90	1769.44
322.11	1718.25
322.32	1857.51
322.54	1906.66
322.75	1757.16
322.96	1976.29
323.18	1748.97
323.39	1660.90
323.60	1787.88
323.81	1886.18
324.03	1841.12
324.24	1796.07
324.45	1834.98
324.66	1841.12
324.88	1845.22
325.09	1863.65
325.30	1855.46
325.52	1875.94
325.73	1767.40
325.94	1757.16
326.15	1738.73
326.37	1812.45
326.58	1839.08
326.79	1931.23
327.00	1755.11
327.22	1863.65
327.43	1783.78
327.64	1798.12
327.85	1841.12
328.07	1855.46
328.28	1935.33
328.49	1753.06
328.70	1789.92
328.92	1765.35
329.13	1794.02
329.34	1886.18
329.55	1892.32
329.76	1877.99
329.98	1734.63
330.19	1875.94
330.40	1777.64
330.61	1828.84
330.83	1841.12
331.04	1683.43
331.25	1777.64
331.46	1734.63
331.68	1759.21
331.89	1888.23
332.10	1759.21
332.31	1804.26
332.52	1757.16
332.74	1898.47
332.95	1705.96
333.16	1804.26
333.37	1939.43
333.58	1794.02
333.80	1763.30
334.01	1718.25
334.22	1759.21
334.43	1714.15
334.64	1728.49
334.86	1722.34
335.07	1804.26
335.28	1890.28
335.49	1720.29
335.70	1816.55
335.92	1890.28
336.13	1980.39
336.34	1869.80
336.55	1832.93
336.76	1845.22
336.98	1699.81
337.19	1830.88
337.40	1929.19
337.61	1914.85
337.82	1728.49
338.04	1853.41
338.25	1757.16
338.46	1775.59
338.67	1695.72
338.88	1804.26
339.09	1748.97
339.31	1794.02
339.52	1712.10
339.73	1787.88
339.94	1837.03
340.15	1886.18
340.36	1802.21
340.58	1746.92
340.79	1783.78
341.00	1857.51
341.21	1755.11
341.42	1904.61
341.63	1714.15
341.85	1857.51
342.06	1851.36
342.27	1677.29
342.48	1845.22
342.69	1751.01
342.90	1873.89
343.12	1787.88
343.33	1816.55
343.54	1837.03
343.75	1910.75
343.96	1759.21
344.17	1753.06
344.38	1802.21
344.60	1781.73
344.81	1748.97
345.02	1804.26
345.23	1794.02
345.44	1992.67
345.65	1865.70
345.86	1847.27
346.07	1837.03
346.29	1748.97
346.50	1849.32
346.71	1820.64
346.92	1974.24
347.13	1906.66
347.34	1830.88
347.55	1791.97
347.76	1824.74
347.98	1736.68
348.19	1863.65
348.40	1939.43
348.61	1742.82
348.82	1933.28
349.03	1845.22
349.24	1791.97
349.45	1900.52
349.66	1677.29
349.88	1816.55
350.09	1812.45
350.30	1869.80
350.51	1947.62
350.72	1845.22
350.93	1906.66
351.14	1796.07
351.35	1777.64
351.56	1800.16
351.77	1828.84
351.99	1890.28
352.20	1968.10
352.41	1779.68
352.62	1693.67
352.83	1785.83
353.04	1796.07
353.25	1755.11
353.46	1976.29
353.67	1837.03
353.88	1734.63
354.09	1800.16
354.30	1798.12
354.52	1789.92
354.73	1816.55
354.94	1722.34
355.15	1851.36
355.36	2004.96
355.57	1701.86
355.78	1896.42
355.99	1787.88
356.20	1759.21
356.41	1875.94
356.62	1853.41
356.83	1802.21
357.04	1925.09
357.25	1722.34
357.46	1802.21
357.68	1804.26
357.89	1736.68
358.10	1830.88
358.31	1875.94
358.52	1875.94
358.73	1746.92
358.94	1744.87
359.15	1828.84
359.36	1877.99
359.57	1865.70
359.78	1781.73
359.99	1861.60
360.20	1724.39
360.41	1773.54
360.62	1857.51
360.83	1853.41
361.04	1804.26
361.25	1888.23
361.46	1968.10
361.67	1828.84
361.88	1904.61
362.09	1859.56
362.30	1794.02
362.51	1806.31
362.72	1802.21
362.93	1816.55
363.14	1882.08
363.35	1900.52
363.56	1802.21
363.78	1869.80
363.99	1849.32
364.20	1777.64
364.41	1853.41
364.62	2033.63
364.83	1892.32
365.04	1869.80
365.25	1822.69
365.46	1947.62
365.67	1730.53
365.88	1748.97
366.09	1767.40
366.30	1761.25
366.51	1804.26
366.72	1703.91
366.93	1845.22
367.14	1806.31
367.35	1908.71
367.56	1824.74
367.77	1880.04
367.98	1757.16
368.18	1857.51
368.39	1808.36
368.60	1718.25
368.81	1865.70
369.02	1904.61
369.23	1808.36
369.44	1759.21
369.65	1755.11
369.86	1837.03
370.07	1904.61
370.28	1722.34
370.49	1824.74
370.70	1802.21
370.91	1791.97
371.12	1677.29
371.33	1927.14
371.54	1732.58
371.75	1923.04
371.96	1689.57
372.17	1814.50
372.38	1787.88
372.59	1810.40
372.80	1781.73
373.01	1773.54
373.22	1871.84
373.43	1871.84
373.64	1742.82
373.85	1939.43
374.06	1982.43
374.26	1867.75
374.47	1824.74
374.68	1871.84
374.89	1804.26
375.10	1808.36
375.31	1814.50
375.52	1757.16
375.73	1802.21
375.94	1812.45
376.15	1918.95
376.36	1828.84
376.57	1816.55
376.78	1779.68
376.99	1853.41
377.20	1875.94
377.40	1773.54
377.61	1931.23
377.82	1834.98
378.03	1851.36
378.24	1869.80
378.45	1806.31
378.66	1841.12
378.87	1789.92
379.08	1724.39
379.29	1800.16
379.50	1908.71
379.71	1808.36
379.91	1869.80
380.12	1796.07
380.33	1804.26
380.54	1843.17
380.75	1804.26
380.96	1765.35
381.17	1894.37
381.38	1757.16
381.59	1869.80
381.80	1845.22
382.00	1951.71
382.21	1851.36
382.42	2019.30
382.63	2000.87
382.84	1902.56
383.05	1896.42
383.26	1980.39
383.47	1875.94
383.68	1824.74
383.88	1861.60
384.09	1898.47
384.30	2017.25
384.51	1851.36
384.72	1822.69
384.93	1697.77
385.14	1826.79
385.35	1875.94
385.55	1732.58
385.76	1877.99
385.97	1769.44
386.18	1759.21
386.39	1716.20
386.60	1849.32
386.81	1800.16
387.02	1783.78
387.22	1763.30
387.43	1912.80
387.64	1908.71
387.85	1982.43
388.06	2232.29
388.27	4272.06
388.48	8953.72
388.68	11798.35
388.89	14139.18
389.10	15036.19
389.31	13180.73
389.52	10534.75
389.73	8980.34
389.93	8214.40
390.14	7786.38
390.35	6926.23
390.56	6274.98
390.77	5167.03
390.98	4065.22
391.18	2975.70
391.39	2627.54
391.60	2029.54
391.81	1861.60
392.02	1824.74
392.23	1943.52
392.43	1822.69
392.64	1968.10
392.85	1804.26
393.06	1945.57
393.27	1796.07
393.47	1767.40
393.68	1877.99
393.89	1779.68
394.10	1890.28
394.31	1751.01
394.52	1763.30
394.72	1763.30
394.93	1927.14
395.14	1763.30
395.35	1837.03
395.56	1810.40
395.76	1798.12
395.97	1822.69
396.18	1980.39
396.39	1990.63
396.60	2209.76
396.80	2029.54
397.01	2062.30
397.22	2013.15
397.43	1978.34
397.64	1888.23
397.84	1902.56
398.05	2033.63
398.26	1916.90
398.47	1902.56
398.67	1873.89
398.88	1822.69
399.09	1898.47
399.30	1884.13
399.51	1892.32
399.71	1777.64
399.92	1830.88
400.13	1902.56
400.34	1771.49
400.54	1832.93
400.75	1908.71
400.96	1828.84
401.17	1992.67
401.37	1875.94
401.58	1886.18
401.79	1837.03
402.00	1912.80
402.21	2213.85
402.41	2176.99
402.62	2150.37
402.83	2279.39
403.04	2232.29
403.24	2318.30
403.45	1966.05
403.66	2101.22
403.87	2047.97
404.07	2013.15
404.28	2076.64
404.49	2025.44
404.70	1910.75
404.90	1894.37
405.11	1873.89
405.32	1918.95
405.52	1763.30
405.73	1728.49
405.94	1773.54
406.15	1814.50
406.35	1855.46
406.56	1863.65
406.77	1839.08
406.98	1857.51
407.18	1794.02
407.39	1918.95
407.60	1861.60
407.80	1861.60
408.01	1798.12
408.22	1877.99
408.43	1783.78
408.63	1808.36
408.84	1871.84
409.05	1898.47
409.25	1761.25
409.46	1771.49
409.67	1771.49
409.88	1785.83
410.08	1804.26
410.29	1781.73
410.50	1871.84
410.70	1867.75
410.91	1705.96
411.12	1820.64
411.32	1800.16
411.53	1779.68
411.74	1966.05
411.95	1904.61
412.15	1898.47
412.36	1869.80
412.57	1869.80
412.77	1920.99
412.98	1812.45
413.19	1859.56
413.39	1837.03
413.60	1912.80
413.81	1931.23
414.01	1785.83
414.22	1824.74
414.43	1882.08
414.63	1855.46
414.84	1890.28
415.05	1877.99
415.25	1775.59
415.46	1855.46
415.67	1767.40
415.87	1859.56
416.08	1828.84
416.29	1804.26
416.49	1808.36
416.70	1781.73
416.91	1763.30
417.11	1775.59
417.32	1841.12
417.53	1902.56
417.73	1894.37
417.94	1798.12
418.15	1859.56
418.35	1880.04
418.56	1806.31
418.77	1955.81
418.97	1798.12
419.18	1861.60
419.38	1654.76
419.59	1832.93
419.80	1859.56
420.00	1837.03
420.21	1851.36
420.42	1820.64
420.62	1781.73
420.83	1777.64
421.04	1789.92
421.24	1755.11
421.45	1923.04
421.65	1839.08
421.86	1877.99
422.07	1863.65
422.27	1865.70
422.48	1851.36
422.69	1726.44
422.89	1798.12
423.10	1873.89
423.30	1712.10
423.51	1820.64
423.72	1859.56
423.92	1888.23
424.13	1697.77
424.33	1798.12
424.54	1906.66
424.75	1820.64
424.95	1927.14
425.16	1882.08
425.36	1808.36
425.57	1861.60
425.78	1787.88
425.98	1920.99
426.19	1808.36
426.39	1708.01
426.60	1794.02
426.81	1894.37
427.01	1816.55
427.22	1765.35
427.42	1716.20
427.63	1847.27
427.83	1906.66
428.04	1951.71
428.25	1912.80
428.45	1918.95
428.66	1900.52
428.86	1796.07
429.07	1814.50
429.28	1814.50
429.48	1806.31
429.69	1732.58
429.89	1888.23
430.10	1744.87
430.30	1875.94
430.51	1951.71
430.71	1744.87
430.92	1804.26
431.13	1787.88
431.33	1877.99
431.54	1796.07
431.74	1959.91
431.95	2002.91
432.15	1722.34
432.36	1789.92
432.56	1841.12
432.77	1871.84
432.98	1882.08
433.18	1843.17
433.39	1820.64
433.59	1845.22
433.80	2000.87
434.00	1923.04
434.21	1755.11
434.41	1783.78
434.62	1890.28
434.82	1718.25
435.03	1779.68
435.23	1857.51
435.44	1738.73
435.64	1796.07
435.85	1796.07
436.06	1834.98
436.26	1828.84
436.47	1787.88
436.67	1798.12
436.88	1736.68
437.08	1931.23
437.29	1923.04
437.49	1826.79
437.70	1886.18
437.90	1839.08
438.11	1966.05
438.31	1898.47
438.52	1982.43
438.72	2072.54
438.93	2074.59
439.13	1859.56
439.34	1945.57
439.54	1947.62
439.75	1867.75
439.95	1902.56
440.16	1822.69
440.36	1820.64
440.57	1918.95
440.77	1830.88
440.98	1839.08
441.18	1867.75
441.39	1710.05
441.59	1771.49
441.80	1939.43
442.00	1845.22
442.21	1959.91
442.41	1683.43
442.62	1908.71
442.82	1763.30
443.02	1845.22
443.23	1839.08
443.43	1812.45
443.64	1929.19
443.84	1800.16
444.05	1933.28
444.25	1849.32
444.46	1871.84
444.66	1851.36
444.87	1935.33
445.07	1781.73
445.28	1888.23
445.48	1898.47
445.69	1822.69
445.89	1984.48
446.09	1914.85
446.30	2127.84
446.50	2598.87
446.71	4085.70
446.91	5148.59
447.12	5924.77
447.32	6160.29
447.53	5558.19
447.73	4675.51
447.93	4151.23
448.14	3833.80
448.34	3561.42
448.55	3188.69
448.75	3209.17
448.96	3071.95
449.16	2660.31
449.36	2557.91
449.57	2258.91
449.77	2004.96
449.98	1888.23
450.18	1914.85
450.39	1949.67
450.59	1890.28
450.79	1818.60
451.00	1834.98
451.20	1863.65
451.41	1791.97
451.61	1845.22
451.81	1863.65
452.02	1861.60
452.22	1808.36
452.43	1804.26
452.63	1808.36
