SpectraSuite Data File
++++++++++++++++++++++++++++++++++++
Date: Wed May 04 21:12:59 CEST 2016
User: root
Dark Spectrum Present: No
Reference Spectrum Present: No
Number of Sampled Component Spectra: 1
Spectrometers: USB4C02835
Integration Time (usec): 100000 (USB4C02835)
Spectra Averaged: 1 (USB4C02835)
Boxcar Smoothing: 0 (USB4C02835)
Correct for Electrical Dark: No (USB4C02835)
Strobe/Lamp Enabled: No (USB4C02835)
Correct for Detector Non-linearity: No (USB4C02835)
Correct for Stray Light: No (USB4C02835)
Number of Pixels in Processed Spectrum: 3648
>>>>>Begin Processed Spectral Data<<<<<
177.47	1507.30
177.69	1507.30
177.91	1507.30
178.13	1531.88
178.36	1585.13
178.58	1808.36
178.80	1832.93
179.02	1789.92
179.24	1716.20
179.46	1794.02
179.68	1871.84
179.90	1748.97
180.13	1802.21
180.35	1734.63
180.57	1796.07
180.79	1830.88
181.01	1796.07
181.23	1820.64
181.45	1834.98
181.67	1845.22
181.90	1814.50
182.12	1828.84
182.34	1683.43
182.56	1855.46
182.78	1775.59
183.00	1777.64
183.22	1777.64
183.44	1632.23
183.66	1937.38
183.89	1980.39
184.11	1830.88
184.33	1845.22
184.55	1898.47
184.77	1757.16
184.99	1830.88
185.21	1787.88
185.43	1976.29
185.65	1814.50
185.87	1869.80
186.10	1947.62
186.32	1957.86
186.54	1824.74
186.76	1859.56
186.98	1812.45
187.20	1832.93
187.42	1853.41
187.64	1806.31
187.86	1941.47
188.08	1902.56
188.30	1802.21
188.52	1777.64
188.75	1855.46
188.97	1937.38
189.19	1798.12
189.41	1816.55
189.63	1902.56
189.85	1865.70
190.07	1744.87
190.29	1757.16
190.51	1808.36
190.73	1728.49
190.95	1886.18
191.17	1775.59
191.39	1677.29
191.61	1834.98
191.84	1757.16
192.06	1834.98
192.28	1710.05
192.50	2025.44
192.72	1834.98
192.94	1804.26
193.16	1849.32
193.38	1882.08
193.60	1667.05
193.82	1800.16
194.04	1834.98
194.26	1851.36
194.48	1847.27
194.70	1796.07
194.92	1798.12
195.14	1857.51
195.36	1843.17
195.58	1812.45
195.80	1771.49
196.02	1796.07
196.24	1785.83
196.46	1812.45
196.69	1785.83
196.91	1998.82
197.13	1824.74
197.35	1755.11
197.57	1935.33
197.79	1886.18
198.01	1810.40
198.23	1794.02
198.45	1822.69
198.67	1789.92
198.89	1742.82
199.11	1877.99
199.33	1714.15
199.55	1771.49
199.77	1865.70
199.99	1816.55
200.21	1779.68
200.43	1855.46
200.65	1791.97
200.87	1732.58
201.09	1828.84
201.31	1800.16
201.53	1859.56
201.75	1820.64
201.97	1890.28
202.19	1763.30
202.41	1880.04
202.63	1968.10
202.85	1839.08
203.07	1781.73
203.29	1820.64
203.51	1785.83
203.73	1705.96
203.95	2039.78
204.17	1763.30
204.39	1859.56
204.61	1824.74
204.83	1751.01
205.05	1820.64
205.27	1861.60
205.49	1992.67
205.71	1869.80
205.93	1800.16
206.15	1699.81
206.37	1804.26
206.59	1771.49
206.81	1648.61
207.03	1755.11
207.25	1802.21
207.47	1861.60
207.69	1796.07
207.91	1851.36
208.13	1877.99
208.34	1824.74
208.56	1740.77
208.78	1837.03
209.00	1765.35
209.22	1824.74
209.44	1796.07
209.66	1755.11
209.88	1804.26
210.10	1777.64
210.32	1806.31
210.54	1900.52
210.76	1812.45
210.98	1945.57
211.20	1734.63
211.42	1873.89
211.64	1830.88
211.86	1859.56
212.08	1822.69
212.30	1771.49
212.52	1900.52
212.74	1796.07
212.96	1746.92
213.17	1884.13
213.39	1845.22
213.61	1892.32
213.83	1855.46
214.05	1796.07
214.27	1869.80
214.49	1710.05
214.71	1800.16
214.93	1920.99
215.15	1826.79
215.37	1824.74
215.59	1693.67
215.81	1824.74
216.03	1912.80
216.24	1816.55
216.46	1900.52
216.68	1798.12
216.90	1804.26
217.12	1867.75
217.34	1882.08
217.56	1841.12
217.78	1906.66
218.00	1824.74
218.22	1818.60
218.44	1804.26
218.66	1853.41
218.87	1943.52
219.09	1896.42
219.31	1800.16
219.53	1812.45
219.75	1742.82
219.97	1808.36
220.19	1748.97
220.41	1751.01
220.63	1927.14
220.85	1832.93
221.06	1794.02
221.28	1847.27
221.50	1880.04
221.72	1794.02
221.94	1822.69
222.16	1802.21
222.38	1892.32
222.60	1832.93
222.82	1763.30
223.03	1863.65
223.25	1734.63
223.47	1843.17
223.69	1974.24
223.91	1841.12
224.13	1810.40
224.35	1738.73
224.57	1976.29
224.78	1871.84
225.00	1755.11
225.22	1806.31
225.44	1820.64
225.66	1834.98
225.88	1771.49
226.10	1828.84
226.32	1787.88
226.53	1861.60
226.75	1777.64
226.97	1824.74
227.19	1853.41
227.41	1787.88
227.63	1857.51
227.85	1714.15
228.06	1804.26
228.28	1853.41
228.50	1902.56
228.72	1744.87
228.94	1730.53
229.16	1673.19
229.37	1787.88
229.59	1783.78
229.81	1875.94
230.03	1789.92
230.25	1808.36
230.47	1699.81
230.69	1757.16
230.90	1826.79
231.12	1861.60
231.34	1810.40
231.56	1816.55
231.78	1798.12
232.00	1798.12
232.21	1742.82
232.43	1806.31
232.65	1720.29
232.87	1859.56
233.09	1740.77
233.30	1775.59
233.52	1822.69
233.74	1791.97
233.96	1806.31
234.18	1796.07
234.40	1832.93
234.61	1955.81
234.83	1724.39
235.05	1693.67
235.27	1961.95
235.49	1894.37
235.70	1820.64
235.92	1861.60
236.14	1812.45
236.36	1896.42
236.58	1712.10
236.79	1806.31
237.01	1812.45
237.23	1675.24
237.45	1925.09
237.67	1761.25
237.88	1779.68
238.10	1890.28
238.32	1751.01
238.54	1742.82
238.76	1798.12
238.97	1761.25
239.19	1736.68
239.41	1910.75
239.63	1871.84
239.85	1818.60
240.06	1808.36
240.28	1818.60
240.50	1847.27
240.72	1759.21
240.93	1734.63
241.15	2011.11
241.37	1828.84
241.59	1931.23
241.81	1785.83
242.02	1800.16
242.24	1839.08
242.46	1845.22
242.68	1759.21
242.89	1771.49
243.11	1902.56
243.33	1830.88
243.55	1826.79
243.76	1841.12
243.98	1783.78
244.20	1826.79
244.42	1798.12
244.64	1898.47
244.85	1701.86
245.07	1759.21
245.29	1892.32
245.51	1837.03
245.72	1755.11
245.94	1877.99
246.16	1767.40
246.38	1884.13
246.59	1869.80
246.81	1710.05
247.03	1830.88
247.24	1724.39
247.46	1775.59
247.68	1826.79
247.90	1761.25
248.11	1816.55
248.33	1837.03
248.55	1804.26
248.77	1837.03
248.98	1867.75
249.20	1968.10
249.42	1806.31
249.64	1820.64
249.85	1779.68
250.07	1791.97
250.29	1816.55
250.50	1863.65
250.72	1769.44
250.94	1816.55
251.16	2004.96
251.37	1925.09
251.59	1906.66
251.81	1859.56
252.02	1837.03
252.24	1824.74
252.46	1890.28
252.68	1730.53
252.89	1779.68
253.11	1705.96
253.33	1890.28
253.54	1886.18
253.76	1699.81
253.98	1775.59
254.20	1753.06
254.41	1691.62
254.63	1783.78
254.85	1791.97
255.06	1830.88
255.28	1869.80
255.50	1769.44
255.71	1740.77
255.93	1689.57
256.15	1828.84
256.36	1820.64
256.58	1761.25
256.80	1849.32
257.02	1910.75
257.23	1798.12
257.45	1863.65
257.67	1859.56
257.88	1834.98
258.10	1798.12
258.32	1814.50
258.53	1753.06
258.75	1877.99
258.97	1699.81
259.18	1806.31
259.40	1789.92
259.62	1865.70
259.83	1968.10
260.05	1861.60
260.27	2152.42
260.48	1853.41
260.70	1781.73
260.92	1763.30
261.13	1789.92
261.35	1804.26
261.57	1857.51
261.78	1671.14
262.00	1763.30
262.22	1923.04
262.43	1775.59
262.65	1798.12
262.86	1796.07
263.08	1923.04
263.30	1853.41
263.51	1724.39
263.73	1869.80
263.95	1871.84
264.16	1804.26
264.38	1806.31
264.60	1773.54
264.81	1791.97
265.03	1910.75
265.25	1791.97
265.46	1681.38
265.68	1875.94
265.89	1861.60
266.11	1773.54
266.33	1820.64
266.54	1859.56
266.76	1873.89
266.98	1834.98
267.19	1902.56
267.41	1898.47
267.62	1773.54
267.84	1734.63
268.06	1826.79
268.27	1806.31
268.49	1871.84
268.70	1908.71
268.92	1798.12
269.14	1730.53
269.35	1779.68
269.57	1798.12
269.79	1857.51
270.00	1763.30
270.22	1884.13
270.43	1771.49
270.65	1652.71
270.87	1839.08
271.08	1859.56
271.30	1841.12
271.51	1791.97
271.73	1859.56
271.95	1888.23
272.16	1837.03
272.38	1771.49
272.59	1789.92
272.81	1894.37
273.02	1806.31
273.24	1826.79
273.46	1843.17
273.67	1767.40
273.89	1843.17
274.10	1695.72
274.32	1925.09
274.54	1837.03
274.75	1861.60
274.97	1716.20
275.18	1871.84
275.40	1820.64
275.61	1730.53
275.83	1851.36
276.05	1746.92
276.26	1765.35
276.48	1769.44
276.69	1744.87
276.91	1820.64
277.12	1861.60
277.34	1898.47
277.55	1845.22
277.77	1822.69
277.99	1818.60
278.20	1740.77
278.42	1724.39
278.63	1748.97
278.85	1755.11
279.06	1708.01
279.28	1837.03
279.49	1853.41
279.71	1847.27
279.93	1861.60
280.14	1824.74
280.36	1777.64
280.57	1841.12
280.79	1875.94
281.00	1816.55
281.22	1771.49
281.43	1808.36
281.65	1746.92
281.86	1789.92
282.08	1796.07
282.29	1941.47
282.51	1802.21
282.73	1712.10
282.94	1701.86
283.16	1859.56
283.37	1849.32
283.59	1841.12
283.80	1834.98
284.02	1765.35
284.23	1841.12
284.45	1841.12
284.66	1791.97
284.88	1714.15
285.09	1832.93
285.31	1877.99
285.52	1818.60
285.74	1724.39
285.95	1859.56
286.17	1796.07
286.38	1888.23
286.60	1740.77
286.81	1837.03
287.03	1769.44
287.24	1806.31
287.46	1822.69
287.67	1751.01
287.89	1951.71
288.10	1791.97
288.32	1832.93
288.53	1861.60
288.75	1802.21
288.96	1912.80
289.18	1794.02
289.39	1761.25
289.61	1822.69
289.82	1929.19
290.04	1931.23
290.25	1777.64
290.47	1839.08
290.68	1742.82
290.90	1855.46
291.11	1744.87
291.33	1914.85
291.54	1771.49
291.76	1759.21
291.97	1861.60
292.18	1814.50
292.40	1779.68
292.61	1783.78
292.83	1976.29
293.04	1863.65
293.26	1818.60
293.47	1796.07
293.69	1689.57
293.90	1787.88
294.12	1908.71
294.33	1837.03
294.55	1765.35
294.76	1843.17
294.97	1857.51
295.19	1988.58
295.40	1816.55
295.62	1830.88
295.83	1814.50
296.05	1779.68
296.26	1882.08
296.48	1800.16
296.69	1740.77
296.90	1791.97
297.12	1843.17
297.33	1931.23
297.55	1773.54
297.76	1845.22
297.98	1904.61
298.19	1830.88
298.41	1716.20
298.62	1718.25
298.83	1920.99
299.05	1806.31
299.26	1773.54
299.48	1800.16
299.69	1822.69
299.90	1832.93
300.12	1755.11
300.33	1875.94
300.55	1828.84
300.76	1877.99
300.98	1765.35
301.19	1837.03
301.40	1822.69
301.62	1787.88
301.83	1861.60
302.05	1830.88
302.26	1828.84
302.47	1853.41
302.69	1703.91
302.90	1861.60
303.12	1728.49
303.33	1845.22
303.54	1957.86
303.76	1746.92
303.97	1851.36
304.19	1890.28
304.40	1736.68
304.61	1859.56
304.83	1951.71
305.04	1822.69
305.26	1851.36
305.47	1714.15
305.68	1841.12
305.90	1757.16
306.11	1900.52
306.33	1746.92
306.54	1804.26
306.75	1814.50
306.97	1691.62
307.18	1751.01
307.39	1771.49
307.61	1877.99
307.82	1812.45
308.04	1853.41
308.25	1755.11
308.46	1828.84
308.68	1779.68
308.89	1738.73
309.10	1806.31
309.32	1828.84
309.53	1816.55
309.74	1890.28
309.96	1753.06
310.17	1925.09
310.39	1824.74
310.60	1865.70
310.81	1882.08
311.03	1755.11
311.24	1877.99
311.45	1845.22
311.67	1951.71
311.88	1839.08
312.09	1773.54
312.31	1804.26
312.52	1808.36
312.73	1716.20
312.95	1718.25
313.16	1708.01
313.37	1888.23
313.59	1841.12
313.80	1863.65
314.01	1843.17
314.23	1806.31
314.44	1783.78
314.65	1634.28
314.87	1742.82
315.08	1810.40
315.29	1794.02
315.51	1746.92
315.72	1789.92
315.93	1892.32
316.15	1857.51
316.36	1779.68
316.57	1867.75
316.79	1873.89
317.00	1832.93
317.21	1810.40
317.43	1902.56
317.64	1771.49
317.85	1875.94
318.07	1826.79
318.28	1808.36
318.49	1972.19
318.70	2095.07
318.92	1966.05
319.13	2037.73
319.34	2029.54
319.56	1920.99
319.77	1984.48
319.98	1947.62
320.20	1908.71
320.41	1914.85
320.62	1861.60
320.83	1783.78
321.05	1943.52
321.26	1759.21
321.47	1808.36
321.69	1839.08
321.90	1757.16
322.11	1718.25
322.32	1773.54
322.54	1918.95
322.75	1800.16
322.96	2017.25
323.18	1720.29
323.39	1708.01
323.60	1765.35
323.81	1884.13
324.03	1818.60
324.24	1816.55
324.45	1783.78
324.66	1800.16
324.88	1824.74
325.09	1918.95
325.30	1826.79
325.52	1859.56
325.73	1898.47
325.94	1765.35
326.15	1775.59
326.37	1755.11
326.58	1867.75
326.79	1935.33
327.00	1791.97
327.22	1875.94
327.43	1767.40
327.64	1837.03
327.85	1898.47
328.07	1771.49
328.28	1906.66
328.49	1781.73
328.70	1804.26
328.92	1873.89
329.13	1851.36
329.34	1824.74
329.55	1941.47
329.76	1789.92
329.98	1812.45
330.19	1867.75
330.40	1779.68
330.61	1847.27
330.83	1847.27
331.04	1726.44
331.25	1816.55
331.46	1796.07
331.68	1689.57
331.89	1914.85
332.10	1791.97
332.31	1757.16
332.52	1869.80
332.74	1904.61
332.95	1712.10
333.16	1734.63
333.37	1845.22
333.58	1832.93
333.80	1818.60
334.01	1765.35
334.22	1755.11
334.43	1814.50
334.64	1851.36
334.86	1740.77
335.07	1761.25
335.28	1906.66
335.49	1773.54
335.70	1796.07
335.92	1787.88
336.13	2017.25
336.34	1869.80
336.55	1914.85
336.76	1781.73
336.98	1736.68
337.19	1802.21
337.40	1914.85
337.61	1937.38
337.82	1806.31
338.04	1871.84
338.25	1734.63
338.46	1763.30
338.67	1867.75
338.88	1779.68
339.09	1746.92
339.31	1779.68
339.52	1662.95
339.73	1804.26
339.94	1759.21
340.15	1824.74
340.36	1798.12
340.58	1816.55
340.79	1812.45
341.00	1869.80
341.21	1802.21
341.42	1914.85
341.63	1804.26
341.85	1847.27
342.06	1830.88
342.27	1740.77
342.48	1884.13
342.69	1699.81
342.90	1798.12
343.12	1794.02
343.33	1816.55
343.54	1816.55
343.75	1886.18
343.96	1806.31
344.17	1785.83
344.38	1865.70
344.60	1785.83
344.81	1779.68
345.02	1861.60
345.23	1853.41
345.44	1964.00
345.65	1832.93
345.86	1877.99
346.07	1785.83
346.29	1755.11
346.50	1888.23
346.71	1783.78
346.92	1867.75
347.13	2004.96
347.34	1716.20
347.55	1839.08
347.76	1839.08
347.98	1687.53
348.19	1904.61
348.40	1882.08
348.61	1746.92
348.82	1914.85
349.03	1906.66
349.24	1738.73
349.45	1906.66
349.66	1757.16
349.88	1841.12
350.09	1712.10
350.30	1880.04
350.51	1920.99
350.72	1810.40
350.93	1810.40
351.14	1845.22
351.35	1789.92
351.56	1904.61
351.77	1783.78
351.99	1820.64
352.20	1871.84
352.41	1875.94
352.62	1769.44
352.83	1834.98
353.04	1871.84
353.25	1740.77
353.46	1882.08
353.67	1904.61
353.88	1673.19
354.09	1828.84
354.30	1810.40
354.52	1841.12
354.73	1837.03
354.94	1802.21
355.15	1814.50
355.36	1931.23
355.57	1779.68
355.78	1888.23
355.99	1814.50
356.20	1785.83
356.41	1816.55
356.62	1837.03
356.83	1882.08
357.04	1869.80
357.25	1718.25
357.46	1822.69
357.68	1716.20
357.89	1703.91
358.10	1800.16
358.31	1789.92
358.52	1802.21
358.73	1722.34
358.94	1804.26
359.15	1802.21
359.36	1845.22
359.57	1820.64
359.78	1775.59
359.99	1824.74
360.20	1777.64
360.41	1761.25
360.62	1771.49
360.83	1796.07
361.04	1820.64
361.25	1861.60
361.46	1884.13
361.67	1861.60
361.88	1873.89
362.09	1837.03
362.30	1783.78
362.51	1767.40
362.72	1841.12
362.93	1783.78
363.14	1865.70
363.35	1830.88
363.56	1820.64
363.78	1920.99
363.99	1869.80
364.20	1800.16
364.41	1861.60
364.62	1959.91
364.83	1722.34
365.04	1837.03
365.25	1826.79
365.46	1935.33
365.67	1765.35
365.88	1845.22
366.09	1798.12
366.30	1824.74
366.51	1839.08
366.72	1771.49
366.93	1781.73
367.14	1744.87
367.35	1886.18
367.56	1871.84
367.77	1976.29
367.98	1785.83
368.18	1781.73
368.39	1818.60
368.60	1759.21
368.81	1808.36
369.02	1779.68
369.23	1820.64
369.44	1701.86
369.65	1781.73
369.86	1900.52
370.07	1910.75
370.28	1748.97
370.49	1904.61
370.70	1841.12
370.91	1800.16
371.12	1712.10
371.33	1800.16
371.54	1744.87
371.75	1910.75
371.96	1705.96
372.17	1771.49
372.38	1751.01
372.59	1886.18
372.80	1791.97
373.01	1859.56
373.22	1816.55
373.43	1773.54
373.64	1767.40
373.85	1951.71
374.06	1871.84
374.26	1880.04
374.47	1818.60
374.68	1882.08
374.89	1808.36
375.10	1873.89
375.31	1837.03
375.52	1791.97
375.73	1773.54
375.94	1755.11
376.15	1896.42
376.36	1794.02
376.57	1800.16
376.78	1751.01
376.99	1857.51
377.20	1892.32
377.40	1779.68
377.61	1904.61
377.82	1761.25
378.03	1910.75
378.24	1910.75
378.45	1712.10
378.66	1812.45
378.87	1773.54
379.08	1779.68
379.29	1810.40
379.50	1927.14
379.71	1810.40
379.91	1849.32
380.12	1773.54
380.33	1890.28
380.54	1816.55
380.75	1855.46
380.96	1697.77
381.17	1875.94
381.38	1857.51
381.59	1867.75
381.80	1855.46
382.00	1978.34
382.21	1941.47
382.42	2031.58
382.63	1986.53
382.84	1943.52
383.05	1906.66
383.26	2000.87
383.47	1853.41
383.68	1826.79
383.88	1861.60
384.09	1820.64
384.30	1994.72
384.51	1812.45
384.72	1865.70
384.93	1787.88
385.14	1847.27
385.35	1867.75
385.55	1755.11
385.76	1939.43
385.97	1849.32
386.18	1773.54
386.39	1748.97
386.60	1796.07
386.81	1818.60
387.02	1820.64
387.22	1765.35
387.43	1861.60
387.64	1867.75
387.85	1947.62
388.06	2197.47
388.27	4292.54
388.48	9035.64
388.68	11958.09
388.89	14143.27
389.10	14909.21
389.31	12957.50
389.52	10395.49
389.73	9260.91
389.93	8433.54
390.14	7630.73
390.35	7024.53
390.56	6213.54
390.77	5226.42
390.98	3983.30
391.18	3180.50
391.39	2422.75
391.60	2068.45
391.81	1970.15
392.02	1869.80
392.23	1953.76
392.43	1812.45
392.64	1925.09
392.85	1806.31
393.06	1888.23
393.27	1884.13
393.47	1818.60
393.68	1886.18
393.89	1812.45
394.10	1966.05
394.31	1726.44
394.52	1728.49
394.72	1783.78
394.93	1839.08
395.14	1794.02
395.35	1923.04
395.56	1824.74
395.76	1800.16
395.97	1898.47
396.18	1966.05
396.39	2035.68
396.60	2213.85
396.80	2045.92
397.01	2023.39
397.22	1931.23
397.43	2025.44
397.64	1923.04
397.84	1859.56
398.05	1931.23
398.26	1890.28
398.47	1902.56
398.67	1871.84
398.88	1814.50
399.09	1880.04
399.30	1777.64
399.51	1837.03
399.71	1826.79
399.92	1812.45
400.13	1882.08
400.34	1820.64
400.54	1908.71
400.75	1955.81
400.96	1828.84
401.17	1929.19
401.37	1912.80
401.58	1818.60
401.79	1783.78
402.00	1992.67
402.21	2209.76
402.41	2150.37
402.62	2238.43
402.83	2383.84
403.04	2168.80
403.24	2222.05
403.45	2029.54
403.66	2088.93
403.87	2009.06
404.07	2000.87
404.28	2009.06
404.49	2066.40
404.70	1877.99
404.90	1972.19
405.11	1824.74
405.32	1923.04
405.52	1787.88
405.73	1830.88
405.94	1714.15
406.15	1841.12
406.35	1812.45
406.56	1877.99
406.77	1855.46
406.98	1775.59
407.18	1810.40
407.39	1828.84
407.60	1806.31
407.80	1871.84
408.01	1816.55
408.22	1812.45
408.43	1855.46
408.63	1847.27
408.84	1832.93
409.05	1863.65
409.25	1765.35
409.46	1763.30
409.67	1808.36
409.88	1769.44
410.08	1791.97
410.29	1861.60
410.50	1861.60
410.70	1828.84
410.91	1839.08
411.12	1847.27
411.32	1820.64
411.53	1757.16
411.74	1925.09
411.95	1910.75
412.15	1861.60
412.36	1910.75
412.57	1933.28
412.77	2041.82
412.98	1816.55
413.19	1814.50
413.39	1865.70
413.60	1861.60
413.81	1910.75
414.01	1779.68
414.22	1841.12
414.43	1873.89
414.63	1865.70
414.84	1867.75
415.05	1808.36
415.25	1771.49
415.46	1839.08
415.67	1800.16
415.87	1851.36
416.08	1812.45
416.29	1787.88
416.49	1828.84
416.70	1777.64
416.91	1871.84
417.11	1841.12
417.32	1908.71
417.53	1906.66
417.73	1875.94
417.94	1839.08
418.15	1783.78
418.35	1886.18
418.56	1726.44
418.77	1992.67
418.97	1796.07
419.18	1849.32
419.38	1581.03
419.59	1839.08
419.80	1888.23
420.00	1759.21
420.21	1824.74
420.42	1888.23
420.62	1851.36
420.83	1804.26
421.04	1841.12
421.24	1742.82
421.45	1875.94
421.65	1822.69
421.86	1839.08
422.07	1822.69
422.27	1812.45
422.48	1923.04
422.69	1744.87
422.89	1798.12
423.10	1736.68
423.30	1722.34
423.51	1867.75
423.72	1873.89
423.92	1853.41
424.13	1787.88
424.33	1818.60
424.54	1863.65
424.75	1763.30
424.95	1857.51
425.16	1812.45
425.36	1857.51
425.57	1916.90
425.78	1906.66
425.98	1886.18
426.19	1767.40
426.39	1714.15
426.60	1767.40
426.81	1935.33
427.01	1824.74
427.22	1746.92
427.42	1767.40
427.63	1769.44
427.83	1859.56
428.04	1857.51
428.25	1920.99
428.45	1832.93
428.66	1886.18
428.86	1906.66
429.07	1802.21
429.28	1746.92
429.48	1779.68
429.69	1837.03
429.89	1789.92
430.10	1746.92
430.30	1861.60
430.51	1882.08
430.71	1787.88
430.92	1818.60
431.13	1773.54
431.33	1912.80
431.54	1875.94
431.74	1832.93
431.95	1951.71
432.15	1839.08
432.36	1863.65
432.56	1894.37
432.77	1949.67
432.98	1976.29
433.18	1830.88
433.39	1759.21
433.59	1781.73
433.80	1992.67
434.00	2025.44
434.21	1796.07
434.41	1814.50
434.62	2000.87
434.82	1791.97
435.03	1726.44
435.23	1822.69
435.44	1744.87
435.64	1834.98
435.85	1839.08
436.06	1953.76
436.26	1880.04
436.47	1785.83
436.67	1771.49
436.88	1800.16
437.08	1888.23
437.29	1982.43
437.49	1857.51
437.70	1830.88
437.90	1800.16
438.11	1978.34
438.31	1906.66
438.52	1966.05
438.72	2064.35
438.93	2064.35
439.13	1900.52
439.34	1992.67
439.54	1886.18
439.75	1898.47
439.95	1873.89
440.16	1804.26
440.36	1904.61
440.57	1853.41
440.77	1855.46
440.98	1900.52
441.18	1857.51
441.39	1853.41
441.59	1769.44
441.80	1972.19
442.00	1812.45
442.21	1867.75
442.41	1740.77
442.62	1888.23
442.82	1845.22
443.02	1822.69
443.23	1898.47
443.43	1880.04
443.64	1920.99
443.84	1882.08
444.05	1980.39
444.25	1826.79
444.46	1759.21
444.66	1896.42
444.87	1953.76
445.07	1753.06
445.28	1812.45
445.48	1808.36
445.69	1834.98
445.89	2068.45
446.09	1877.99
446.30	2084.83
446.50	2600.92
446.71	4214.72
446.91	5160.88
447.12	6018.98
447.32	6322.08
447.53	5783.46
447.73	4673.46
447.93	4181.95
448.14	3715.02
448.34	3571.66
448.55	3211.22
448.75	3196.88
448.96	2975.70
449.16	2811.86
449.36	2508.76
449.57	2246.62
449.77	2103.26
449.98	1910.75
450.18	1935.33
450.39	1880.04
450.59	1877.99
450.79	1845.22
451.00	1816.55
451.20	1882.08
451.41	1828.84
451.61	1884.13
451.81	1816.55
452.02	1775.59
452.22	1855.46
452.43	1783.78
452.63	1757.16
