SpectraSuite Data File
++++++++++++++++++++++++++++++++++++
Date: Wed May 04 21:12:55 CEST 2016
User: root
Dark Spectrum Present: No
Reference Spectrum Present: No
Number of Sampled Component Spectra: 1
Spectrometers: USB4C02835
Integration Time (usec): 100000 (USB4C02835)
Spectra Averaged: 1 (USB4C02835)
Boxcar Smoothing: 0 (USB4C02835)
Correct for Electrical Dark: No (USB4C02835)
Strobe/Lamp Enabled: No (USB4C02835)
Correct for Detector Non-linearity: No (USB4C02835)
Correct for Stray Light: No (USB4C02835)
Number of Pixels in Processed Spectrum: 3648
>>>>>Begin Processed Spectral Data<<<<<
177.47	1589.22
177.69	1589.22
177.91	1589.22
178.13	1476.59
178.36	1560.55
178.58	1730.53
178.80	1871.84
179.02	1722.34
179.24	1779.68
179.46	1773.54
179.68	1830.88
179.90	1761.25
180.13	1812.45
180.35	1677.29
180.57	1722.34
180.79	1920.99
181.01	1816.55
181.23	1871.84
181.45	1843.17
181.67	1763.30
181.90	1871.84
182.12	1761.25
182.34	1681.38
182.56	1834.98
182.78	1894.37
183.00	1816.55
183.22	1800.16
183.44	1714.15
183.66	1925.09
183.89	1914.85
184.11	1837.03
184.33	1830.88
184.55	1869.80
184.77	1822.69
184.99	1716.20
185.21	1794.02
185.43	1920.99
185.65	1779.68
185.87	1800.16
186.10	1908.71
186.32	1939.43
186.54	1828.84
186.76	1869.80
186.98	1886.18
187.20	1884.13
187.42	1781.73
187.64	1804.26
187.86	1796.07
188.08	1882.08
188.30	1767.40
188.52	1796.07
188.75	1957.86
188.97	1916.90
189.19	1777.64
189.41	1824.74
189.63	1841.12
189.85	1830.88
190.07	1644.52
190.29	1802.21
190.51	1828.84
190.73	1699.81
190.95	1820.64
191.17	1783.78
191.39	1705.96
191.61	1804.26
191.84	1884.13
192.06	1781.73
192.28	1726.44
192.50	2015.20
192.72	1873.89
192.94	1888.23
193.16	1814.50
193.38	1847.27
193.60	1759.21
193.82	1761.25
194.04	1937.38
194.26	1875.94
194.48	1808.36
194.70	1781.73
194.92	1744.87
195.14	1882.08
195.36	1761.25
195.58	1873.89
195.80	1779.68
196.02	1816.55
196.24	1800.16
196.46	1867.75
196.69	1779.68
196.91	2027.49
197.13	1824.74
197.35	1714.15
197.57	1841.12
197.79	1851.36
198.01	1816.55
198.23	1777.64
198.45	1824.74
198.67	1765.35
198.89	1834.98
199.11	1812.45
199.33	1757.16
199.55	1658.85
199.77	1777.64
199.99	1869.80
200.21	1730.53
200.43	1847.27
200.65	1695.72
200.87	1677.29
201.09	1728.49
201.31	1804.26
201.53	1837.03
201.75	1751.01
201.97	1839.08
202.19	1816.55
202.41	1871.84
202.63	1982.43
202.85	1877.99
203.07	1834.98
203.29	1767.40
203.51	1775.59
203.73	1775.59
203.95	1970.15
204.17	1798.12
204.39	1824.74
204.61	1837.03
204.83	1828.84
205.05	1818.60
205.27	1845.22
205.49	1918.95
205.71	1789.92
205.93	1677.29
206.15	1812.45
206.37	1841.12
206.59	1742.82
206.81	1826.79
207.03	1748.97
207.25	1812.45
207.47	1863.65
207.69	1839.08
207.91	1982.43
208.13	1867.75
208.34	1810.40
208.56	1718.25
208.78	1884.13
209.00	1812.45
209.22	1832.93
209.44	1849.32
209.66	1783.78
209.88	1849.32
210.10	1822.69
210.32	1853.41
210.54	1863.65
210.76	1802.21
210.98	1863.65
211.20	1681.38
211.42	1789.92
211.64	1859.56
211.86	1855.46
212.08	1812.45
212.30	1767.40
212.52	1826.79
212.74	1871.84
212.96	1796.07
213.17	1886.18
213.39	1847.27
213.61	1869.80
213.83	1804.26
214.05	1785.83
214.27	1877.99
214.49	1746.92
214.71	1730.53
214.93	1855.46
215.15	1832.93
215.37	1884.13
215.59	1675.24
215.81	1785.83
216.03	1898.47
216.24	1822.69
216.46	1781.73
216.68	1837.03
216.90	1863.65
217.12	1775.59
217.34	1925.09
217.56	1847.27
217.78	1845.22
218.00	1847.27
218.22	1851.36
218.44	1865.70
218.66	1837.03
218.87	1953.76
219.09	1767.40
219.31	1785.83
219.53	1855.46
219.75	1785.83
219.97	1843.17
220.19	1763.30
220.41	1898.47
220.63	1890.28
220.85	1832.93
221.06	1820.64
221.28	1849.32
221.50	1875.94
221.72	1812.45
221.94	1828.84
222.16	1769.44
222.38	1777.64
222.60	1822.69
222.82	1841.12
223.03	1867.75
223.25	1691.62
223.47	1853.41
223.69	1834.98
223.91	1886.18
224.13	1828.84
224.35	1806.31
224.57	1896.42
224.78	1828.84
225.00	1806.31
225.22	1759.21
225.44	1859.56
225.66	1847.27
225.88	1787.88
226.10	1900.52
226.32	1841.12
226.53	1925.09
226.75	1775.59
226.97	1746.92
227.19	1804.26
227.41	1853.41
227.63	1789.92
227.85	1683.43
228.06	1890.28
228.28	1804.26
228.50	1849.32
228.72	1755.11
228.94	1804.26
229.16	1644.52
229.37	1722.34
229.59	1771.49
229.81	1914.85
230.03	1816.55
230.25	1738.73
230.47	1783.78
230.69	1757.16
230.90	1787.88
231.12	1804.26
231.34	1814.50
231.56	1837.03
231.78	1794.02
232.00	1826.79
232.21	1828.84
232.43	1837.03
232.65	1705.96
232.87	1853.41
233.09	1726.44
233.30	1816.55
233.52	1855.46
233.74	1822.69
233.96	1808.36
234.18	1822.69
234.40	1808.36
234.61	1951.71
234.83	1767.40
235.05	1685.48
235.27	1970.15
235.49	1959.91
235.70	1808.36
235.92	1855.46
236.14	1841.12
236.36	1970.15
236.58	1738.73
236.79	1828.84
237.01	1785.83
237.23	1806.31
237.45	1939.43
237.67	1716.20
237.88	1761.25
238.10	1992.67
238.32	1775.59
238.54	1732.58
238.76	1705.96
238.97	1736.68
239.19	1708.01
239.41	1808.36
239.63	1791.97
239.85	1740.77
240.06	1726.44
240.28	1728.49
240.50	1853.41
240.72	1824.74
240.93	1751.01
241.15	1882.08
241.37	1832.93
241.59	1888.23
241.81	1767.40
242.02	1712.10
242.24	1824.74
242.46	1814.50
242.68	1794.02
242.89	1857.51
243.11	1898.47
243.33	1779.68
243.55	1820.64
243.76	1951.71
243.98	1730.53
244.20	1908.71
244.42	1814.50
244.64	1796.07
244.85	1687.53
245.07	1703.91
245.29	1804.26
245.51	1724.39
245.72	1804.26
245.94	1927.14
246.16	1892.32
246.38	1871.84
246.59	1753.06
246.81	1722.34
247.03	1806.31
247.24	1701.86
247.46	1824.74
247.68	1804.26
247.90	1796.07
248.11	1810.40
248.33	1863.65
248.55	1789.92
248.77	1777.64
248.98	1765.35
249.20	1914.85
249.42	1914.85
249.64	1775.59
249.85	1802.21
250.07	1710.05
250.29	1787.88
250.50	1923.04
250.72	1691.62
250.94	1812.45
251.16	1933.28
251.37	1837.03
251.59	1873.89
251.81	1892.32
252.02	1904.61
252.24	1804.26
252.46	1873.89
252.68	1804.26
252.89	1812.45
253.11	1705.96
253.33	1886.18
253.54	1859.56
253.76	1705.96
253.98	1779.68
254.20	1830.88
254.41	1761.25
254.63	1787.88
254.85	1763.30
255.06	1812.45
255.28	1834.98
255.50	1837.03
255.71	1775.59
255.93	1744.87
256.15	1789.92
256.36	1849.32
256.58	1880.04
256.80	1886.18
257.02	1834.98
257.23	1794.02
257.45	1800.16
257.67	1896.42
257.88	1765.35
258.10	1816.55
258.32	1775.59
258.53	1767.40
258.75	1865.70
258.97	1804.26
259.18	1839.08
259.40	1841.12
259.62	1898.47
259.83	1837.03
260.05	1832.93
260.27	2133.98
260.48	1875.94
260.70	1802.21
260.92	1826.79
261.13	1802.21
261.35	1855.46
261.57	1828.84
261.78	1701.86
262.00	1748.97
262.22	1794.02
262.43	1773.54
262.65	1834.98
262.86	1736.68
263.08	1943.52
263.30	1845.22
263.51	1708.01
263.73	1808.36
263.95	1892.32
264.16	1814.50
264.38	1849.32
264.60	1798.12
264.81	1830.88
265.03	1834.98
265.25	1855.46
265.46	1767.40
265.68	1853.41
265.89	1910.75
266.11	1796.07
266.33	1789.92
266.54	1828.84
266.76	1869.80
266.98	1816.55
267.19	1931.23
267.41	1898.47
267.62	1806.31
267.84	1757.16
268.06	1794.02
268.27	1781.73
268.49	1855.46
268.70	1910.75
268.92	1830.88
269.14	1710.05
269.35	1722.34
269.57	1751.01
269.79	1890.28
270.00	1746.92
270.22	1957.86
270.43	1816.55
270.65	1734.63
270.87	1771.49
271.08	1839.08
271.30	1873.89
271.51	1759.21
271.73	1783.78
271.95	1830.88
272.16	1828.84
272.38	1867.75
272.59	1857.51
272.81	1892.32
273.02	1849.32
273.24	1855.46
273.46	1957.86
273.67	1730.53
273.89	1748.97
274.10	1710.05
274.32	1849.32
274.54	1818.60
274.75	1841.12
274.97	1759.21
275.18	1828.84
275.40	1763.30
275.61	1751.01
275.83	1863.65
276.05	1675.24
276.26	1839.08
276.48	1853.41
276.69	1748.97
276.91	1718.25
277.12	1933.28
277.34	1769.44
277.55	1824.74
277.77	1794.02
277.99	1744.87
278.20	1755.11
278.42	1757.16
278.63	1734.63
278.85	1783.78
279.06	1761.25
279.28	1785.83
279.49	1861.60
279.71	1798.12
279.93	1822.69
280.14	1787.88
280.36	1728.49
280.57	1857.51
280.79	1837.03
281.00	1789.92
281.22	1738.73
281.43	1904.61
281.65	1726.44
281.86	1755.11
282.08	1824.74
282.29	1964.00
282.51	1705.96
282.73	1763.30
282.94	1746.92
283.16	1830.88
283.37	1816.55
283.59	1859.56
283.80	1886.18
284.02	1796.07
284.23	1888.23
284.45	1714.15
284.66	1822.69
284.88	1826.79
285.09	1777.64
285.31	1898.47
285.52	1830.88
285.74	1673.19
285.95	1861.60
286.17	1906.66
286.38	1853.41
286.60	1828.84
286.81	1755.11
287.03	1806.31
287.24	1804.26
287.46	1914.85
287.67	1851.36
287.89	1890.28
288.10	1828.84
288.32	1824.74
288.53	1877.99
288.75	1820.64
288.96	1875.94
289.18	1757.16
289.39	1822.69
289.61	1839.08
289.82	1937.38
290.04	1939.43
290.25	1789.92
290.47	1767.40
290.68	1798.12
290.90	1890.28
291.11	1785.83
291.33	1875.94
291.54	1683.43
291.76	1800.16
291.97	1867.75
292.18	1927.14
292.40	1744.87
292.61	1759.21
292.83	1972.19
293.04	1834.98
293.26	1851.36
293.47	1804.26
293.69	1736.68
293.90	1837.03
294.12	1859.56
294.33	1826.79
294.55	1824.74
294.76	1841.12
294.97	1853.41
295.19	2041.82
295.40	1816.55
295.62	1853.41
295.83	1918.95
296.05	1744.87
296.26	1855.46
296.48	1755.11
296.69	1904.61
296.90	1808.36
297.12	1896.42
297.33	1873.89
297.55	1841.12
297.76	1828.84
297.98	1877.99
298.19	1888.23
298.41	1738.73
298.62	1812.45
298.83	1877.99
299.05	1773.54
299.26	1748.97
299.48	1832.93
299.69	1882.08
299.90	1828.84
300.12	1769.44
300.33	1857.51
300.55	1812.45
300.76	1912.80
300.98	1759.21
301.19	1810.40
301.40	1808.36
301.62	1710.05
301.83	1820.64
302.05	1806.31
302.26	1814.50
302.47	1824.74
302.69	1751.01
302.90	1855.46
303.12	1718.25
303.33	1837.03
303.54	1953.76
303.76	1812.45
303.97	1845.22
304.19	1865.70
304.40	1710.05
304.61	1806.31
304.83	1912.80
305.04	1796.07
305.26	1918.95
305.47	1822.69
305.68	1853.41
305.90	1714.15
306.11	1886.18
306.33	1796.07
306.54	1843.17
306.75	1798.12
306.97	1746.92
307.18	1763.30
307.39	1867.75
307.61	1841.12
307.82	1820.64
308.04	1886.18
308.25	1837.03
308.46	1828.84
308.68	1828.84
308.89	1841.12
309.10	1918.95
309.32	1767.40
309.53	1783.78
309.74	1843.17
309.96	1720.29
310.17	1851.36
310.39	1806.31
310.60	1869.80
310.81	1757.16
311.03	1759.21
311.24	1808.36
311.45	1771.49
311.67	1869.80
311.88	1763.30
312.09	1791.97
312.31	1771.49
312.52	1722.34
312.73	1804.26
312.95	1796.07
313.16	1761.25
313.37	1918.95
313.59	1851.36
313.80	1906.66
314.01	1822.69
314.23	1746.92
314.44	1847.27
314.65	1787.88
314.87	1773.54
315.08	1722.34
315.29	1781.73
315.51	1753.06
315.72	1697.77
315.93	1923.04
316.15	1886.18
316.36	1810.40
316.57	1880.04
316.79	1828.84
317.00	1748.97
317.21	1890.28
317.43	1785.83
317.64	1783.78
317.85	1845.22
318.07	1753.06
318.28	1927.14
318.49	1976.29
318.70	2146.27
318.92	2019.30
319.13	1996.77
319.34	2029.54
319.56	1996.77
319.77	1992.67
319.98	1982.43
320.20	1910.75
320.41	1925.09
320.62	1900.52
320.83	1771.49
321.05	1912.80
321.26	1822.69
321.47	1841.12
321.69	1900.52
321.90	1693.67
322.11	1826.79
322.32	1800.16
322.54	1902.56
322.75	1785.83
322.96	1974.24
323.18	1781.73
323.39	1693.67
323.60	1779.68
323.81	1906.66
324.03	1738.73
324.24	1763.30
324.45	1875.94
324.66	1810.40
324.88	1834.98
325.09	1873.89
325.30	1779.68
325.52	1843.17
325.73	1830.88
325.94	1761.25
326.15	1746.92
326.37	1740.77
326.58	1912.80
326.79	1888.23
327.00	1697.77
327.22	1796.07
327.43	1751.01
327.64	1699.81
327.85	1832.93
328.07	1841.12
328.28	1902.56
328.49	1785.83
328.70	1724.39
328.92	1787.88
329.13	1751.01
329.34	1791.97
329.55	1959.91
329.76	1845.22
329.98	1767.40
330.19	1851.36
330.40	1869.80
330.61	1808.36
330.83	1826.79
331.04	1738.73
331.25	1816.55
331.46	1708.01
331.68	1724.39
331.89	1804.26
332.10	1863.65
332.31	1761.25
332.52	1820.64
332.74	1845.22
332.95	1716.20
333.16	1703.91
333.37	1873.89
333.58	1812.45
333.80	1746.92
334.01	1679.33
334.22	1779.68
334.43	1777.64
334.64	1818.60
334.86	1771.49
335.07	1720.29
335.28	1877.99
335.49	1751.01
335.70	1841.12
335.92	1914.85
336.13	1871.84
336.34	1814.50
336.55	1845.22
336.76	1789.92
336.98	1687.53
337.19	1894.37
337.40	1888.23
337.61	1945.57
337.82	1841.12
338.04	1826.79
338.25	1679.33
338.46	1837.03
338.67	1787.88
338.88	1755.11
339.09	1789.92
339.31	1851.36
339.52	1806.31
339.73	1738.73
339.94	1863.65
340.15	1947.62
340.36	1869.80
340.58	1855.46
340.79	1779.68
341.00	1769.44
341.21	1783.78
341.42	1908.71
341.63	1857.51
341.85	1867.75
342.06	1810.40
342.27	1775.59
342.48	1882.08
342.69	1691.62
342.90	1802.21
343.12	1847.27
343.33	1757.16
343.54	1820.64
343.75	1861.60
343.96	1779.68
344.17	1826.79
344.38	1886.18
344.60	1796.07
344.81	1767.40
345.02	1789.92
345.23	1857.51
345.44	1923.04
345.65	1816.55
345.86	1888.23
346.07	1849.32
346.29	1765.35
346.50	1810.40
346.71	1847.27
346.92	1923.04
347.13	1900.52
347.34	1814.50
347.55	1818.60
347.76	1851.36
347.98	1740.77
348.19	1767.40
348.40	1855.46
348.61	1714.15
348.82	1925.09
349.03	1869.80
349.24	1753.06
349.45	1898.47
349.66	1640.42
349.88	1841.12
350.09	1775.59
350.30	1863.65
350.51	1906.66
350.72	1832.93
350.93	1806.31
351.14	1753.06
351.35	1804.26
351.56	1783.78
351.77	1818.60
351.99	1888.23
352.20	1880.04
352.41	1847.27
352.62	1769.44
352.83	1767.40
353.04	1761.25
353.25	1822.69
353.46	1847.27
353.67	1861.60
353.88	1689.57
354.09	1832.93
354.30	1796.07
354.52	1869.80
354.73	1775.59
354.94	1726.44
355.15	1884.13
355.36	1904.61
355.57	1789.92
355.78	1859.56
355.99	1828.84
356.20	1730.53
356.41	1873.89
356.62	1738.73
356.83	1855.46
357.04	1935.33
357.25	1673.19
357.46	1812.45
357.68	1722.34
357.89	1736.68
358.10	1841.12
358.31	1781.73
358.52	1832.93
358.73	1730.53
358.94	1800.16
359.15	1843.17
359.36	1859.56
359.57	1822.69
359.78	1828.84
359.99	1865.70
360.20	1818.60
360.41	1748.97
360.62	1802.21
360.83	1802.21
361.04	1779.68
361.25	1857.51
361.46	1894.37
361.67	1863.65
361.88	1900.52
362.09	1857.51
362.30	1804.26
362.51	1740.77
362.72	1880.04
362.93	1888.23
363.14	1869.80
363.35	1900.52
363.56	1722.34
363.78	1841.12
363.99	1916.90
364.20	1789.92
364.41	1798.12
364.62	1964.00
364.83	1867.75
365.04	1753.06
365.25	1816.55
365.46	1933.28
365.67	1714.15
365.88	1748.97
366.09	1886.18
366.30	1783.78
366.51	1820.64
366.72	1718.25
366.93	1853.41
367.14	1746.92
367.35	1865.70
367.56	1841.12
367.77	1904.61
367.98	1796.07
368.18	1880.04
368.39	1849.32
368.60	1787.88
368.81	1822.69
369.02	1884.13
369.23	1767.40
369.44	1703.91
369.65	1820.64
369.86	1783.78
370.07	1914.85
370.28	1783.78
370.49	1865.70
370.70	1865.70
370.91	1722.34
371.12	1751.01
371.33	1886.18
371.54	1800.16
371.75	1906.66
371.96	1665.00
372.17	1855.46
372.38	1798.12
372.59	1869.80
372.80	1767.40
373.01	1755.11
373.22	1822.69
373.43	1892.32
373.64	1675.24
373.85	1873.89
374.06	1933.28
374.26	1939.43
374.47	1849.32
374.68	1904.61
374.89	1796.07
375.10	1730.53
375.31	1894.37
375.52	1751.01
375.73	1787.88
375.94	1767.40
376.15	1906.66
376.36	1710.05
376.57	1802.21
376.78	1693.67
376.99	1941.47
377.20	1871.84
377.40	1691.62
377.61	1837.03
377.82	1722.34
378.03	1875.94
378.24	1894.37
378.45	1771.49
378.66	1830.88
378.87	1773.54
379.08	1738.73
379.29	1824.74
379.50	1894.37
379.71	1806.31
379.91	1914.85
380.12	1796.07
380.33	1779.68
380.54	1753.06
380.75	1781.73
380.96	1808.36
381.17	1902.56
381.38	1822.69
381.59	1839.08
381.80	1871.84
382.00	1976.29
382.21	1857.51
382.42	2047.97
382.63	1982.43
382.84	1837.03
383.05	1861.60
383.26	1943.52
383.47	1785.83
383.68	1861.60
383.88	1873.89
384.09	1812.45
384.30	1898.47
384.51	1830.88
384.72	1867.75
384.93	1716.20
385.14	1783.78
385.35	1845.22
385.55	1765.35
385.76	1902.56
385.97	1830.88
386.18	1779.68
386.39	1787.88
386.60	1744.87
386.81	1871.84
387.02	1832.93
387.22	1816.55
387.43	1972.19
387.64	1933.28
387.85	2023.39
388.06	2142.18
388.27	4229.06
388.48	8902.52
388.68	12044.10
388.89	14010.15
389.10	15101.72
389.31	13254.45
389.52	10342.24
389.73	9166.71
389.93	8439.68
390.14	7653.26
390.35	6907.80
390.56	6301.60
390.77	5302.19
390.98	4065.22
391.18	3168.21
391.39	2463.71
391.60	1970.15
391.81	2004.96
392.02	1847.27
392.23	2037.73
392.43	1855.46
392.64	1947.62
392.85	1859.56
393.06	1908.71
393.27	1808.36
393.47	1800.16
393.68	1814.50
393.89	1789.92
394.10	1830.88
394.31	1753.06
394.52	1804.26
394.72	1763.30
394.93	1916.90
395.14	1783.78
395.35	1763.30
395.56	1851.36
395.76	1824.74
395.97	1806.31
396.18	1935.33
396.39	1865.70
396.60	2244.57
396.80	2027.49
397.01	2004.96
397.22	1923.04
397.43	1994.72
397.64	1871.84
397.84	1974.24
398.05	2025.44
398.26	1894.37
398.47	1918.95
398.67	1853.41
398.88	1832.93
399.09	1886.18
399.30	1791.97
399.51	1820.64
399.71	1697.77
399.92	1802.21
400.13	1918.95
400.34	1789.92
400.54	1869.80
400.75	1845.22
400.96	1841.12
401.17	1927.14
401.37	1906.66
401.58	1808.36
401.79	1837.03
402.00	1882.08
402.21	2195.42
402.41	2152.42
402.62	2273.25
402.83	2379.74
403.04	2226.14
403.24	2240.48
403.45	1976.29
403.66	2129.89
403.87	2058.21
404.07	2045.92
404.28	2027.49
404.49	2066.40
404.70	1892.32
404.90	1830.88
405.11	1906.66
405.32	1865.70
405.52	1851.36
405.73	1804.26
405.94	1746.92
406.15	1779.68
406.35	1847.27
406.56	1824.74
406.77	1847.27
406.98	1787.88
407.18	1748.97
407.39	1884.13
407.60	1857.51
407.80	1802.21
408.01	1798.12
408.22	1826.79
408.43	1742.82
408.63	1824.74
408.84	1861.60
409.05	1949.67
409.25	1708.01
409.46	1734.63
409.67	1794.02
409.88	1855.46
410.08	1789.92
410.29	1816.55
410.50	1783.78
410.70	1853.41
410.91	1769.44
411.12	1880.04
411.32	1718.25
411.53	1710.05
411.74	1947.62
411.95	1902.56
412.15	1861.60
412.36	1927.14
412.57	1935.33
412.77	1904.61
412.98	1880.04
413.19	1906.66
413.39	1841.12
413.60	1880.04
413.81	1978.34
414.01	1830.88
414.22	1859.56
414.43	1882.08
414.63	1886.18
414.84	1910.75
415.05	1806.31
415.25	1775.59
415.46	1920.99
415.67	1796.07
415.87	1867.75
416.08	1943.52
416.29	1705.96
416.49	1873.89
416.70	1826.79
416.91	1804.26
417.11	1738.73
417.32	1820.64
417.53	1880.04
417.73	1843.17
417.94	1777.64
418.15	1849.32
418.35	1873.89
418.56	1925.09
418.77	1951.71
418.97	1816.55
419.18	1820.64
419.38	1703.91
419.59	1867.75
419.80	1857.51
420.00	1865.70
420.21	1779.68
420.42	1916.90
420.62	1806.31
420.83	1839.08
421.04	1804.26
421.24	1789.92
421.45	1834.98
421.65	1869.80
421.86	1755.11
422.07	1867.75
422.27	1847.27
422.48	1890.28
422.69	1652.71
422.89	1849.32
423.10	1718.25
423.30	1757.16
423.51	1806.31
423.72	1808.36
423.92	1873.89
424.13	1751.01
424.33	1832.93
424.54	1918.95
424.75	1851.36
424.95	1896.42
425.16	1816.55
425.36	1865.70
425.57	1882.08
425.78	1796.07
425.98	1873.89
426.19	1771.49
426.39	1820.64
426.60	1814.50
426.81	1884.13
427.01	1865.70
427.22	1787.88
427.42	1808.36
427.63	1798.12
427.83	1800.16
428.04	1933.28
428.25	1976.29
428.45	1859.56
428.66	1949.67
428.86	1802.21
429.07	1777.64
429.28	1822.69
429.48	1837.03
429.69	1761.25
429.89	1834.98
430.10	1718.25
430.30	1877.99
430.51	1935.33
430.71	1738.73
430.92	1800.16
431.13	1916.90
431.33	1910.75
431.54	1834.98
431.74	1988.58
431.95	2033.63
432.15	1834.98
432.36	1828.84
432.56	1869.80
432.77	1992.67
432.98	1968.10
433.18	1871.84
433.39	1859.56
433.59	1773.54
433.80	1886.18
434.00	2009.06
434.21	1777.64
434.41	1822.69
434.62	2041.82
434.82	1734.63
435.03	1738.73
435.23	1791.97
435.44	1755.11
435.64	1820.64
435.85	1871.84
436.06	1902.56
436.26	1875.94
436.47	1832.93
436.67	1832.93
436.88	1818.60
437.08	1888.23
437.29	1949.67
437.49	1900.52
437.70	1914.85
437.90	1855.46
438.11	1894.37
438.31	1863.65
438.52	1976.29
438.72	2035.68
438.93	2119.65
439.13	1886.18
439.34	1941.47
439.54	1826.79
439.75	1880.04
439.95	1894.37
440.16	1818.60
440.36	1851.36
440.57	1976.29
440.77	1839.08
440.98	1855.46
441.18	1882.08
441.39	1757.16
441.59	1730.53
441.80	1986.53
442.00	1814.50
442.21	1882.08
442.41	1683.43
442.62	1859.56
442.82	1771.49
443.02	1855.46
443.23	1818.60
443.43	1888.23
443.64	2021.35
443.84	1783.78
444.05	1941.47
444.25	1851.36
444.46	1798.12
444.66	1871.84
444.87	1896.42
445.07	1734.63
445.28	1863.65
445.48	1957.86
445.69	1935.33
445.89	2007.01
446.09	1882.08
446.30	2086.88
446.50	2564.06
446.71	4216.77
446.91	5316.53
447.12	6021.03
447.32	6549.40
447.53	5699.50
447.73	4648.89
447.93	4179.90
448.14	3872.71
448.34	3721.16
448.55	3336.14
448.75	3248.08
448.96	3227.60
449.16	2742.23
449.36	2473.95
449.57	2273.25
449.77	2050.02
449.98	1873.89
450.18	1900.52
450.39	1943.52
450.59	1902.56
450.79	1845.22
451.00	1808.36
451.20	1865.70
451.41	1816.55
451.61	1935.33
451.81	1820.64
452.02	1767.40
452.22	1837.03
452.43	1796.07
452.63	1757.16
