SpectraSuite Data File
++++++++++++++++++++++++++++++++++++
Date: Wed May 04 21:12:58 CEST 2016
User: root
Dark Spectrum Present: No
Reference Spectrum Present: No
Number of Sampled Component Spectra: 1
Spectrometers: USB4C02835
Integration Time (usec): 100000 (USB4C02835)
Spectra Averaged: 1 (USB4C02835)
Boxcar Smoothing: 0 (USB4C02835)
Correct for Electrical Dark: No (USB4C02835)
Strobe/Lamp Enabled: No (USB4C02835)
Correct for Detector Non-linearity: No (USB4C02835)
Correct for Stray Light: No (USB4C02835)
Number of Pixels in Processed Spectrum: 3648
>>>>>Begin Processed Spectral Data<<<<<
177.47	1535.98
177.69	1535.98
177.91	1535.98
178.13	1519.59
178.36	1558.50
178.58	1736.68
178.80	1834.98
179.02	1736.68
179.24	1808.36
179.46	1787.88
179.68	1820.64
179.90	1845.22
180.13	1863.65
180.35	1773.54
180.57	1814.50
180.79	1757.16
181.01	1814.50
181.23	1861.60
181.45	1824.74
181.67	1779.68
181.90	1894.37
182.12	1791.97
182.34	1789.92
182.56	1849.32
182.78	1857.51
183.00	1818.60
183.22	1841.12
183.44	1712.10
183.66	1853.41
183.89	1869.80
184.11	1771.49
184.33	1853.41
184.55	1806.31
184.77	1869.80
184.99	1865.70
185.21	1822.69
185.43	1953.76
185.65	1789.92
185.87	1802.21
186.10	1892.32
186.32	1957.86
186.54	1816.55
186.76	1902.56
186.98	1904.61
187.20	1787.88
187.42	1783.78
187.64	1837.03
187.86	1800.16
188.08	1890.28
188.30	1738.73
188.52	1826.79
188.75	1904.61
188.97	1900.52
189.19	1779.68
189.41	1806.31
189.63	1894.37
189.85	1746.92
190.07	1761.25
190.29	1714.15
190.51	1826.79
190.73	1761.25
190.95	1880.04
191.17	1820.64
191.39	1701.86
191.61	1816.55
191.84	1728.49
192.06	1830.88
192.28	1748.97
192.50	1992.67
192.72	1859.56
192.94	1853.41
193.16	1867.75
193.38	1794.02
193.60	1697.77
193.82	1794.02
194.04	1955.81
194.26	1816.55
194.48	1800.16
194.70	1755.11
194.92	1755.11
195.14	1929.19
195.36	1720.29
195.58	1861.60
195.80	1796.07
196.02	1695.72
196.24	1839.08
196.46	1830.88
196.69	1773.54
196.91	1929.19
197.13	1851.36
197.35	1826.79
197.57	1945.57
197.79	1847.27
198.01	1900.52
198.23	1804.26
198.45	1826.79
198.67	1802.21
198.89	1818.60
199.11	1781.73
199.33	1789.92
199.55	1693.67
199.77	1849.32
199.99	1886.18
200.21	1853.41
200.43	1765.35
200.65	1722.34
200.87	1677.29
201.09	1808.36
201.31	1824.74
201.53	1814.50
201.75	1877.99
201.97	1751.01
202.19	1841.12
202.41	1728.49
202.63	1875.94
202.85	1849.32
203.07	1824.74
203.29	1744.87
203.51	1695.72
203.73	1843.17
203.95	2029.54
204.17	1759.21
204.39	1777.64
204.61	1726.44
204.83	1787.88
205.05	1843.17
205.27	1771.49
205.49	1968.10
205.71	1826.79
205.93	1734.63
206.15	1734.63
206.37	1832.93
206.59	1869.80
206.81	1769.44
207.03	1699.81
207.25	1617.90
207.47	1802.21
207.69	1734.63
207.91	1890.28
208.13	1888.23
208.34	1732.58
208.56	1771.49
208.78	1853.41
209.00	1902.56
209.22	1794.02
209.44	1722.34
209.66	1759.21
209.88	1853.41
210.10	1732.58
210.32	1855.46
210.54	1939.43
210.76	1816.55
210.98	1826.79
211.20	1714.15
211.42	1810.40
211.64	1824.74
211.86	1781.73
212.08	1873.89
212.30	1781.73
212.52	1791.97
212.74	1845.22
212.96	1849.32
213.17	1785.83
213.39	1884.13
213.61	1923.04
213.83	1871.84
214.05	1773.54
214.27	1871.84
214.49	1724.39
214.71	1705.96
214.93	1869.80
215.15	1791.97
215.37	1902.56
215.59	1791.97
215.81	1918.95
216.03	1849.32
216.24	1841.12
216.46	1808.36
216.68	1759.21
216.90	1849.32
217.12	1882.08
217.34	1841.12
217.56	1851.36
217.78	1877.99
218.00	1785.83
218.22	1884.13
218.44	1796.07
218.66	1867.75
218.87	1957.86
219.09	1939.43
219.31	1828.84
219.53	1820.64
219.75	1808.36
219.97	1834.98
220.19	1837.03
220.41	1816.55
220.63	1904.61
220.85	1826.79
221.06	1810.40
221.28	1951.71
221.50	1884.13
221.72	1824.74
221.94	1763.30
222.16	1804.26
222.38	1834.98
222.60	1789.92
222.82	1779.68
223.03	1916.90
223.25	1761.25
223.47	1832.93
223.69	1875.94
223.91	1853.41
224.13	1779.68
224.35	1759.21
224.57	1888.23
224.78	1880.04
225.00	1763.30
225.22	1828.84
225.44	1822.69
225.66	1869.80
225.88	1783.78
226.10	1804.26
226.32	1775.59
226.53	1824.74
226.75	1816.55
226.97	1834.98
227.19	1810.40
227.41	1822.69
227.63	1753.06
227.85	1765.35
228.06	1841.12
228.28	1806.31
228.50	1931.23
228.72	1697.77
228.94	1845.22
229.16	1699.81
229.37	1785.83
229.59	1746.92
229.81	1937.38
230.03	1816.55
230.25	1791.97
230.47	1781.73
230.69	1730.53
230.90	1927.14
231.12	1740.77
231.34	1763.30
231.56	1845.22
231.78	1767.40
232.00	1855.46
232.21	1783.78
232.43	1779.68
232.65	1693.67
232.87	1812.45
233.09	1716.20
233.30	1718.25
233.52	1849.32
233.74	1773.54
233.96	1804.26
234.18	1814.50
234.40	1779.68
234.61	1957.86
234.83	1759.21
235.05	1771.49
235.27	1982.43
235.49	1845.22
235.70	1855.46
235.92	1839.08
236.14	1798.12
236.36	1929.19
236.58	1775.59
236.79	1914.85
237.01	1859.56
237.23	1845.22
237.45	1943.52
237.67	1804.26
237.88	1828.84
238.10	1873.89
238.32	1757.16
238.54	1855.46
238.76	1779.68
238.97	1730.53
239.19	1738.73
239.41	1820.64
239.63	1898.47
239.85	1726.44
240.06	1783.78
240.28	1798.12
240.50	1904.61
240.72	1796.07
240.93	1771.49
241.15	1902.56
241.37	1787.88
241.59	1894.37
241.81	1820.64
242.02	1777.64
242.24	1812.45
242.46	1841.12
242.68	1789.92
242.89	1789.92
243.11	1794.02
243.33	1726.44
243.55	1886.18
243.76	1935.33
243.98	1773.54
244.20	1777.64
244.42	1791.97
244.64	1888.23
244.85	1732.58
245.07	1730.53
245.29	1880.04
245.51	1814.50
245.72	1812.45
245.94	1918.95
246.16	1861.60
246.38	1877.99
246.59	1787.88
246.81	1775.59
247.03	1751.01
247.24	1703.91
247.46	1751.01
247.68	1841.12
247.90	1724.39
248.11	1781.73
248.33	1855.46
248.55	1851.36
248.77	1845.22
248.98	1873.89
249.20	1949.67
249.42	1748.97
249.64	1806.31
249.85	1890.28
250.07	1832.93
250.29	1861.60
250.50	1877.99
250.72	1736.68
250.94	1867.75
251.16	1914.85
251.37	1861.60
251.59	1845.22
251.81	1785.83
252.02	1873.89
252.24	1771.49
252.46	1855.46
252.68	1769.44
252.89	1865.70
253.11	1728.49
253.33	1826.79
253.54	1912.80
253.76	1701.86
253.98	1828.84
254.20	1787.88
254.41	1740.77
254.63	1871.84
254.85	1695.72
255.06	1740.77
255.28	1877.99
255.50	1808.36
255.71	1724.39
255.93	1751.01
256.15	1765.35
256.36	1822.69
256.58	1777.64
256.80	1794.02
257.02	1763.30
257.23	1818.60
257.45	1787.88
257.67	1910.75
257.88	1794.02
258.10	1851.36
258.32	1806.31
258.53	1814.50
258.75	1871.84
258.97	1691.62
259.18	1769.44
259.40	1789.92
259.62	1888.23
259.83	1871.84
260.05	1822.69
260.27	2107.36
260.48	1869.80
260.70	1705.96
260.92	1806.31
261.13	1847.27
261.35	1873.89
261.57	1802.21
261.78	1783.78
262.00	1701.86
262.22	1857.51
262.43	1718.25
262.65	1873.89
262.86	1816.55
263.08	1894.37
263.30	1855.46
263.51	1716.20
263.73	1757.16
263.95	1859.56
264.16	1753.06
264.38	1832.93
264.60	1812.45
264.81	1738.73
265.03	1877.99
265.25	1882.08
265.46	1742.82
265.68	1853.41
265.89	1867.75
266.11	1742.82
266.33	1828.84
266.54	1859.56
266.76	1845.22
266.98	1810.40
267.19	1894.37
267.41	1859.56
267.62	1839.08
267.84	1724.39
268.06	1802.21
268.27	1808.36
268.49	1820.64
268.70	1832.93
268.92	1746.92
269.14	1849.32
269.35	1775.59
269.57	1755.11
269.79	1837.03
270.00	1798.12
270.22	1861.60
270.43	1732.58
270.65	1662.95
270.87	1832.93
271.08	1839.08
271.30	1810.40
271.51	1751.01
271.73	1847.27
271.95	1933.28
272.16	1787.88
272.38	1867.75
272.59	1830.88
272.81	1949.67
273.02	1765.35
273.24	1759.21
273.46	1841.12
273.67	1755.11
273.89	1744.87
274.10	1724.39
274.32	1906.66
274.54	1853.41
274.75	1918.95
274.97	1777.64
275.18	1841.12
275.40	1863.65
275.61	1845.22
275.83	1814.50
276.05	1732.58
276.26	1736.68
276.48	1796.07
276.69	1759.21
276.91	1800.16
277.12	1906.66
277.34	1896.42
277.55	1882.08
277.77	1843.17
277.99	1785.83
278.20	1708.01
278.42	1703.91
278.63	1826.79
278.85	1740.77
279.06	1748.97
279.28	1812.45
279.49	1843.17
279.71	1806.31
279.93	1890.28
280.14	1789.92
280.36	1763.30
280.57	1814.50
280.79	1843.17
281.00	1802.21
281.22	1839.08
281.43	1847.27
281.65	1712.10
281.86	1812.45
282.08	1830.88
282.29	1953.76
282.51	1660.90
282.73	1763.30
282.94	1736.68
283.16	1871.84
283.37	1939.43
283.59	1804.26
283.80	1849.32
284.02	1779.68
284.23	1720.29
284.45	1769.44
284.66	1746.92
284.88	1757.16
285.09	1890.28
285.31	1812.45
285.52	1851.36
285.74	1683.43
285.95	1834.98
286.17	1830.88
286.38	1892.32
286.60	1810.40
286.81	1771.49
287.03	1791.97
287.24	1822.69
287.46	1890.28
287.67	1818.60
287.89	1927.14
288.10	1861.60
288.32	1798.12
288.53	1849.32
288.75	1765.35
288.96	1849.32
289.18	1798.12
289.39	1822.69
289.61	1869.80
289.82	1898.47
290.04	1959.91
290.25	1716.20
290.47	1808.36
290.68	1781.73
290.90	1841.12
291.11	1662.95
291.33	1855.46
291.54	1728.49
291.76	1710.05
291.97	1816.55
292.18	1865.70
292.40	1798.12
292.61	1783.78
292.83	1892.32
293.04	1853.41
293.26	1828.84
293.47	1843.17
293.69	1677.29
293.90	1814.50
294.12	1947.62
294.33	1849.32
294.55	1753.06
294.76	1914.85
294.97	1785.83
295.19	1902.56
295.40	1826.79
295.62	1826.79
295.83	1873.89
296.05	1802.21
296.26	1920.99
296.48	1787.88
296.69	1861.60
296.90	1816.55
297.12	1828.84
297.33	1869.80
297.55	1826.79
297.76	1865.70
297.98	1894.37
298.19	1791.97
298.41	1863.65
298.62	1730.53
298.83	1843.17
299.05	1812.45
299.26	1763.30
299.48	1728.49
299.69	1861.60
299.90	1802.21
300.12	1841.12
300.33	1904.61
300.55	1751.01
300.76	1818.60
300.98	1667.05
301.19	1841.12
301.40	1845.22
301.62	1755.11
301.83	1851.36
302.05	1779.68
302.26	1794.02
302.47	1761.25
302.69	1765.35
302.90	1871.84
303.12	1708.01
303.33	1892.32
303.54	1949.67
303.76	1814.50
303.97	1802.21
304.19	1914.85
304.40	1726.44
304.61	1894.37
304.83	1890.28
305.04	1859.56
305.26	1763.30
305.47	1841.12
305.68	1808.36
305.90	1734.63
306.11	1859.56
306.33	1734.63
306.54	1734.63
306.75	1724.39
306.97	1685.48
307.18	1791.97
307.39	1771.49
307.61	1826.79
307.82	1810.40
308.04	1873.89
308.25	1726.44
308.46	1875.94
308.68	1777.64
308.89	1794.02
309.10	1841.12
309.32	1816.55
309.53	1748.97
309.74	1857.51
309.96	1779.68
310.17	1869.80
310.39	1818.60
310.60	1832.93
310.81	1773.54
311.03	1705.96
311.24	1859.56
311.45	1839.08
311.67	1918.95
311.88	1796.07
312.09	1730.53
312.31	1798.12
312.52	1804.26
312.73	1781.73
312.95	1767.40
313.16	1732.58
313.37	1877.99
313.59	1937.38
313.80	1802.21
314.01	1863.65
314.23	1718.25
314.44	1759.21
314.65	1693.67
314.87	1796.07
315.08	1763.30
315.29	1812.45
315.51	1841.12
315.72	1775.59
315.93	1957.86
316.15	1947.62
316.36	1849.32
316.57	1853.41
316.79	1839.08
317.00	1740.77
317.21	1851.36
317.43	1718.25
317.64	1796.07
317.85	1724.39
318.07	1830.88
318.28	1849.32
318.49	1933.28
318.70	2105.31
318.92	1994.72
319.13	2041.82
319.34	2025.44
319.56	1908.71
319.77	1980.39
319.98	2029.54
320.20	1964.00
320.41	1947.62
320.62	1877.99
320.83	1769.44
321.05	2025.44
321.26	1830.88
321.47	1791.97
321.69	1865.70
321.90	1716.20
322.11	1814.50
322.32	1808.36
322.54	1822.69
322.75	1710.05
322.96	1902.56
323.18	1783.78
323.39	1712.10
323.60	1759.21
323.81	1890.28
324.03	1791.97
324.24	1880.04
324.45	1771.49
324.66	1734.63
324.88	1902.56
325.09	1906.66
325.30	1845.22
325.52	1783.78
325.73	1755.11
325.94	1753.06
326.15	1619.94
326.37	1869.80
326.58	1849.32
326.79	1959.91
327.00	1769.44
327.22	1828.84
327.43	1814.50
327.64	1759.21
327.85	1888.23
328.07	1830.88
328.28	1884.13
328.49	1798.12
328.70	1775.59
328.92	1759.21
329.13	1791.97
329.34	1841.12
329.55	1931.23
329.76	1877.99
329.98	1703.91
330.19	1837.03
330.40	1800.16
330.61	1828.84
330.83	1820.64
331.04	1773.54
331.25	1884.13
331.46	1814.50
331.68	1761.25
331.89	1849.32
332.10	1847.27
332.31	1665.00
332.52	1783.78
332.74	1845.22
332.95	1712.10
333.16	1791.97
333.37	1841.12
333.58	1777.64
333.80	1851.36
334.01	1708.01
334.22	1808.36
334.43	1695.72
334.64	1773.54
334.86	1746.92
335.07	1753.06
335.28	1900.52
335.49	1748.97
335.70	1898.47
335.92	1851.36
336.13	1906.66
336.34	1886.18
336.55	1853.41
336.76	1847.27
336.98	1609.70
337.19	1894.37
337.40	1943.52
337.61	2000.87
337.82	1787.88
338.04	1867.75
338.25	1771.49
338.46	1769.44
338.67	1779.68
338.88	1742.82
339.09	1808.36
339.31	1800.16
339.52	1804.26
339.73	1726.44
339.94	1775.59
340.15	1867.75
340.36	1789.92
340.58	1810.40
340.79	1781.73
341.00	1843.17
341.21	1808.36
341.42	1961.95
341.63	1859.56
341.85	1851.36
342.06	1785.83
342.27	1773.54
342.48	1853.41
342.69	1720.29
342.90	1798.12
343.12	1785.83
343.33	1837.03
343.54	1953.76
343.75	1849.32
343.96	1787.88
344.17	1746.92
344.38	1787.88
344.60	1718.25
344.81	1763.30
345.02	1820.64
345.23	1810.40
345.44	2021.35
345.65	1916.90
345.86	1949.67
346.07	1822.69
346.29	1751.01
346.50	1814.50
346.71	1847.27
346.92	1939.43
347.13	1935.33
347.34	1828.84
347.55	1779.68
347.76	1845.22
347.98	1746.92
348.19	1748.97
348.40	1845.22
348.61	1808.36
348.82	1931.23
349.03	1828.84
349.24	1783.78
349.45	1953.76
349.66	1656.81
349.88	1855.46
350.09	1738.73
350.30	1861.60
350.51	1902.56
350.72	1810.40
350.93	1820.64
351.14	1789.92
351.35	1806.31
351.56	1857.51
351.77	1843.17
351.99	1802.21
352.20	1818.60
352.41	1882.08
352.62	1755.11
352.83	1800.16
353.04	1830.88
353.25	1748.97
353.46	1834.98
353.67	1818.60
353.88	1701.86
354.09	1816.55
354.30	1832.93
354.52	1871.84
354.73	1794.02
354.94	1757.16
355.15	1814.50
355.36	1863.65
355.57	1814.50
355.78	1853.41
355.99	1777.64
356.20	1794.02
356.41	1886.18
356.62	1794.02
356.83	1791.97
357.04	1906.66
357.25	1763.30
357.46	1863.65
357.68	1748.97
357.89	1759.21
358.10	1771.49
358.31	1832.93
358.52	1773.54
358.73	1679.33
358.94	1769.44
359.15	1718.25
359.36	1847.27
359.57	1841.12
359.78	1818.60
359.99	1820.64
360.20	1771.49
360.41	1830.88
360.62	1882.08
360.83	1822.69
361.04	1849.32
361.25	1839.08
361.46	1861.60
361.67	1877.99
361.88	1892.32
362.09	1871.84
362.30	1806.31
362.51	1800.16
362.72	1855.46
362.93	2000.87
363.14	1820.64
363.35	1818.60
363.56	1820.64
363.78	1865.70
363.99	1783.78
364.20	1767.40
364.41	1845.22
364.62	1943.52
364.83	1894.37
365.04	1824.74
365.25	1839.08
365.46	1908.71
365.67	1849.32
365.88	1824.74
366.09	1763.30
366.30	1738.73
366.51	1830.88
366.72	1800.16
366.93	1787.88
367.14	1847.27
367.35	1857.51
367.56	1800.16
367.77	1929.19
367.98	1767.40
368.18	1808.36
368.39	1804.26
368.60	1751.01
368.81	1898.47
369.02	1787.88
369.23	1818.60
369.44	1779.68
369.65	1773.54
369.86	1841.12
370.07	1914.85
370.28	1822.69
370.49	1812.45
370.70	1929.19
370.91	1726.44
371.12	1751.01
371.33	1882.08
371.54	1761.25
371.75	1943.52
371.96	1730.53
372.17	1822.69
372.38	1824.74
372.59	1855.46
372.80	1798.12
373.01	1853.41
373.22	1841.12
373.43	1818.60
373.64	1748.97
373.85	1837.03
374.06	1875.94
374.26	1859.56
374.47	1832.93
374.68	1918.95
374.89	1888.23
375.10	1804.26
375.31	1906.66
375.52	1794.02
375.73	1871.84
375.94	1693.67
376.15	1861.60
376.36	1802.21
376.57	1765.35
376.78	1804.26
376.99	1837.03
377.20	1873.89
377.40	1802.21
377.61	1873.89
377.82	1822.69
378.03	1933.28
378.24	1933.28
378.45	1787.88
378.66	1783.78
378.87	1630.18
379.08	1816.55
379.29	1824.74
379.50	1947.62
379.71	1785.83
379.91	1859.56
380.12	1751.01
380.33	1791.97
380.54	1841.12
380.75	1855.46
380.96	1779.68
381.17	1906.66
381.38	1777.64
381.59	1851.36
381.80	1791.97
382.00	1947.62
382.21	1906.66
382.42	1994.72
382.63	1945.57
382.84	1886.18
383.05	1896.42
383.26	1980.39
383.47	1855.46
383.68	1857.51
383.88	1857.51
384.09	1818.60
384.30	1902.56
384.51	1789.92
384.72	1773.54
384.93	1734.63
385.14	1830.88
385.35	1916.90
385.55	1718.25
385.76	1947.62
385.97	1839.08
386.18	1744.87
386.39	1796.07
386.60	1918.95
386.81	1814.50
387.02	1785.83
387.22	1740.77
387.43	1880.04
387.64	1867.75
387.85	1953.76
388.06	2117.60
388.27	4222.91
388.48	9013.11
388.68	11829.07
388.89	13846.32
389.10	14860.06
389.31	13201.21
389.52	10446.69
389.73	9095.03
389.93	8388.48
390.14	7593.87
390.35	6901.65
390.56	6240.16
390.77	5144.50
390.98	3946.44
391.18	3114.96
391.39	2533.34
391.60	2056.16
391.81	1976.29
392.02	1791.97
392.23	1990.63
392.43	1875.94
392.64	1894.37
392.85	1812.45
393.06	1888.23
393.27	1810.40
393.47	1783.78
393.68	1863.65
393.89	1828.84
394.10	1853.41
394.31	1763.30
394.52	1812.45
394.72	1861.60
394.93	1947.62
395.14	1720.29
395.35	1830.88
395.56	1742.82
395.76	1812.45
395.97	1918.95
396.18	1970.15
396.39	2035.68
396.60	2179.04
396.80	2101.22
397.01	2013.15
397.22	2004.96
397.43	1949.67
397.64	1910.75
397.84	1888.23
398.05	1988.58
398.26	1857.51
398.47	1890.28
398.67	1834.98
398.88	1804.26
399.09	1920.99
399.30	1804.26
399.51	1898.47
399.71	1789.92
399.92	1781.73
400.13	1880.04
400.34	1847.27
400.54	1748.97
400.75	1943.52
400.96	1886.18
401.17	1884.13
401.37	1908.71
401.58	1789.92
401.79	1935.33
402.00	2045.92
402.21	2119.65
402.41	2207.71
402.62	2256.86
402.83	2299.87
403.04	2209.76
403.24	2273.25
403.45	1931.23
403.66	2095.07
403.87	2072.54
404.07	2052.06
404.28	2117.60
404.49	2011.11
404.70	1959.91
404.90	1832.93
405.11	1894.37
405.32	1853.41
405.52	1828.84
405.73	1767.40
405.94	1806.31
406.15	1818.60
406.35	1791.97
406.56	1890.28
406.77	1732.58
406.98	1755.11
407.18	1791.97
407.39	1920.99
407.60	1828.84
407.80	1884.13
408.01	1783.78
408.22	1877.99
408.43	1800.16
408.63	1853.41
408.84	1873.89
409.05	1855.46
409.25	1712.10
409.46	1890.28
409.67	1763.30
409.88	1802.21
410.08	1798.12
410.29	1761.25
410.50	1939.43
410.70	1841.12
410.91	1787.88
411.12	1808.36
411.32	1877.99
411.53	1767.40
411.74	1972.19
411.95	1880.04
412.15	2009.06
412.36	1978.34
412.57	1898.47
412.77	1949.67
412.98	1877.99
413.19	1843.17
413.39	1900.52
413.60	1906.66
413.81	1933.28
414.01	1787.88
414.22	1955.81
414.43	1910.75
414.63	1849.32
414.84	1845.22
415.05	1800.16
415.25	1781.73
415.46	1781.73
415.67	1730.53
415.87	1804.26
416.08	1841.12
416.29	1808.36
416.49	1765.35
416.70	1767.40
416.91	1886.18
417.11	1808.36
417.32	1912.80
417.53	1812.45
417.73	1824.74
417.94	1869.80
418.15	1853.41
418.35	1871.84
418.56	1781.73
418.77	1992.67
418.97	1855.46
419.18	1843.17
419.38	1693.67
419.59	1812.45
419.80	1882.08
420.00	1744.87
420.21	1810.40
420.42	1880.04
420.62	1943.52
420.83	1791.97
421.04	1857.51
421.24	1812.45
421.45	1908.71
421.65	1855.46
421.86	1753.06
422.07	1794.02
422.27	1814.50
422.48	1800.16
422.69	1755.11
422.89	1865.70
423.10	1832.93
423.30	1736.68
423.51	1882.08
423.72	1849.32
423.92	1875.94
424.13	1812.45
424.33	1841.12
424.54	1896.42
424.75	1847.27
424.95	1920.99
425.16	1875.94
425.36	1771.49
425.57	1890.28
425.78	1863.65
425.98	1851.36
426.19	1775.59
426.39	1708.01
426.60	1869.80
426.81	1861.60
427.01	1890.28
427.22	1708.01
427.42	1763.30
427.63	1699.81
427.83	1898.47
428.04	1900.52
428.25	1947.62
428.45	1886.18
428.66	1849.32
428.86	1765.35
429.07	1775.59
429.28	1824.74
429.48	1847.27
429.69	1810.40
429.89	1902.56
430.10	1775.59
430.30	1873.89
430.51	1847.27
430.71	1794.02
430.92	1781.73
431.13	1822.69
431.33	1841.12
431.54	1884.13
431.74	1984.48
431.95	1996.77
432.15	1787.88
432.36	1857.51
432.56	1875.94
432.77	1939.43
432.98	1861.60
433.18	1875.94
433.39	1814.50
433.59	1837.03
433.80	1863.65
434.00	1980.39
434.21	1751.01
434.41	1783.78
434.62	1994.72
434.82	1695.72
435.03	1738.73
435.23	1824.74
435.44	1673.19
435.64	1800.16
435.85	1798.12
436.06	1871.84
436.26	1826.79
436.47	1847.27
436.67	1814.50
436.88	1826.79
437.08	1904.61
437.29	1863.65
437.49	1865.70
437.70	1880.04
437.90	1839.08
438.11	1990.63
438.31	1845.22
438.52	2047.97
438.72	2011.11
438.93	2095.07
439.13	1933.28
439.34	1941.47
439.54	1904.61
439.75	1951.71
439.95	1939.43
440.16	1824.74
440.36	1830.88
440.57	1855.46
440.77	1849.32
440.98	1837.03
441.18	1839.08
441.39	1855.46
441.59	1718.25
441.80	1920.99
442.00	1798.12
442.21	1947.62
442.41	1814.50
442.62	1933.28
442.82	1775.59
443.02	1851.36
443.23	1849.32
443.43	1877.99
443.64	1927.14
443.84	1759.21
444.05	1910.75
444.25	1851.36
444.46	1816.55
444.66	1785.83
444.87	1859.56
445.07	1783.78
445.28	1791.97
445.48	1937.38
445.69	1804.26
445.89	2017.25
446.09	1882.08
446.30	2109.41
446.50	2553.82
446.71	4085.70
446.91	5142.45
447.12	5877.67
447.32	6369.18
447.53	5724.07
447.73	4569.02
447.93	4130.75
448.14	3737.54
448.34	3610.57
448.55	3334.09
448.75	3270.61
448.96	2996.18
449.16	2818.00
449.36	2541.53
449.57	2211.81
449.77	1980.39
449.98	1931.23
450.18	1871.84
450.39	1978.34
450.59	1898.47
450.79	1873.89
451.00	1808.36
451.20	1826.79
451.41	1837.03
451.61	1761.25
451.81	1839.08
452.02	1857.51
452.22	1820.64
452.43	1806.31
452.63	1800.16
