SpectraSuite Data File
++++++++++++++++++++++++++++++++++++
Date: Wed May 04 21:13:13 CEST 2016
User: root
Dark Spectrum Present: No
Reference Spectrum Present: No
Number of Sampled Component Spectra: 1
Spectrometers: USB4C02835
Integration Time (usec): 100000 (USB4C02835)
Spectra Averaged: 1 (USB4C02835)
Boxcar Smoothing: 0 (USB4C02835)
Correct for Electrical Dark: No (USB4C02835)
Strobe/Lamp Enabled: No (USB4C02835)
Correct for Detector Non-linearity: No (USB4C02835)
Correct for Stray Light: No (USB4C02835)
Number of Pixels in Processed Spectrum: 3648
>>>>>Begin Processed Spectral Data<<<<<
177.47	1497.07
177.69	1497.07
177.91	1497.07
178.13	1542.12
178.36	1546.22
178.58	1761.25
178.80	1796.07
179.02	1710.05
179.24	1726.44
179.46	1777.64
179.68	1849.32
179.90	1832.93
180.13	1785.83
180.35	1808.36
180.57	1826.79
180.79	1822.69
181.01	1746.92
181.23	1832.93
181.45	1894.37
181.67	1861.60
181.90	1798.12
182.12	1759.21
182.34	1775.59
182.56	1904.61
182.78	1816.55
183.00	1814.50
183.22	1812.45
183.44	1804.26
183.66	2025.44
183.89	1877.99
184.11	1847.27
184.33	1849.32
184.55	1908.71
184.77	1820.64
184.99	1857.51
185.21	1736.68
185.43	1982.43
185.65	1814.50
185.87	1830.88
186.10	1910.75
186.32	1935.33
186.54	1832.93
186.76	1898.47
186.98	1906.66
187.20	1806.31
187.42	1830.88
187.64	1761.25
187.86	1812.45
188.08	1898.47
188.30	1736.68
188.52	1771.49
188.75	1873.89
188.97	1869.80
189.19	1777.64
189.41	1808.36
189.63	1861.60
189.85	1773.54
190.07	1730.53
190.29	1773.54
190.51	1837.03
190.73	1804.26
190.95	1882.08
191.17	1818.60
191.39	1716.20
191.61	1828.84
191.84	1791.97
192.06	1826.79
192.28	1675.24
192.50	1943.52
192.72	1851.36
192.94	1796.07
193.16	1884.13
193.38	1736.68
193.60	1736.68
193.82	1771.49
194.04	1857.51
194.26	1857.51
194.48	1849.32
194.70	1808.36
194.92	1837.03
195.14	1820.64
195.36	1693.67
195.58	1800.16
195.80	1837.03
196.02	1748.97
196.24	1761.25
196.46	1796.07
196.69	1816.55
196.91	1910.75
197.13	1757.16
197.35	1740.77
197.57	1908.71
197.79	1820.64
198.01	1834.98
198.23	1912.80
198.45	1869.80
198.67	1753.06
198.89	1794.02
199.11	1906.66
199.33	1814.50
199.55	1662.95
199.77	1802.21
199.99	1894.37
200.21	1767.40
200.43	1859.56
200.65	1714.15
200.87	1724.39
201.09	1800.16
201.31	1746.92
201.53	1902.56
201.75	1916.90
201.97	1767.40
202.19	1837.03
202.41	1787.88
202.63	1931.23
202.85	1794.02
203.07	1787.88
203.29	1816.55
203.51	1740.77
203.73	1751.01
203.95	1996.77
204.17	1916.90
204.39	1916.90
204.61	1820.64
204.83	1853.41
205.05	1798.12
205.27	1826.79
205.49	1927.14
205.71	1908.71
205.93	1728.49
206.15	1740.77
206.37	1816.55
206.59	1783.78
206.81	1687.53
207.03	1705.96
207.25	1820.64
207.47	1847.27
207.69	1755.11
207.91	1832.93
208.13	1880.04
208.34	1802.21
208.56	1732.58
208.78	1837.03
209.00	1769.44
209.22	1775.59
209.44	1761.25
209.66	1708.01
209.88	1865.70
210.10	1775.59
210.32	1730.53
210.54	1837.03
210.76	1716.20
210.98	1839.08
211.20	1714.15
211.42	1828.84
211.64	1855.46
211.86	1865.70
212.08	1857.51
212.30	1841.12
212.52	1787.88
212.74	1779.68
212.96	1832.93
213.17	1877.99
213.39	1927.14
213.61	1845.22
213.83	1804.26
214.05	1877.99
214.27	1931.23
214.49	1699.81
214.71	1751.01
214.93	1871.84
215.15	1857.51
215.37	1816.55
215.59	1761.25
215.81	1863.65
216.03	1873.89
216.24	1804.26
216.46	1830.88
216.68	1806.31
216.90	1853.41
217.12	1914.85
217.34	1816.55
217.56	1832.93
217.78	1904.61
218.00	1900.52
218.22	1781.73
218.44	1847.27
218.66	1810.40
218.87	1974.24
219.09	1751.01
219.31	1802.21
219.53	1820.64
219.75	1757.16
219.97	1751.01
220.19	1816.55
220.41	1794.02
220.63	1880.04
220.85	1767.40
221.06	1810.40
221.28	1832.93
221.50	1791.97
221.72	1896.42
221.94	1759.21
222.16	1800.16
222.38	1849.32
222.60	1861.60
222.82	1798.12
223.03	1787.88
223.25	1732.58
223.47	1853.41
223.69	1867.75
223.91	1873.89
224.13	1822.69
224.35	1699.81
224.57	1910.75
224.78	1939.43
225.00	1777.64
225.22	1775.59
225.44	1818.60
225.66	1873.89
225.88	1767.40
226.10	1861.60
226.32	1865.70
226.53	1800.16
226.75	1744.87
226.97	1791.97
227.19	1824.74
227.41	1802.21
227.63	1783.78
227.85	1689.57
228.06	1769.44
228.28	1832.93
228.50	1834.98
228.72	1787.88
228.94	1828.84
229.16	1718.25
229.37	1738.73
229.59	1789.92
229.81	1853.41
230.03	1814.50
230.25	1732.58
230.47	1761.25
230.69	1802.21
230.90	1845.22
231.12	1839.08
231.34	1812.45
231.56	1920.99
231.78	1785.83
232.00	1783.78
232.21	1812.45
232.43	1787.88
232.65	1650.66
232.87	1841.12
233.09	1744.87
233.30	1847.27
233.52	1791.97
233.74	1826.79
233.96	1800.16
234.18	1763.30
234.40	1736.68
234.61	1931.23
234.83	1781.73
235.05	1724.39
235.27	1980.39
235.49	1968.10
235.70	1863.65
235.92	1894.37
236.14	1783.78
236.36	2013.15
236.58	1761.25
236.79	1800.16
237.01	1789.92
237.23	1800.16
237.45	1910.75
237.67	1771.49
237.88	1865.70
238.10	1877.99
238.32	1689.57
238.54	1773.54
238.76	1746.92
238.97	1761.25
239.19	1826.79
239.41	1923.04
239.63	1929.19
239.85	1761.25
240.06	1814.50
240.28	1744.87
240.50	1808.36
240.72	1847.27
240.93	1832.93
241.15	1959.91
241.37	1775.59
241.59	1863.65
241.81	1783.78
242.02	1798.12
242.24	1875.94
242.46	1865.70
242.68	1744.87
242.89	1841.12
243.11	1873.89
243.33	1744.87
243.55	1806.31
243.76	1861.60
243.98	1810.40
244.20	1718.25
244.42	1783.78
244.64	1837.03
244.85	1812.45
245.07	1757.16
245.29	1877.99
245.51	1853.41
245.72	1918.95
245.94	1916.90
246.16	1771.49
246.38	1892.32
246.59	1748.97
246.81	1791.97
247.03	1869.80
247.24	1730.53
247.46	1800.16
247.68	1826.79
247.90	1746.92
248.11	1804.26
248.33	1886.18
248.55	1734.63
248.77	1710.05
248.98	1888.23
249.20	1972.19
249.42	1787.88
249.64	1890.28
249.85	1708.01
250.07	1785.83
250.29	1880.04
250.50	1804.26
250.72	1789.92
250.94	1824.74
251.16	1920.99
251.37	1867.75
251.59	1787.88
251.81	1910.75
252.02	1912.80
252.24	1794.02
252.46	1845.22
252.68	1837.03
252.89	1824.74
253.11	1728.49
253.33	1908.71
253.54	1890.28
253.76	1808.36
253.98	1773.54
254.20	1859.56
254.41	1732.58
254.63	1855.46
254.85	1716.20
255.06	1763.30
255.28	1740.77
255.50	1751.01
255.71	1865.70
255.93	1726.44
256.15	1810.40
256.36	1791.97
256.58	1798.12
256.80	1910.75
257.02	1814.50
257.23	1777.64
257.45	1884.13
257.67	1824.74
257.88	1773.54
258.10	1910.75
258.32	1824.74
258.53	1861.60
258.75	1916.90
258.97	1705.96
259.18	1773.54
259.40	1777.64
259.62	1837.03
259.83	1968.10
260.05	1804.26
260.27	2031.58
260.48	1918.95
260.70	1712.10
260.92	1775.59
261.13	1791.97
261.35	1849.32
261.57	1853.41
261.78	1710.05
262.00	1759.21
262.22	1863.65
262.43	1814.50
262.65	1828.84
262.86	1812.45
263.08	1923.04
263.30	1818.60
263.51	1744.87
263.73	1740.77
263.95	1914.85
264.16	1708.01
264.38	1730.53
264.60	1820.64
264.81	1865.70
265.03	1834.98
265.25	1869.80
265.46	1824.74
265.68	1927.14
265.89	1877.99
266.11	1736.68
266.33	1847.27
266.54	1806.31
266.76	1820.64
266.98	1855.46
267.19	1945.57
267.41	1882.08
267.62	1751.01
267.84	1755.11
268.06	1937.38
268.27	1820.64
268.49	1834.98
268.70	1910.75
268.92	1769.44
269.14	1734.63
269.35	1720.29
269.57	1804.26
269.79	1796.07
270.00	1818.60
270.22	1982.43
270.43	1767.40
270.65	1683.43
270.87	1800.16
271.08	1859.56
271.30	1779.68
271.51	1869.80
271.73	1847.27
271.95	1896.42
272.16	1746.92
272.38	1853.41
272.59	1732.58
272.81	1839.08
273.02	1865.70
273.24	1880.04
273.46	1853.41
273.67	1691.62
273.89	1728.49
274.10	1730.53
274.32	1912.80
274.54	1763.30
274.75	1869.80
274.97	1791.97
275.18	1796.07
275.40	1806.31
275.61	1814.50
275.83	1855.46
276.05	1791.97
276.26	1763.30
276.48	1824.74
276.69	1798.12
276.91	1726.44
277.12	1871.84
277.34	1859.56
277.55	1824.74
277.77	1816.55
277.99	1757.16
278.20	1791.97
278.42	1775.59
278.63	1730.53
278.85	1843.17
279.06	1748.97
279.28	1802.21
279.49	1824.74
279.71	1818.60
279.93	1757.16
280.14	1759.21
280.36	1791.97
280.57	1841.12
280.79	1904.61
281.00	1771.49
281.22	1753.06
281.43	1820.64
281.65	1703.91
281.86	1806.31
282.08	1800.16
282.29	1931.23
282.51	1738.73
282.73	1789.92
282.94	1681.38
283.16	1865.70
283.37	1873.89
283.59	1763.30
283.80	1857.51
284.02	1869.80
284.23	1787.88
284.45	1791.97
284.66	1746.92
284.88	1751.01
285.09	1855.46
285.31	1845.22
285.52	1902.56
285.74	1763.30
285.95	1886.18
286.17	1853.41
286.38	1882.08
286.60	1810.40
286.81	1722.34
287.03	1802.21
287.24	1748.97
287.46	1771.49
287.67	1751.01
287.89	1972.19
288.10	1849.32
288.32	1828.84
288.53	1918.95
288.75	1779.68
288.96	1912.80
289.18	1791.97
289.39	1783.78
289.61	1855.46
289.82	1923.04
290.04	1978.34
290.25	1746.92
290.47	1853.41
290.68	1779.68
290.90	1867.75
291.11	1667.05
291.33	1828.84
291.54	1794.02
291.76	1751.01
291.97	1816.55
292.18	1882.08
292.40	1705.96
292.61	1812.45
292.83	1908.71
293.04	1877.99
293.26	1837.03
293.47	1789.92
293.69	1779.68
293.90	1826.79
294.12	1892.32
294.33	1757.16
294.55	1828.84
294.76	1794.02
294.97	1970.15
295.19	1929.19
295.40	1767.40
295.62	1978.34
295.83	1834.98
296.05	1748.97
296.26	1834.98
296.48	1796.07
296.69	1849.32
296.90	1804.26
297.12	1849.32
297.33	1843.17
297.55	1781.73
297.76	1826.79
297.98	1812.45
298.19	1800.16
298.41	1832.93
298.62	1794.02
298.83	1931.23
299.05	1822.69
299.26	1763.30
299.48	1722.34
299.69	1908.71
299.90	1777.64
300.12	1769.44
300.33	1871.84
300.55	1832.93
300.76	1880.04
300.98	1726.44
301.19	1937.38
301.40	1787.88
301.62	1857.51
301.83	1814.50
302.05	1853.41
302.26	1810.40
302.47	1894.37
302.69	1744.87
302.90	1892.32
303.12	1724.39
303.33	1890.28
303.54	1912.80
303.76	1742.82
303.97	1779.68
304.19	1908.71
304.40	1767.40
304.61	1851.36
304.83	1882.08
305.04	1871.84
305.26	1843.17
305.47	1855.46
305.68	1773.54
305.90	1732.58
306.11	1794.02
306.33	1816.55
306.54	1796.07
306.75	1757.16
306.97	1800.16
307.18	1798.12
307.39	1853.41
307.61	1875.94
307.82	1769.44
308.04	1837.03
308.25	1841.12
308.46	1865.70
308.68	1812.45
308.89	1773.54
309.10	1869.80
309.32	1761.25
309.53	1798.12
309.74	1744.87
309.96	1861.60
310.17	1896.42
310.39	1742.82
310.60	1845.22
310.81	1806.31
311.03	1791.97
311.24	1904.61
311.45	1824.74
311.67	1939.43
311.88	1806.31
312.09	1802.21
312.31	1777.64
312.52	1771.49
312.73	1816.55
312.95	1837.03
313.16	1722.34
313.37	1896.42
313.59	1888.23
313.80	1806.31
314.01	1824.74
314.23	1785.83
314.44	1714.15
314.65	1761.25
314.87	1779.68
315.08	1759.21
315.29	1726.44
315.51	1822.69
315.72	1675.24
315.93	1935.33
316.15	1832.93
316.36	1834.98
316.57	1800.16
316.79	1812.45
317.00	1765.35
317.21	1753.06
317.43	1744.87
317.64	1777.64
317.85	1767.40
318.07	1814.50
318.28	1816.55
318.49	1978.34
318.70	2047.97
318.92	2033.63
319.13	1896.42
319.34	2045.92
319.56	1972.19
319.77	2000.87
319.98	1972.19
320.20	1961.95
320.41	1863.65
320.62	1871.84
320.83	1804.26
321.05	1939.43
321.26	1855.46
321.47	1787.88
321.69	1861.60
321.90	1775.59
322.11	1826.79
322.32	1888.23
322.54	1918.95
322.75	1787.88
322.96	2000.87
323.18	1734.63
323.39	1744.87
323.60	1736.68
323.81	1849.32
324.03	1699.81
324.24	1787.88
324.45	1908.71
324.66	1796.07
324.88	1855.46
325.09	1937.38
325.30	1824.74
325.52	1841.12
325.73	1863.65
325.94	1722.34
326.15	1757.16
326.37	1777.64
326.58	1822.69
326.79	1937.38
327.00	1671.14
327.22	1777.64
327.43	1734.63
327.64	1744.87
327.85	1732.58
328.07	1861.60
328.28	1959.91
328.49	1738.73
328.70	1816.55
328.92	1849.32
329.13	1837.03
329.34	1859.56
329.55	1935.33
329.76	1857.51
329.98	1785.83
330.19	1855.46
330.40	1863.65
330.61	1779.68
330.83	1816.55
331.04	1771.49
331.25	1843.17
331.46	1791.97
331.68	1789.92
331.89	1871.84
332.10	1794.02
332.31	1732.58
332.52	1871.84
332.74	1851.36
332.95	1720.29
333.16	1802.21
333.37	1855.46
333.58	1710.05
333.80	1800.16
334.01	1705.96
334.22	1818.60
334.43	1800.16
334.64	1781.73
334.86	1722.34
335.07	1710.05
335.28	1914.85
335.49	1765.35
335.70	1857.51
335.92	1953.76
336.13	1990.63
336.34	1877.99
336.55	1742.82
336.76	1900.52
336.98	1667.05
337.19	1834.98
337.40	1955.81
337.61	1916.90
337.82	1810.40
338.04	1812.45
338.25	1787.88
338.46	1834.98
338.67	1785.83
338.88	1751.01
339.09	1767.40
339.31	1785.83
339.52	1757.16
339.73	1746.92
339.94	1769.44
340.15	1892.32
340.36	1765.35
340.58	1779.68
340.79	1705.96
341.00	1845.22
341.21	1783.78
341.42	1920.99
341.63	1728.49
341.85	1923.04
342.06	1779.68
342.27	1767.40
342.48	1845.22
342.69	1818.60
342.90	1867.75
343.12	1861.60
343.33	1849.32
343.54	1800.16
343.75	1869.80
343.96	1791.97
344.17	1718.25
344.38	1798.12
344.60	1781.73
344.81	1716.20
345.02	1832.93
345.23	1867.75
345.44	1947.62
345.65	1935.33
345.86	1779.68
346.07	1800.16
346.29	1763.30
346.50	1841.12
346.71	1816.55
346.92	1912.80
347.13	1988.58
347.34	1849.32
347.55	1769.44
347.76	1785.83
347.98	1720.29
348.19	1765.35
348.40	1828.84
348.61	1738.73
348.82	1863.65
349.03	1882.08
349.24	1710.05
349.45	1998.82
349.66	1722.34
349.88	1859.56
350.09	1767.40
350.30	1880.04
350.51	1890.28
350.72	1847.27
350.93	1834.98
351.14	1767.40
351.35	1894.37
351.56	1857.51
351.77	1863.65
351.99	1904.61
352.20	1853.41
352.41	1806.31
352.62	1755.11
352.83	1812.45
353.04	1804.26
353.25	1847.27
353.46	1853.41
353.67	1910.75
353.88	1748.97
354.09	1814.50
354.30	1818.60
354.52	1857.51
354.73	1826.79
354.94	1716.20
355.15	1830.88
355.36	1900.52
355.57	1802.21
355.78	1816.55
355.99	1775.59
356.20	1888.23
356.41	1841.12
356.62	1824.74
356.83	1779.68
357.04	1925.09
357.25	1730.53
357.46	1732.58
357.68	1693.67
357.89	1804.26
358.10	1796.07
358.31	1857.51
358.52	1716.20
358.73	1716.20
358.94	1671.14
359.15	1724.39
359.36	1859.56
359.57	1755.11
359.78	1771.49
359.99	1804.26
360.20	1720.29
360.41	1832.93
360.62	1863.65
360.83	1818.60
361.04	1820.64
361.25	1820.64
361.46	1910.75
361.67	1808.36
361.88	1804.26
362.09	1898.47
362.30	1789.92
362.51	1810.40
362.72	1867.75
362.93	1904.61
363.14	1882.08
363.35	1789.92
363.56	1755.11
363.78	1890.28
363.99	1884.13
364.20	1724.39
364.41	1789.92
364.62	1955.81
364.83	1849.32
365.04	1761.25
365.25	1873.89
365.46	1927.14
365.67	1765.35
365.88	1806.31
366.09	1822.69
366.30	1724.39
366.51	1830.88
366.72	1683.43
366.93	1761.25
367.14	1791.97
367.35	1857.51
367.56	1779.68
367.77	1882.08
367.98	1767.40
368.18	1808.36
368.39	1828.84
368.60	1738.73
368.81	1904.61
369.02	1775.59
369.23	1769.44
369.44	1681.38
369.65	1761.25
369.86	1834.98
370.07	1859.56
370.28	1773.54
370.49	1818.60
370.70	1953.76
370.91	1730.53
371.12	1691.62
371.33	1933.28
371.54	1763.30
371.75	1843.17
371.96	1689.57
372.17	1814.50
372.38	1828.84
372.59	1841.12
372.80	1908.71
373.01	1796.07
373.22	1804.26
373.43	1820.64
373.64	1753.06
373.85	1974.24
374.06	1925.09
374.26	1841.12
374.47	1834.98
374.68	1859.56
374.89	1873.89
375.10	1847.27
375.31	1890.28
375.52	1851.36
375.73	1843.17
375.94	1736.68
376.15	1933.28
376.36	1738.73
376.57	1740.77
376.78	1810.40
376.99	1871.84
377.20	1900.52
377.40	1812.45
377.61	1914.85
377.82	1730.53
378.03	1931.23
378.24	1773.54
378.45	1777.64
378.66	1892.32
378.87	1724.39
379.08	1681.38
379.29	1765.35
379.50	1886.18
379.71	1847.27
379.91	1822.69
380.12	1800.16
380.33	1828.84
380.54	1914.85
380.75	1769.44
380.96	1779.68
381.17	1849.32
381.38	1943.52
381.59	1822.69
381.80	1865.70
382.00	1951.71
382.21	1877.99
382.42	1896.42
382.63	2000.87
382.84	1861.60
383.05	1918.95
383.26	1912.80
383.47	1898.47
383.68	1802.21
383.88	1929.19
384.09	1847.27
384.30	1904.61
384.51	1888.23
384.72	1765.35
384.93	1757.16
385.14	1867.75
385.35	1902.56
385.55	1734.63
385.76	1912.80
385.97	1818.60
386.18	1767.40
386.39	1812.45
386.60	1791.97
386.81	1818.60
387.02	1787.88
387.22	1845.22
387.43	1943.52
387.64	1898.47
387.85	2023.39
388.06	2129.89
388.27	4216.77
388.48	8908.66
388.68	11894.60
388.89	14018.35
389.10	15134.49
389.31	13215.54
389.52	10454.88
389.73	9281.39
389.93	8460.16
390.14	7587.72
390.35	7120.79
390.56	6148.00
390.77	5244.85
390.98	4046.79
391.18	3102.67
391.39	2441.18
391.60	2082.78
391.81	1947.62
392.02	1873.89
392.23	2019.30
392.43	1787.88
392.64	1857.51
392.85	1796.07
393.06	1988.58
393.27	1828.84
393.47	1812.45
393.68	1871.84
393.89	1828.84
394.10	1935.33
394.31	1785.83
394.52	1767.40
394.72	1763.30
394.93	1910.75
395.14	1734.63
395.35	1857.51
395.56	1753.06
395.76	1847.27
395.97	1843.17
396.18	1988.58
396.39	2019.30
396.60	2197.47
396.80	2099.17
397.01	2009.06
397.22	1951.71
397.43	1990.63
397.64	1810.40
397.84	1920.99
398.05	2086.88
398.26	1916.90
398.47	1931.23
398.67	1910.75
398.88	1849.32
399.09	1873.89
399.30	1794.02
399.51	1845.22
399.71	1755.11
399.92	1849.32
400.13	1863.65
400.34	1837.03
400.54	1787.88
400.75	1943.52
400.96	1816.55
401.17	1916.90
401.37	1853.41
401.58	1796.07
401.79	1816.55
402.00	1964.00
402.21	2127.84
402.41	2189.28
402.62	2213.85
402.83	2299.87
403.04	2250.72
403.24	2232.29
403.45	1988.58
403.66	2140.13
403.87	2076.64
404.07	2123.74
404.28	2066.40
404.49	2080.74
404.70	1857.51
404.90	1927.14
405.11	1824.74
405.32	1947.62
405.52	1794.02
405.73	1818.60
405.94	1794.02
406.15	1853.41
406.35	1851.36
406.56	1896.42
406.77	1843.17
406.98	1828.84
407.18	1812.45
407.39	1869.80
407.60	1755.11
407.80	1869.80
408.01	1802.21
408.22	1867.75
408.43	1689.57
408.63	1933.28
408.84	1828.84
409.05	1875.94
409.25	1755.11
409.46	1796.07
409.67	1769.44
409.88	1791.97
410.08	1849.32
410.29	1814.50
410.50	1849.32
410.70	1857.51
410.91	1718.25
411.12	1892.32
411.32	1796.07
411.53	1857.51
411.74	1964.00
411.95	1964.00
412.15	1923.04
412.36	1918.95
412.57	1892.32
412.77	1923.04
412.98	1841.12
413.19	1861.60
413.39	1855.46
413.60	1880.04
413.81	1918.95
414.01	1794.02
414.22	1859.56
414.43	1841.12
414.63	1857.51
414.84	1861.60
415.05	1808.36
415.25	1730.53
415.46	1802.21
415.67	1751.01
415.87	1824.74
416.08	1882.08
416.29	1818.60
416.49	1918.95
416.70	1804.26
416.91	1867.75
417.11	1755.11
417.32	1828.84
417.53	1937.38
417.73	1789.92
417.94	1841.12
418.15	1824.74
418.35	1857.51
418.56	1755.11
418.77	1974.24
418.97	1800.16
419.18	1800.16
419.38	1660.90
419.59	1818.60
419.80	1908.71
420.00	1761.25
420.21	1877.99
420.42	1865.70
420.62	1796.07
420.83	1773.54
421.04	1822.69
421.24	1800.16
421.45	1789.92
421.65	1906.66
421.86	1771.49
422.07	1841.12
422.27	1888.23
422.48	1920.99
422.69	1820.64
422.89	1804.26
423.10	1830.88
423.30	1716.20
423.51	1798.12
423.72	1693.67
423.92	1855.46
424.13	1669.09
424.33	1863.65
424.54	1847.27
424.75	1757.16
424.95	1853.41
425.16	1871.84
425.36	1730.53
425.57	1861.60
425.78	1753.06
425.98	1837.03
426.19	1808.36
426.39	1777.64
426.60	1861.60
426.81	1933.28
427.01	1906.66
427.22	1798.12
427.42	1695.72
427.63	1746.92
427.83	1861.60
428.04	1982.43
428.25	1898.47
428.45	1927.14
428.66	1902.56
428.86	1800.16
429.07	1794.02
429.28	1812.45
429.48	1779.68
429.69	1806.31
429.89	1890.28
430.10	1714.15
430.30	1861.60
430.51	1888.23
430.71	1810.40
430.92	1845.22
431.13	1769.44
431.33	1896.42
431.54	1816.55
431.74	1918.95
431.95	1978.34
432.15	1679.33
432.36	1871.84
432.56	1828.84
432.77	1939.43
432.98	1945.57
433.18	1791.97
433.39	1828.84
433.59	1767.40
433.80	1910.75
434.00	2043.87
434.21	1843.17
434.41	1781.73
434.62	1896.42
434.82	1683.43
435.03	1800.16
435.23	1832.93
435.44	1697.77
435.64	1880.04
435.85	1857.51
436.06	1941.47
436.26	1890.28
436.47	1818.60
436.67	1685.48
436.88	1820.64
437.08	1873.89
437.29	1898.47
437.49	1822.69
437.70	1935.33
437.90	1828.84
438.11	1920.99
438.31	1918.95
438.52	1986.53
438.72	2068.45
438.93	2093.02
439.13	1894.37
439.34	1929.19
439.54	1986.53
439.75	1959.91
439.95	1970.15
440.16	1769.44
440.36	1861.60
440.57	1822.69
440.77	1923.04
440.98	1837.03
441.18	1826.79
441.39	1828.84
441.59	1812.45
441.80	1951.71
442.00	1884.13
442.21	1984.48
442.41	1755.11
442.62	1884.13
442.82	1759.21
443.02	1738.73
443.23	1837.03
443.43	1843.17
443.64	1978.34
443.84	1810.40
444.05	1871.84
444.25	1886.18
444.46	1796.07
444.66	1812.45
444.87	1935.33
445.07	1796.07
445.28	1853.41
445.48	1890.28
445.69	1810.40
445.89	1961.95
446.09	1814.50
446.30	2023.39
446.50	2693.08
446.71	4167.62
446.91	5154.74
447.12	6084.52
447.32	6287.26
447.53	5726.12
447.73	4794.29
447.93	4310.97
448.14	3844.04
448.34	3581.90
448.55	3297.23
448.75	3286.99
448.96	3051.47
449.16	2736.09
449.36	2541.53
449.57	2166.75
449.77	2017.25
449.98	1925.09
450.18	1906.66
450.39	1837.03
450.59	1871.84
450.79	1851.36
451.00	1820.64
451.20	1820.64
451.41	1843.17
451.61	1867.75
451.81	1871.84
452.02	1818.60
452.22	1857.51
452.43	1814.50
452.63	1742.82
