SpectraSuite Data File
++++++++++++++++++++++++++++++++++++
Date: Wed May 04 21:13:12 CEST 2016
User: root
Dark Spectrum Present: No
Reference Spectrum Present: No
Number of Sampled Component Spectra: 1
Spectrometers: USB4C02835
Integration Time (usec): 100000 (USB4C02835)
Spectra Averaged: 1 (USB4C02835)
Boxcar Smoothing: 0 (USB4C02835)
Correct for Electrical Dark: No (USB4C02835)
Strobe/Lamp Enabled: No (USB4C02835)
Correct for Detector Non-linearity: No (USB4C02835)
Correct for Stray Light: No (USB4C02835)
Number of Pixels in Processed Spectrum: 3648
>>>>>Begin Processed Spectral Data<<<<<
177.47	1568.74
177.69	1568.74
177.91	1568.74
178.13	1570.79
178.36	1499.11
178.58	1751.01
178.80	1900.52
179.02	1685.48
179.24	1759.21
179.46	1779.68
179.68	1839.08
179.90	1859.56
180.13	1845.22
180.35	1781.73
180.57	1822.69
180.79	1869.80
181.01	1814.50
181.23	1839.08
181.45	1923.04
181.67	1892.32
181.90	1875.94
182.12	1779.68
182.34	1697.77
182.56	1820.64
182.78	1828.84
183.00	1806.31
183.22	1832.93
183.44	1718.25
183.66	2045.92
183.89	1933.28
184.11	1812.45
184.33	1865.70
184.55	1818.60
184.77	1816.55
184.99	1767.40
185.21	1773.54
185.43	1920.99
185.65	1763.30
185.87	1806.31
186.10	2000.87
186.32	1953.76
186.54	1742.82
186.76	1808.36
186.98	1859.56
187.20	1812.45
187.42	1714.15
187.64	1820.64
187.86	1861.60
188.08	1871.84
188.30	1814.50
188.52	1824.74
188.75	1859.56
188.97	1916.90
189.19	1693.67
189.41	1804.26
189.63	1839.08
189.85	1779.68
190.07	1665.00
190.29	1794.02
190.51	1703.91
190.73	1710.05
190.95	1931.23
191.17	1808.36
191.39	1728.49
191.61	1849.32
191.84	1773.54
192.06	1886.18
192.28	1710.05
192.50	2093.02
192.72	1767.40
192.94	1767.40
193.16	1880.04
193.38	1837.03
193.60	1730.53
193.82	1710.05
194.04	1920.99
194.26	1849.32
194.48	1796.07
194.70	1757.16
194.92	1775.59
195.14	1869.80
195.36	1822.69
195.58	1728.49
195.80	1767.40
196.02	1769.44
196.24	1892.32
196.46	1800.16
196.69	1787.88
196.91	2080.74
197.13	1839.08
197.35	1779.68
197.57	1929.19
197.79	1816.55
198.01	1828.84
198.23	1839.08
198.45	1873.89
198.67	1724.39
198.89	1808.36
199.11	1830.88
199.33	1677.29
199.55	1728.49
199.77	1724.39
199.99	1892.32
200.21	1794.02
200.43	1816.55
200.65	1722.34
200.87	1665.00
201.09	1767.40
201.31	1814.50
201.53	1798.12
201.75	1812.45
201.97	1818.60
202.19	1859.56
202.41	1886.18
202.63	1968.10
202.85	1873.89
203.07	1755.11
203.29	1742.82
203.51	1763.30
203.73	1763.30
203.95	1910.75
204.17	1853.41
204.39	1804.26
204.61	1757.16
204.83	1773.54
205.05	1812.45
205.27	1908.71
205.49	1953.76
205.71	1746.92
205.93	1703.91
206.15	1845.22
206.37	1902.56
206.59	1816.55
206.81	1742.82
207.03	1742.82
207.25	1757.16
207.47	1857.51
207.69	1722.34
207.91	1888.23
208.13	1912.80
208.34	1798.12
208.56	1710.05
208.78	1794.02
209.00	1816.55
209.22	1834.98
209.44	1855.46
209.66	1785.83
209.88	1845.22
210.10	1818.60
210.32	1814.50
210.54	1900.52
210.76	1871.84
210.98	1822.69
211.20	1701.86
211.42	1820.64
211.64	1904.61
211.86	1789.92
212.08	1830.88
212.30	1763.30
212.52	1800.16
212.74	1845.22
212.96	1828.84
213.17	1875.94
213.39	1816.55
213.61	1951.71
213.83	1777.64
214.05	1841.12
214.27	1871.84
214.49	1796.07
214.71	1714.15
214.93	1961.95
215.15	1867.75
215.37	1847.27
215.59	1724.39
215.81	1765.35
216.03	1896.42
216.24	1824.74
216.46	1816.55
216.68	1794.02
216.90	1923.04
217.12	1871.84
217.34	1820.64
217.56	1861.60
217.78	1886.18
218.00	1853.41
218.22	1753.06
218.44	1802.21
218.66	1843.17
218.87	1951.71
219.09	1730.53
219.31	1826.79
219.53	1839.08
219.75	1781.73
219.97	1814.50
220.19	1861.60
220.41	1824.74
220.63	1904.61
220.85	1853.41
221.06	1785.83
221.28	1882.08
221.50	1834.98
221.72	1740.77
221.94	1783.78
222.16	1804.26
222.38	1896.42
222.60	1787.88
222.82	1781.73
223.03	1898.47
223.25	1740.77
223.47	1820.64
223.69	1910.75
223.91	1861.60
224.13	1830.88
224.35	1681.38
224.57	1869.80
224.78	1853.41
225.00	1705.96
225.22	1818.60
225.44	1824.74
225.66	1796.07
225.88	1771.49
226.10	1863.65
226.32	1873.89
226.53	1941.47
226.75	1814.50
226.97	1787.88
227.19	1861.60
227.41	1781.73
227.63	1824.74
227.85	1742.82
228.06	1828.84
228.28	1828.84
228.50	1869.80
228.72	1779.68
228.94	1775.59
229.16	1675.24
229.37	1718.25
229.59	1720.29
229.81	1933.28
230.03	1773.54
230.25	1755.11
230.47	1712.10
230.69	1703.91
230.90	1890.28
231.12	1720.29
231.34	1746.92
231.56	1888.23
231.78	1718.25
232.00	1798.12
232.21	1759.21
232.43	1736.68
232.65	1755.11
232.87	1843.17
233.09	1775.59
233.30	1705.96
233.52	1839.08
233.74	1732.58
233.96	1834.98
234.18	1791.97
234.40	1808.36
234.61	1959.91
234.83	1722.34
235.05	1671.14
235.27	1931.23
235.49	1884.13
235.70	1828.84
235.92	1890.28
236.14	1849.32
236.36	1966.05
236.58	1679.33
236.79	1853.41
237.01	1714.15
237.23	1845.22
237.45	1943.52
237.67	1759.21
237.88	1861.60
238.10	1988.58
238.32	1806.31
238.54	1834.98
238.76	1755.11
238.97	1769.44
239.19	1794.02
239.41	1769.44
239.63	1892.32
239.85	1820.64
240.06	1837.03
240.28	1828.84
240.50	1877.99
240.72	1724.39
240.93	1777.64
241.15	1861.60
241.37	1789.92
241.59	1896.42
241.81	1722.34
242.02	1773.54
242.24	1775.59
242.46	1748.97
242.68	1771.49
242.89	1841.12
243.11	1912.80
243.33	1871.84
243.55	1826.79
243.76	1837.03
243.98	1851.36
244.20	1806.31
244.42	1882.08
244.64	1798.12
244.85	1677.29
245.07	1730.53
245.29	1798.12
245.51	1839.08
245.72	1816.55
245.94	1841.12
246.16	1814.50
246.38	1849.32
246.59	1736.68
246.81	1763.30
247.03	1814.50
247.24	1771.49
247.46	1775.59
247.68	1816.55
247.90	1791.97
248.11	1695.72
248.33	1853.41
248.55	1886.18
248.77	1806.31
248.98	1912.80
249.20	1908.71
249.42	1775.59
249.64	1767.40
249.85	1822.69
250.07	1695.72
250.29	1843.17
250.50	1806.31
250.72	1742.82
250.94	1834.98
251.16	2025.44
251.37	1949.67
251.59	1888.23
251.81	1851.36
252.02	1890.28
252.24	1753.06
252.46	1914.85
252.68	1742.82
252.89	1837.03
253.11	1699.81
253.33	1908.71
253.54	1853.41
253.76	1699.81
253.98	1732.58
254.20	1785.83
254.41	1693.67
254.63	1863.65
254.85	1683.43
255.06	1826.79
255.28	1830.88
255.50	1822.69
255.71	1740.77
255.93	1673.19
256.15	1765.35
256.36	1837.03
256.58	1783.78
256.80	1880.04
257.02	1759.21
257.23	1771.49
257.45	1787.88
257.67	1902.56
257.88	1763.30
258.10	1796.07
258.32	1857.51
258.53	1875.94
258.75	1820.64
258.97	1798.12
259.18	1718.25
259.40	1798.12
259.62	1943.52
259.83	1898.47
260.05	1771.49
260.27	2064.35
260.48	1875.94
260.70	1722.34
260.92	1761.25
261.13	1820.64
261.35	1787.88
261.57	1859.56
261.78	1785.83
262.00	1781.73
262.22	1828.84
262.43	1736.68
262.65	1771.49
262.86	1884.13
263.08	1957.86
263.30	1794.02
263.51	1730.53
263.73	1781.73
263.95	1916.90
264.16	1751.01
264.38	1697.77
264.60	1769.44
264.81	1859.56
265.03	1859.56
265.25	1898.47
265.46	1806.31
265.68	1910.75
265.89	1861.60
266.11	1701.86
266.33	1828.84
266.54	1851.36
266.76	1886.18
266.98	1834.98
267.19	1916.90
267.41	1839.08
267.62	1783.78
267.84	1677.29
268.06	1794.02
268.27	1781.73
268.49	1787.88
268.70	1865.70
268.92	1763.30
269.14	1796.07
269.35	1726.44
269.57	1808.36
269.79	1759.21
270.00	1849.32
270.22	1902.56
270.43	1779.68
270.65	1595.37
270.87	1802.21
271.08	1904.61
271.30	1912.80
271.51	1779.68
271.73	1828.84
271.95	1849.32
272.16	1773.54
272.38	1933.28
272.59	1796.07
272.81	1796.07
273.02	1857.51
273.24	1820.64
273.46	1890.28
273.67	1693.67
273.89	1742.82
274.10	1777.64
274.32	1898.47
274.54	1894.37
274.75	1849.32
274.97	1728.49
275.18	1875.94
275.40	1820.64
275.61	1781.73
275.83	1908.71
276.05	1759.21
276.26	1810.40
276.48	1832.93
276.69	1738.73
276.91	1802.21
277.12	1861.60
277.34	1832.93
277.55	1892.32
277.77	1769.44
277.99	1726.44
278.20	1834.98
278.42	1718.25
278.63	1757.16
278.85	1783.78
279.06	1695.72
279.28	1783.78
279.49	1906.66
279.71	1869.80
279.93	1814.50
280.14	1722.34
280.36	1734.63
280.57	1855.46
280.79	1845.22
281.00	1728.49
281.22	1744.87
281.43	1906.66
281.65	1685.48
281.86	1748.97
282.08	1779.68
282.29	1998.82
282.51	1724.39
282.73	1777.64
282.94	1730.53
283.16	1904.61
283.37	1880.04
283.59	1841.12
283.80	1812.45
284.02	1853.41
284.23	1824.74
284.45	1798.12
284.66	1738.73
284.88	1742.82
285.09	1824.74
285.31	1822.69
285.52	1787.88
285.74	1685.48
285.95	1824.74
286.17	1865.70
286.38	1933.28
286.60	1767.40
286.81	1687.53
287.03	1828.84
287.24	1734.63
287.46	1968.10
287.67	1798.12
287.89	1900.52
288.10	1894.37
288.32	1740.77
288.53	1875.94
288.75	1896.42
288.96	1867.75
289.18	1798.12
289.39	1693.67
289.61	1923.04
289.82	1906.66
290.04	1968.10
290.25	1718.25
290.47	1761.25
290.68	1781.73
290.90	1771.49
291.11	1751.01
291.33	1877.99
291.54	1755.11
291.76	1759.21
291.97	1818.60
292.18	1804.26
292.40	1683.43
292.61	1857.51
292.83	2011.11
293.04	1779.68
293.26	1816.55
293.47	1814.50
293.69	1751.01
293.90	1822.69
294.12	1923.04
294.33	1728.49
294.55	1806.31
294.76	1839.08
294.97	1888.23
295.19	1886.18
295.40	1812.45
295.62	1806.31
295.83	1853.41
296.05	1812.45
296.26	1873.89
296.48	1736.68
296.69	1771.49
296.90	1826.79
297.12	1873.89
297.33	1834.98
297.55	1828.84
297.76	1853.41
297.98	1822.69
298.19	1892.32
298.41	1744.87
298.62	1746.92
298.83	1845.22
299.05	1812.45
299.26	1787.88
299.48	1787.88
299.69	1832.93
299.90	1812.45
300.12	1755.11
300.33	1908.71
300.55	1791.97
300.76	1798.12
300.98	1798.12
301.19	1916.90
301.40	1843.17
301.62	1863.65
301.83	1845.22
302.05	1918.95
302.26	1828.84
302.47	1886.18
302.69	1796.07
302.90	1806.31
303.12	1679.33
303.33	1900.52
303.54	1957.86
303.76	1783.78
303.97	1849.32
304.19	1877.99
304.40	1716.20
304.61	1857.51
304.83	1933.28
305.04	1951.71
305.26	1886.18
305.47	1789.92
305.68	1839.08
305.90	1636.33
306.11	1869.80
306.33	1773.54
306.54	1738.73
306.75	1732.58
306.97	1818.60
307.18	1785.83
307.39	1775.59
307.61	1875.94
307.82	1773.54
308.04	1880.04
308.25	1714.15
308.46	1843.17
308.68	1843.17
308.89	1783.78
309.10	1867.75
309.32	1775.59
309.53	1781.73
309.74	1853.41
309.96	1830.88
310.17	1951.71
310.39	1777.64
310.60	1875.94
310.81	1787.88
311.03	1746.92
311.24	1851.36
311.45	1783.78
311.67	1888.23
311.88	1806.31
312.09	1802.21
312.31	1822.69
312.52	1820.64
312.73	1802.21
312.95	1712.10
313.16	1781.73
313.37	1892.32
313.59	1824.74
313.80	1888.23
314.01	1896.42
314.23	1816.55
314.44	1746.92
314.65	1834.98
314.87	1763.30
315.08	1751.01
315.29	1720.29
315.51	1699.81
315.72	1767.40
315.93	1906.66
316.15	1882.08
316.36	1812.45
316.57	1812.45
316.79	1796.07
317.00	1822.69
317.21	1767.40
317.43	1822.69
317.64	1740.77
317.85	1726.44
318.07	1740.77
318.28	1824.74
318.49	1984.48
318.70	2041.82
318.92	2039.78
319.13	2062.30
319.34	2070.50
319.56	1927.14
319.77	1925.09
319.98	1959.91
320.20	1931.23
320.41	1943.52
320.62	1892.32
320.83	1751.01
321.05	1959.91
321.26	1841.12
321.47	1767.40
321.69	1929.19
321.90	1763.30
322.11	1802.21
322.32	1826.79
322.54	1855.46
322.75	1814.50
322.96	1966.05
323.18	1730.53
323.39	1687.53
323.60	1814.50
323.81	1834.98
324.03	1808.36
324.24	1841.12
324.45	1755.11
324.66	1773.54
324.88	1884.13
325.09	1961.95
325.30	1773.54
325.52	1812.45
325.73	1771.49
325.94	1718.25
326.15	1753.06
326.37	1816.55
326.58	1824.74
326.79	1865.70
327.00	1742.82
327.22	1794.02
327.43	1804.26
327.64	1804.26
327.85	1896.42
328.07	1724.39
328.28	1920.99
328.49	1845.22
328.70	1882.08
328.92	1783.78
329.13	1751.01
329.34	1859.56
329.55	1902.56
329.76	1882.08
329.98	1892.32
330.19	1865.70
330.40	1886.18
330.61	1794.02
330.83	1851.36
331.04	1755.11
331.25	1849.32
331.46	1734.63
331.68	1751.01
331.89	1804.26
332.10	1779.68
332.31	1705.96
332.52	1791.97
332.74	1910.75
332.95	1634.28
333.16	1808.36
333.37	1861.60
333.58	1845.22
333.80	1751.01
334.01	1783.78
334.22	1775.59
334.43	1832.93
334.64	1853.41
334.86	1728.49
335.07	1718.25
335.28	1912.80
335.49	1726.44
335.70	1900.52
335.92	1830.88
336.13	2013.15
336.34	1867.75
336.55	1871.84
336.76	1753.06
336.98	1751.01
337.19	1828.84
337.40	1855.46
337.61	1964.00
337.82	1751.01
338.04	1894.37
338.25	1691.62
338.46	1855.46
338.67	1800.16
338.88	1761.25
339.09	1726.44
339.31	1669.09
339.52	1775.59
339.73	1728.49
339.94	1812.45
340.15	1855.46
340.36	1828.84
340.58	1832.93
340.79	1738.73
341.00	1910.75
341.21	1734.63
341.42	1855.46
341.63	1804.26
341.85	1832.93
342.06	1824.74
342.27	1726.44
342.48	1884.13
342.69	1730.53
342.90	1814.50
343.12	1857.51
343.33	1765.35
343.54	1873.89
343.75	1961.95
343.96	1755.11
344.17	1779.68
344.38	1824.74
344.60	1714.15
344.81	1837.03
345.02	1839.08
345.23	1894.37
345.44	1947.62
345.65	1839.08
345.86	1830.88
346.07	1800.16
346.29	1802.21
346.50	1839.08
346.71	1832.93
346.92	1945.57
347.13	1929.19
347.34	1773.54
347.55	1755.11
347.76	1839.08
347.98	1744.87
348.19	1814.50
348.40	1896.42
348.61	1740.77
348.82	1951.71
349.03	1859.56
349.24	1834.98
349.45	1886.18
349.66	1753.06
349.88	1832.93
350.09	1789.92
350.30	1898.47
350.51	1937.38
350.72	1882.08
350.93	1871.84
351.14	1791.97
351.35	1867.75
351.56	1857.51
351.77	1771.49
351.99	1832.93
352.20	1941.47
352.41	1834.98
352.62	1738.73
352.83	1882.08
353.04	1763.30
353.25	1771.49
353.46	1816.55
353.67	1892.32
353.88	1708.01
354.09	1820.64
354.30	1810.40
354.52	1845.22
354.73	1769.44
354.94	1865.70
355.15	1867.75
355.36	1898.47
355.57	1726.44
355.78	1800.16
355.99	1781.73
356.20	1794.02
356.41	1820.64
356.62	1779.68
356.83	1814.50
357.04	1857.51
357.25	1689.57
357.46	1796.07
357.68	1722.34
357.89	1718.25
358.10	1773.54
358.31	1775.59
358.52	1748.97
358.73	1773.54
358.94	1748.97
359.15	1771.49
359.36	1867.75
359.57	1804.26
359.78	1832.93
359.99	1808.36
360.20	1746.92
360.41	1724.39
360.62	1789.92
360.83	1841.12
361.04	1845.22
361.25	1804.26
361.46	1914.85
361.67	1832.93
361.88	1880.04
362.09	1900.52
362.30	1843.17
362.51	1746.92
362.72	1865.70
362.93	1845.22
363.14	1775.59
363.35	1900.52
363.56	1763.30
363.78	1929.19
363.99	1853.41
364.20	1763.30
364.41	1920.99
364.62	1978.34
364.83	1847.27
365.04	1806.31
365.25	1847.27
365.46	1996.77
365.67	1861.60
365.88	1740.77
366.09	1779.68
366.30	1724.39
366.51	1861.60
366.72	1748.97
366.93	1828.84
367.14	1757.16
367.35	1884.13
367.56	1830.88
367.77	1841.12
367.98	1757.16
368.18	1806.31
368.39	1802.21
368.60	1763.30
368.81	1845.22
369.02	1847.27
369.23	1853.41
369.44	1681.38
369.65	1714.15
369.86	1861.60
370.07	1867.75
370.28	1740.77
370.49	1857.51
370.70	1877.99
370.91	1744.87
371.12	1771.49
371.33	1865.70
371.54	1748.97
371.75	1839.08
371.96	1718.25
372.17	1904.61
372.38	1794.02
372.59	1791.97
372.80	1794.02
373.01	1751.01
373.22	1791.97
373.43	1857.51
373.64	1718.25
373.85	1880.04
374.06	2017.25
374.26	1853.41
374.47	1828.84
374.68	1880.04
374.89	1843.17
375.10	1828.84
375.31	1802.21
375.52	1816.55
375.73	1777.64
375.94	1785.83
376.15	1812.45
376.36	1751.01
376.57	1771.49
376.78	1814.50
376.99	1794.02
377.20	1863.65
377.40	1834.98
377.61	1923.04
377.82	1769.44
378.03	1861.60
378.24	1843.17
378.45	1875.94
378.66	1845.22
378.87	1648.61
379.08	1763.30
379.29	1767.40
379.50	1910.75
379.71	1755.11
379.91	1839.08
380.12	1781.73
380.33	1873.89
380.54	1888.23
380.75	1812.45
380.96	1845.22
381.17	1933.28
381.38	1783.78
381.59	1812.45
381.80	1810.40
382.00	1951.71
382.21	1884.13
382.42	2033.63
382.63	1931.23
382.84	1906.66
383.05	1964.00
383.26	1949.67
383.47	1841.12
383.68	1912.80
383.88	1800.16
384.09	1775.59
384.30	1925.09
384.51	1826.79
384.72	1832.93
384.93	1742.82
385.14	1779.68
385.35	1824.74
385.55	1699.81
385.76	1826.79
385.97	1818.60
386.18	1710.05
386.39	1740.77
386.60	1798.12
386.81	1900.52
387.02	1847.27
387.22	1820.64
387.43	1894.37
387.64	1978.34
387.85	1968.10
388.06	2191.33
388.27	4253.63
388.48	8832.89
388.68	12040.01
388.89	13815.60
389.10	14935.84
389.31	13127.48
389.52	10397.54
389.73	9133.94
389.93	8312.71
390.14	7548.81
390.35	6813.59
390.56	6211.49
390.77	5162.93
390.98	3852.23
391.18	3131.34
391.39	2519.00
391.60	1974.24
391.81	1996.77
392.02	1798.12
392.23	1982.43
392.43	1847.27
392.64	1865.70
392.85	1802.21
393.06	1888.23
393.27	1875.94
393.47	1802.21
393.68	1837.03
393.89	1808.36
394.10	1867.75
394.31	1845.22
394.52	1773.54
394.72	1730.53
394.93	1931.23
395.14	1794.02
395.35	1906.66
395.56	1822.69
395.76	1857.51
395.97	1998.82
396.18	1982.43
396.39	1996.77
396.60	2189.28
396.80	2095.07
397.01	2013.15
397.22	2039.78
397.43	1974.24
397.64	1873.89
397.84	1933.28
398.05	2004.96
398.26	1906.66
398.47	1947.62
398.67	1918.95
398.88	1746.92
399.09	1851.36
399.30	1865.70
399.51	1902.56
399.71	1800.16
399.92	1869.80
400.13	1902.56
400.34	1875.94
400.54	1832.93
400.75	2009.06
400.96	1880.04
401.17	1972.19
401.37	1832.93
401.58	1851.36
401.79	1865.70
402.00	1994.72
402.21	2197.47
402.41	2183.13
402.62	2248.67
402.83	2340.83
403.04	2258.91
403.24	2267.10
403.45	2015.20
403.66	2074.59
403.87	2076.64
404.07	2099.17
404.28	2107.36
404.49	2007.01
404.70	1931.23
404.90	1855.46
405.11	1933.28
405.32	1851.36
405.52	1794.02
405.73	1816.55
405.94	1769.44
406.15	1851.36
406.35	1859.56
406.56	1802.21
406.77	1927.14
406.98	1832.93
407.18	1746.92
407.39	1906.66
407.60	1724.39
407.80	1816.55
408.01	1779.68
408.22	1808.36
408.43	1722.34
408.63	1892.32
408.84	1923.04
409.05	1894.37
409.25	1781.73
409.46	1759.21
409.67	1755.11
409.88	1861.60
410.08	1761.25
410.29	1781.73
410.50	1843.17
410.70	1873.89
410.91	1683.43
411.12	1796.07
411.32	1859.56
411.53	1779.68
411.74	2043.87
411.95	1902.56
412.15	1931.23
412.36	1933.28
412.57	2050.02
412.77	1984.48
412.98	1853.41
413.19	1882.08
413.39	1845.22
413.60	1890.28
413.81	1939.43
414.01	1789.92
414.22	1834.98
414.43	1877.99
414.63	1765.35
414.84	1847.27
415.05	1738.73
415.25	1755.11
415.46	1908.71
415.67	1757.16
415.87	1869.80
416.08	1794.02
416.29	1857.51
416.49	1863.65
416.70	1859.56
416.91	1796.07
417.11	1767.40
417.32	1906.66
417.53	1896.42
417.73	1884.13
417.94	1871.84
418.15	1753.06
418.35	1769.44
418.56	1900.52
418.77	1984.48
418.97	1875.94
419.18	1820.64
419.38	1695.72
419.59	1837.03
419.80	1875.94
420.00	1746.92
420.21	1810.40
420.42	1937.38
420.62	1796.07
420.83	1742.82
421.04	1781.73
421.24	1796.07
421.45	1890.28
421.65	1914.85
421.86	1845.22
422.07	1869.80
422.27	1863.65
422.48	1892.32
422.69	1736.68
422.89	1875.94
423.10	1765.35
423.30	1810.40
423.51	1830.88
423.72	1785.83
423.92	1855.46
424.13	1757.16
424.33	1812.45
424.54	1918.95
424.75	1830.88
424.95	1920.99
425.16	1914.85
425.36	1722.34
425.57	1865.70
425.78	1822.69
425.98	1845.22
426.19	1837.03
426.39	1820.64
426.60	1851.36
426.81	1918.95
427.01	1826.79
427.22	1785.83
427.42	1751.01
427.63	1722.34
427.83	1869.80
428.04	1916.90
428.25	1834.98
428.45	1920.99
428.66	1880.04
428.86	1824.74
429.07	1804.26
429.28	1837.03
429.48	1816.55
429.69	1820.64
429.89	1884.13
430.10	1701.86
430.30	1822.69
430.51	1841.12
430.71	1730.53
430.92	1884.13
431.13	1812.45
431.33	1828.84
431.54	1767.40
431.74	1953.76
431.95	1976.29
432.15	1779.68
432.36	1841.12
432.56	1894.37
432.77	1980.39
432.98	1990.63
433.18	1900.52
433.39	1755.11
433.59	1740.77
433.80	1941.47
434.00	1943.52
434.21	1771.49
434.41	1802.21
434.62	1943.52
434.82	1722.34
435.03	1736.68
435.23	1816.55
435.44	1689.57
435.64	1849.32
435.85	1832.93
436.06	1892.32
436.26	1884.13
436.47	1818.60
436.67	1744.87
436.88	1826.79
437.08	1802.21
437.29	2029.54
437.49	1871.84
437.70	1916.90
437.90	1845.22
438.11	2002.91
438.31	1834.98
438.52	1974.24
438.72	2002.91
438.93	2076.64
439.13	1929.19
439.34	1945.57
439.54	1933.28
439.75	1959.91
439.95	1935.33
440.16	1824.74
440.36	1939.43
440.57	1853.41
440.77	1896.42
440.98	1839.08
441.18	1910.75
441.39	1708.01
441.59	1757.16
441.80	1968.10
442.00	1830.88
442.21	1923.04
442.41	1787.88
442.62	1843.17
442.82	1822.69
443.02	1871.84
443.23	1832.93
443.43	1837.03
443.64	1886.18
443.84	1769.44
444.05	1990.63
444.25	1914.85
444.46	1796.07
444.66	1886.18
444.87	1916.90
445.07	1746.92
445.28	1798.12
445.48	1925.09
445.69	1892.32
445.89	1970.15
446.09	1869.80
446.30	2080.74
446.50	2592.73
446.71	4067.27
446.91	5263.28
447.12	5867.43
447.32	6225.82
447.53	5683.11
447.73	4718.52
447.93	4186.05
448.14	3934.15
448.34	3653.58
448.55	3340.24
448.75	3114.96
448.96	2996.18
449.16	2791.38
449.36	2602.97
449.57	2222.05
449.77	1943.52
449.98	1910.75
450.18	1988.58
450.39	1941.47
450.59	1957.86
450.79	1841.12
451.00	1845.22
451.20	1910.75
451.41	1828.84
451.61	1894.37
451.81	1890.28
452.02	1800.16
452.22	1724.39
452.43	1841.12
452.63	1828.84
