SpectraSuite Data File
++++++++++++++++++++++++++++++++++++
Date: Wed May 04 21:13:47 CEST 2016
User: root
Dark Spectrum Present: No
Reference Spectrum Present: No
Number of Sampled Component Spectra: 1
Spectrometers: USB4C02835
Integration Time (usec): 100000 (USB4C02835)
Spectra Averaged: 1 (USB4C02835)
Boxcar Smoothing: 0 (USB4C02835)
Correct for Electrical Dark: No (USB4C02835)
Strobe/Lamp Enabled: No (USB4C02835)
Correct for Detector Non-linearity: No (USB4C02835)
Correct for Stray Light: No (USB4C02835)
Number of Pixels in Processed Spectrum: 3648
>>>>>Begin Processed Spectral Data<<<<<
177.47	1593.32
177.69	1593.32
177.91	1593.32
178.13	1513.45
178.36	1544.17
178.58	1738.73
178.80	1845.22
179.02	1794.02
179.24	1804.26
179.46	1751.01
179.68	1869.80
179.90	1775.59
180.13	1822.69
180.35	1691.62
180.57	1851.36
180.79	1800.16
181.01	1802.21
181.23	1892.32
181.45	1849.32
181.67	1798.12
181.90	1837.03
182.12	1775.59
182.34	1683.43
182.56	1877.99
182.78	1796.07
183.00	1699.81
183.22	1861.60
183.44	1705.96
183.66	1935.33
183.89	1877.99
184.11	1810.40
184.33	1888.23
184.55	1839.08
184.77	1808.36
184.99	1890.28
185.21	1791.97
185.43	1970.15
185.65	1742.82
185.87	1775.59
186.10	1974.24
186.32	1896.42
186.54	1828.84
186.76	1867.75
186.98	1873.89
187.20	1693.67
187.42	1755.11
187.64	1773.54
187.86	1820.64
188.08	1910.75
188.30	1791.97
188.52	1828.84
188.75	1900.52
188.97	1845.22
189.19	1869.80
189.41	1826.79
189.63	1769.44
189.85	1820.64
190.07	1726.44
190.29	1656.81
190.51	1865.70
190.73	1714.15
190.95	1916.90
191.17	1800.16
191.39	1705.96
191.61	1779.68
191.84	1773.54
192.06	1845.22
192.28	1632.23
192.50	1996.77
192.72	1734.63
192.94	1814.50
193.16	1931.23
193.38	1804.26
193.60	1722.34
193.82	1781.73
194.04	1832.93
194.26	1837.03
194.48	1806.31
194.70	1677.29
194.92	1751.01
195.14	1808.36
195.36	1808.36
195.58	1851.36
195.80	1841.12
196.02	1697.77
196.24	1734.63
196.46	1753.06
196.69	1798.12
196.91	1964.00
197.13	1746.92
197.35	1785.83
197.57	1871.84
197.79	1804.26
198.01	1787.88
198.23	1779.68
198.45	1908.71
198.67	1710.05
198.89	1781.73
199.11	1771.49
199.33	1779.68
199.55	1712.10
199.77	1828.84
199.99	1916.90
200.21	1771.49
200.43	1871.84
200.65	1703.91
200.87	1675.24
201.09	1834.98
201.31	1806.31
201.53	1832.93
201.75	1867.75
201.97	1796.07
202.19	1791.97
202.41	1779.68
202.63	1986.53
202.85	1816.55
203.07	1855.46
203.29	1773.54
203.51	1824.74
203.73	1755.11
203.95	2029.54
204.17	1832.93
204.39	1814.50
204.61	1755.11
204.83	1751.01
205.05	1849.32
205.27	1814.50
205.49	2009.06
205.71	1763.30
205.93	1785.83
206.15	1804.26
206.37	1845.22
206.59	1865.70
206.81	1794.02
207.03	1796.07
207.25	1675.24
207.47	1814.50
207.69	1769.44
207.91	1902.56
208.13	1894.37
208.34	1755.11
208.56	1722.34
208.78	1935.33
209.00	1781.73
209.22	1771.49
209.44	1806.31
209.66	1804.26
209.88	1865.70
210.10	1808.36
210.32	1785.83
210.54	1867.75
210.76	1789.92
210.98	1873.89
211.20	1703.91
211.42	1855.46
211.64	1847.27
211.86	1828.84
212.08	1841.12
212.30	1798.12
212.52	1726.44
212.74	1849.32
212.96	1822.69
213.17	1902.56
213.39	1832.93
213.61	1927.14
213.83	1814.50
214.05	1722.34
214.27	1814.50
214.49	1685.48
214.71	1787.88
214.93	1804.26
215.15	1828.84
215.37	1875.94
215.59	1685.48
215.81	1859.56
216.03	1877.99
216.24	1800.16
216.46	1808.36
216.68	1802.21
216.90	1865.70
217.12	1888.23
217.34	1796.07
217.56	1826.79
217.78	1931.23
218.00	1841.12
218.22	1828.84
218.44	1873.89
218.66	1800.16
218.87	1951.71
219.09	1775.59
219.31	1834.98
219.53	1779.68
219.75	1824.74
219.97	1828.84
220.19	1910.75
220.41	1818.60
220.63	1933.28
220.85	1882.08
221.06	1738.73
221.28	1884.13
221.50	1857.51
221.72	1818.60
221.94	1742.82
222.16	1900.52
222.38	1871.84
222.60	1837.03
222.82	1896.42
223.03	1832.93
223.25	1703.91
223.47	1820.64
223.69	1933.28
223.91	1861.60
224.13	1808.36
224.35	1734.63
224.57	1826.79
224.78	1859.56
225.00	1660.90
225.22	1787.88
225.44	1861.60
225.66	1824.74
225.88	1736.68
226.10	1810.40
226.32	1863.65
226.53	1861.60
226.75	1800.16
226.97	1859.56
227.19	1738.73
227.41	1808.36
227.63	1794.02
227.85	1697.77
228.06	1839.08
228.28	1834.98
228.50	1767.40
228.72	1779.68
228.94	1681.38
229.16	1753.06
229.37	1691.62
229.59	1798.12
229.81	1884.13
230.03	1814.50
230.25	1753.06
230.47	1724.39
230.69	1748.97
230.90	1873.89
231.12	1751.01
231.34	1765.35
231.56	1718.25
231.78	1751.01
232.00	1800.16
232.21	1812.45
232.43	1734.63
232.65	1718.25
232.87	1871.84
233.09	1746.92
233.30	1828.84
233.52	1810.40
233.74	1849.32
233.96	1763.30
234.18	1765.35
234.40	1787.88
234.61	1945.57
234.83	1701.86
235.05	1683.43
235.27	1939.43
235.49	1834.98
235.70	1759.21
235.92	1892.32
236.14	1773.54
236.36	1961.95
236.58	1761.25
236.79	1789.92
237.01	1759.21
237.23	1779.68
237.45	1931.23
237.67	1798.12
237.88	1843.17
238.10	2009.06
238.32	1826.79
238.54	1769.44
238.76	1832.93
238.97	1781.73
239.19	1837.03
239.41	1851.36
239.63	1845.22
239.85	1744.87
240.06	1845.22
240.28	1783.78
240.50	1800.16
240.72	1841.12
240.93	1787.88
241.15	1834.98
241.37	1904.61
241.59	1896.42
241.81	1822.69
242.02	1748.97
242.24	1865.70
242.46	1798.12
242.68	1800.16
242.89	1779.68
243.11	1810.40
243.33	1839.08
243.55	1812.45
243.76	1837.03
243.98	1730.53
244.20	1853.41
244.42	1826.79
244.64	1808.36
244.85	1724.39
245.07	1716.20
245.29	1812.45
245.51	1804.26
245.72	1877.99
245.94	1828.84
246.16	1875.94
246.38	1839.08
246.59	1767.40
246.81	1779.68
247.03	1806.31
247.24	1638.38
247.46	1755.11
247.68	1837.03
247.90	1771.49
248.11	1781.73
248.33	1855.46
248.55	1853.41
248.77	1759.21
248.98	1847.27
249.20	1877.99
249.42	1822.69
249.64	1837.03
249.85	1785.83
250.07	1800.16
250.29	1888.23
250.50	1826.79
250.72	1742.82
250.94	1810.40
251.16	1968.10
251.37	1877.99
251.59	1859.56
251.81	1796.07
252.02	1847.27
252.24	1744.87
252.46	1847.27
252.68	1791.97
252.89	1810.40
253.11	1691.62
253.33	1910.75
253.54	1933.28
253.76	1796.07
253.98	1791.97
254.20	1890.28
254.41	1708.01
254.63	1812.45
254.85	1751.01
255.06	1662.95
255.28	1744.87
255.50	1812.45
255.71	1800.16
255.93	1673.19
256.15	1775.59
256.36	1871.84
256.58	1783.78
256.80	1734.63
257.02	1843.17
257.23	1777.64
257.45	1791.97
257.67	1853.41
257.88	1691.62
258.10	1894.37
258.32	1804.26
258.53	1894.37
258.75	1918.95
258.97	1804.26
259.18	1734.63
259.40	1802.21
259.62	1890.28
259.83	1914.85
260.05	1820.64
260.27	2121.70
260.48	1906.66
260.70	1746.92
260.92	1712.10
261.13	1777.64
261.35	1861.60
261.57	1843.17
261.78	1726.44
262.00	1765.35
262.22	1931.23
262.43	1779.68
262.65	1877.99
262.86	1910.75
263.08	1994.72
263.30	1822.69
263.51	1714.15
263.73	1726.44
263.95	1849.32
264.16	1751.01
264.38	1798.12
264.60	1775.59
264.81	1810.40
265.03	1955.81
265.25	1904.61
265.46	1751.01
265.68	1857.51
265.89	1861.60
266.11	1675.24
266.33	1839.08
266.54	1871.84
266.76	1855.46
266.98	1814.50
267.19	1837.03
267.41	1900.52
267.62	1869.80
267.84	1705.96
268.06	1769.44
268.27	1849.32
268.49	1886.18
268.70	1902.56
268.92	1804.26
269.14	1714.15
269.35	1687.53
269.57	1759.21
269.79	1820.64
270.00	1757.16
270.22	1886.18
270.43	1736.68
270.65	1759.21
270.87	1890.28
271.08	1863.65
271.30	1804.26
271.51	1765.35
271.73	1861.60
271.95	1832.93
272.16	1851.36
272.38	1841.12
272.59	1718.25
272.81	1853.41
273.02	1796.07
273.24	1771.49
273.46	1800.16
273.67	1828.84
273.89	1777.64
274.10	1802.21
274.32	1845.22
274.54	1855.46
274.75	1851.36
274.97	1781.73
275.18	1849.32
275.40	1830.88
275.61	1818.60
275.83	1839.08
276.05	1712.10
276.26	1734.63
276.48	1853.41
276.69	1902.56
276.91	1722.34
277.12	1847.27
277.34	1800.16
277.55	1888.23
277.77	1767.40
277.99	1787.88
278.20	1779.68
278.42	1726.44
278.63	1695.72
278.85	1689.57
279.06	1744.87
279.28	1808.36
279.49	1843.17
279.71	1869.80
279.93	1822.69
280.14	1800.16
280.36	1773.54
280.57	1880.04
280.79	1814.50
281.00	1812.45
281.22	1812.45
281.43	1828.84
281.65	1718.25
281.86	1757.16
282.08	1857.51
282.29	1951.71
282.51	1697.77
282.73	1759.21
282.94	1802.21
283.16	1857.51
283.37	1877.99
283.59	1742.82
283.80	1808.36
284.02	1822.69
284.23	1933.28
284.45	1761.25
284.66	1789.92
284.88	1730.53
285.09	1902.56
285.31	1875.94
285.52	1902.56
285.74	1742.82
285.95	1834.98
286.17	1832.93
286.38	1867.75
286.60	1671.14
286.81	1894.37
287.03	1826.79
287.24	1771.49
287.46	1822.69
287.67	1902.56
287.89	1937.38
288.10	1818.60
288.32	1875.94
288.53	1849.32
288.75	1832.93
288.96	1822.69
289.18	1789.92
289.39	1863.65
289.61	1810.40
289.82	1994.72
290.04	1978.34
290.25	1701.86
290.47	1794.02
290.68	1757.16
290.90	1937.38
291.11	1705.96
291.33	1837.03
291.54	1765.35
291.76	1771.49
291.97	1880.04
292.18	1857.51
292.40	1828.84
292.61	1734.63
292.83	1961.95
293.04	1773.54
293.26	1761.25
293.47	1861.60
293.69	1740.77
293.90	1753.06
294.12	1890.28
294.33	1798.12
294.55	1791.97
294.76	1920.99
294.97	1912.80
295.19	1939.43
295.40	1753.06
295.62	1871.84
295.83	1824.74
296.05	1804.26
296.26	1869.80
296.48	1773.54
296.69	1746.92
296.90	1798.12
297.12	1847.27
297.33	1896.42
297.55	1845.22
297.76	1839.08
297.98	1859.56
298.19	1849.32
298.41	1767.40
298.62	1742.82
298.83	1937.38
299.05	1826.79
299.26	1753.06
299.48	1751.01
299.69	1867.75
299.90	1734.63
300.12	1775.59
300.33	1845.22
300.55	1886.18
300.76	1851.36
300.98	1781.73
301.19	1863.65
301.40	1841.12
301.62	1845.22
301.83	1826.79
302.05	1767.40
302.26	1763.30
302.47	1771.49
302.69	1824.74
302.90	1839.08
303.12	1665.00
303.33	1888.23
303.54	2013.15
303.76	1812.45
303.97	1824.74
304.19	1959.91
304.40	1732.58
304.61	1880.04
304.83	1947.62
305.04	1828.84
305.26	1861.60
305.47	1732.58
305.68	1816.55
305.90	1783.78
306.11	1855.46
306.33	1777.64
306.54	1697.77
306.75	1771.49
306.97	1708.01
307.18	1720.29
307.39	1781.73
307.61	1824.74
307.82	1761.25
308.04	1869.80
308.25	1789.92
308.46	1787.88
308.68	1869.80
308.89	1794.02
309.10	1882.08
309.32	1918.95
309.53	1775.59
309.74	1845.22
309.96	1839.08
310.17	1927.14
310.39	1791.97
310.60	1845.22
310.81	1812.45
311.03	1726.44
311.24	1781.73
311.45	1834.98
311.67	1959.91
311.88	1877.99
312.09	1767.40
312.31	1808.36
312.52	1834.98
312.73	1763.30
312.95	1765.35
313.16	1775.59
313.37	1912.80
313.59	1830.88
313.80	1841.12
314.01	1890.28
314.23	1839.08
314.44	1800.16
314.65	1740.77
314.87	1718.25
315.08	1822.69
315.29	1783.78
315.51	1716.20
315.72	1724.39
315.93	1947.62
316.15	1859.56
316.36	1794.02
316.57	1914.85
316.79	1785.83
317.00	1771.49
317.21	1853.41
317.43	1794.02
317.64	1865.70
317.85	1775.59
318.07	1800.16
318.28	1845.22
318.49	1945.57
318.70	2154.46
318.92	1961.95
319.13	1990.63
319.34	2074.59
319.56	1906.66
319.77	1968.10
319.98	1984.48
320.20	1947.62
320.41	1916.90
320.62	1892.32
320.83	1820.64
321.05	2025.44
321.26	1820.64
321.47	1783.78
321.69	1871.84
321.90	1734.63
322.11	1751.01
322.32	1751.01
322.54	1929.19
322.75	1763.30
322.96	1998.82
323.18	1783.78
323.39	1701.86
323.60	1800.16
323.81	1839.08
324.03	1808.36
324.24	1810.40
324.45	1804.26
324.66	1828.84
324.88	1861.60
325.09	1910.75
325.30	1837.03
325.52	1830.88
325.73	1843.17
325.94	1812.45
326.15	1720.29
326.37	1812.45
326.58	1923.04
326.79	1927.14
327.00	1710.05
327.22	1859.56
327.43	1755.11
327.64	1824.74
327.85	1904.61
328.07	1890.28
328.28	1841.12
328.49	1873.89
328.70	1841.12
328.92	1843.17
329.13	1746.92
329.34	1871.84
329.55	1906.66
329.76	1869.80
329.98	1787.88
330.19	1902.56
330.40	1843.17
330.61	1826.79
330.83	1798.12
331.04	1791.97
331.25	1843.17
331.46	1834.98
331.68	1832.93
331.89	1947.62
332.10	1826.79
332.31	1699.81
332.52	1877.99
332.74	1894.37
332.95	1687.53
333.16	1810.40
333.37	1843.17
333.58	1734.63
333.80	1794.02
334.01	1769.44
334.22	1789.92
334.43	1857.51
334.64	1812.45
334.86	1736.68
335.07	1757.16
335.28	1869.80
335.49	1843.17
335.70	1849.32
335.92	1865.70
336.13	1898.47
336.34	1877.99
336.55	1802.21
336.76	1863.65
336.98	1658.85
337.19	1763.30
337.40	1888.23
337.61	1941.47
337.82	1865.70
338.04	1939.43
338.25	1724.39
338.46	1839.08
338.67	1728.49
338.88	1738.73
339.09	1769.44
339.31	1787.88
339.52	1757.16
339.73	1734.63
339.94	1808.36
340.15	1843.17
340.36	1787.88
340.58	1841.12
340.79	1783.78
341.00	1777.64
341.21	1736.68
341.42	1968.10
341.63	1824.74
341.85	1951.71
342.06	1843.17
342.27	1710.05
342.48	1841.12
342.69	1722.34
342.90	1875.94
343.12	1837.03
343.33	1812.45
343.54	1894.37
343.75	1861.60
343.96	1855.46
344.17	1748.97
344.38	1771.49
344.60	1736.68
344.81	1656.81
345.02	1773.54
345.23	1875.94
345.44	1882.08
345.65	1851.36
345.86	1828.84
346.07	1826.79
346.29	1769.44
346.50	1740.77
346.71	1806.31
346.92	1828.84
347.13	1968.10
347.34	1734.63
347.55	1810.40
347.76	1869.80
347.98	1591.27
348.19	1705.96
348.40	1925.09
348.61	1740.77
348.82	1920.99
349.03	1828.84
349.24	1798.12
349.45	1875.94
349.66	1697.77
349.88	1804.26
350.09	1816.55
350.30	1859.56
350.51	1814.50
350.72	1806.31
350.93	1814.50
351.14	1757.16
351.35	1875.94
351.56	1814.50
351.77	1863.65
351.99	1808.36
352.20	1910.75
352.41	1894.37
352.62	1730.53
352.83	1789.92
353.04	1824.74
353.25	1845.22
353.46	1851.36
353.67	1855.46
353.88	1740.77
354.09	1859.56
354.30	1759.21
354.52	1916.90
354.73	1794.02
354.94	1812.45
355.15	1818.60
355.36	1961.95
355.57	1812.45
355.78	1845.22
355.99	1761.25
356.20	1777.64
356.41	1916.90
356.62	1812.45
356.83	1828.84
357.04	1841.12
357.25	1615.85
357.46	1804.26
357.68	1718.25
357.89	1753.06
358.10	1837.03
358.31	1824.74
358.52	1847.27
358.73	1794.02
358.94	1699.81
359.15	1789.92
359.36	1820.64
359.57	1755.11
359.78	1794.02
359.99	1826.79
360.20	1701.86
360.41	1841.12
360.62	1841.12
360.83	1865.70
361.04	1798.12
361.25	1898.47
361.46	1877.99
361.67	1888.23
361.88	1871.84
362.09	1929.19
362.30	1882.08
362.51	1769.44
362.72	1789.92
362.93	1886.18
363.14	1822.69
363.35	1871.84
363.56	1708.01
363.78	1888.23
363.99	1802.21
364.20	1843.17
364.41	1880.04
364.62	1900.52
364.83	1857.51
365.04	1785.83
365.25	1789.92
365.46	1964.00
365.67	1710.05
365.88	1740.77
366.09	1814.50
366.30	1761.25
366.51	1787.88
366.72	1728.49
366.93	1804.26
367.14	1877.99
367.35	1861.60
367.56	1779.68
367.77	1892.32
367.98	1816.55
368.18	1771.49
368.39	1916.90
368.60	1730.53
368.81	1896.42
369.02	1822.69
369.23	1773.54
369.44	1845.22
369.65	1820.64
369.86	1873.89
370.07	1820.64
370.28	1677.29
370.49	1748.97
370.70	1920.99
370.91	1775.59
371.12	1730.53
371.33	1914.85
371.54	1851.36
371.75	1900.52
371.96	1632.23
372.17	1812.45
372.38	1824.74
372.59	1900.52
372.80	1808.36
373.01	1759.21
373.22	1845.22
373.43	1800.16
373.64	1822.69
373.85	1880.04
374.06	1882.08
374.26	1826.79
374.47	1857.51
374.68	1931.23
374.89	1857.51
375.10	1814.50
375.31	1894.37
375.52	1857.51
375.73	1812.45
375.94	1748.97
376.15	1916.90
376.36	1748.97
376.57	1763.30
376.78	1751.01
376.99	1828.84
377.20	1834.98
377.40	1748.97
377.61	1877.99
377.82	1724.39
378.03	1890.28
378.24	1845.22
378.45	1839.08
378.66	1863.65
378.87	1669.09
379.08	1736.68
379.29	1853.41
379.50	1910.75
379.71	1861.60
379.91	1775.59
380.12	1787.88
380.33	1802.21
380.54	1775.59
380.75	1794.02
380.96	1834.98
381.17	1896.42
381.38	1851.36
381.59	1906.66
381.80	1834.98
382.00	1959.91
382.21	1845.22
382.42	1976.29
382.63	2017.25
382.84	1912.80
383.05	1949.67
383.26	1953.76
383.47	1802.21
383.68	1816.55
383.88	1849.32
384.09	1857.51
384.30	1906.66
384.51	1787.88
384.72	1794.02
384.93	1751.01
385.14	1787.88
385.35	1861.60
385.55	1751.01
385.76	1896.42
385.97	1806.31
386.18	1734.63
386.39	1812.45
386.60	1798.12
386.81	1828.84
387.02	1824.74
387.22	1785.83
387.43	1890.28
387.64	1970.15
387.85	1972.19
388.06	2205.66
388.27	4167.62
388.48	8884.09
388.68	11751.24
388.89	13795.12
389.10	14843.68
389.31	13051.70
389.52	10372.96
389.73	9082.74
389.93	8263.55
390.14	7620.49
390.35	6983.57
390.56	6176.67
390.77	5144.50
390.98	4028.35
391.18	3071.95
391.39	2539.48
391.60	2066.40
391.81	2002.91
392.02	1937.38
392.23	1949.67
392.43	1816.55
392.64	1923.04
392.85	1771.49
393.06	1918.95
393.27	1781.73
393.47	1693.67
393.68	1853.41
393.89	1834.98
394.10	1839.08
394.31	1820.64
394.52	1796.07
394.72	1785.83
394.93	1851.36
395.14	1769.44
395.35	1830.88
395.56	1759.21
395.76	1867.75
395.97	1941.47
396.18	2013.15
396.39	2007.01
396.60	2160.61
396.80	2062.30
397.01	2045.92
397.22	1994.72
397.43	1970.15
397.64	1746.92
397.84	1941.47
398.05	1978.34
398.26	1826.79
398.47	1980.39
398.67	1916.90
398.88	1894.37
399.09	1875.94
399.30	1732.58
399.51	1828.84
399.71	1777.64
399.92	1851.36
400.13	1849.32
400.34	1791.97
400.54	1824.74
400.75	1912.80
400.96	1849.32
401.17	1957.86
401.37	1880.04
401.58	1775.59
401.79	1845.22
402.00	1978.34
402.21	2254.81
402.41	2158.56
402.62	2176.99
402.83	2349.02
403.04	2265.05
403.24	2314.20
403.45	1943.52
403.66	2000.87
403.87	2056.16
404.07	2062.30
404.28	2127.84
404.49	1980.39
404.70	1886.18
404.90	1916.90
405.11	1806.31
405.32	1914.85
405.52	1863.65
405.73	1771.49
405.94	1775.59
406.15	1808.36
406.35	1812.45
406.56	1900.52
406.77	1818.60
406.98	1775.59
407.18	1759.21
407.39	1902.56
407.60	1832.93
407.80	1918.95
408.01	1804.26
408.22	1808.36
408.43	1767.40
408.63	1902.56
408.84	1830.88
409.05	1837.03
409.25	1744.87
409.46	1736.68
409.67	1853.41
409.88	1810.40
410.08	1814.50
410.29	1777.64
410.50	1847.27
410.70	1855.46
410.91	1771.49
411.12	1820.64
411.32	1900.52
411.53	1816.55
411.74	1959.91
411.95	1888.23
412.15	1912.80
412.36	2035.68
412.57	1920.99
412.77	1959.91
412.98	1847.27
413.19	1818.60
413.39	1898.47
413.60	1832.93
413.81	1947.62
414.01	1804.26
414.22	1877.99
414.43	1818.60
414.63	1775.59
414.84	1843.17
415.05	1779.68
415.25	1671.14
415.46	1935.33
415.67	1812.45
415.87	1837.03
416.08	1839.08
416.29	1816.55
416.49	1853.41
416.70	1748.97
416.91	1771.49
417.11	1824.74
417.32	1888.23
417.53	1871.84
417.73	1841.12
417.94	1847.27
418.15	1896.42
418.35	1736.68
418.56	1857.51
418.77	2000.87
418.97	1746.92
419.18	1837.03
419.38	1679.33
419.59	1767.40
419.80	1877.99
420.00	1886.18
420.21	1892.32
420.42	1959.91
420.62	1771.49
420.83	1832.93
421.04	1828.84
421.24	1841.12
421.45	1929.19
421.65	1826.79
421.86	1806.31
422.07	1830.88
422.27	1810.40
422.48	1816.55
422.69	1730.53
422.89	1853.41
423.10	1798.12
423.30	1767.40
423.51	1763.30
423.72	1828.84
423.92	1748.97
424.13	1751.01
424.33	1837.03
424.54	1796.07
424.75	1845.22
424.95	1955.81
425.16	1902.56
425.36	1773.54
425.57	1877.99
425.78	1951.71
425.98	1861.60
426.19	1861.60
426.39	1728.49
426.60	1867.75
426.81	1900.52
427.01	1826.79
427.22	1773.54
427.42	1693.67
427.63	1775.59
427.83	1933.28
428.04	1918.95
428.25	1853.41
428.45	1916.90
428.66	1875.94
428.86	1839.08
429.07	1800.16
429.28	1783.78
429.48	1824.74
429.69	1728.49
429.89	1830.88
430.10	1730.53
430.30	1839.08
430.51	1826.79
430.71	1769.44
430.92	1804.26
431.13	1779.68
431.33	1886.18
431.54	1845.22
431.74	1906.66
431.95	1910.75
432.15	1763.30
432.36	1853.41
432.56	1837.03
432.77	1982.43
432.98	2078.69
433.18	1865.70
433.39	1804.26
433.59	1808.36
433.80	1947.62
434.00	1966.05
434.21	1783.78
434.41	1816.55
434.62	2013.15
434.82	1746.92
435.03	1738.73
435.23	1888.23
435.44	1683.43
435.64	1841.12
435.85	1890.28
436.06	1810.40
436.26	1877.99
436.47	1822.69
436.67	1767.40
436.88	1798.12
437.08	1767.40
437.29	1877.99
437.49	1880.04
437.70	1888.23
437.90	1791.97
438.11	2021.35
438.31	1961.95
438.52	2068.45
438.72	1970.15
438.93	2074.59
439.13	1943.52
439.34	1990.63
439.54	1914.85
439.75	1853.41
439.95	1945.57
440.16	1816.55
440.36	1949.67
440.57	1888.23
440.77	1820.64
440.98	1800.16
441.18	1830.88
441.39	1882.08
441.59	1701.86
441.80	1959.91
442.00	1810.40
442.21	1961.95
442.41	1716.20
442.62	1910.75
442.82	1820.64
443.02	1877.99
443.23	1890.28
443.43	1820.64
443.64	1937.38
443.84	1738.73
444.05	1906.66
444.25	1849.32
444.46	1820.64
444.66	1886.18
444.87	1978.34
445.07	1708.01
445.28	1871.84
445.48	1974.24
445.69	1818.60
445.89	2027.49
446.09	1902.56
446.30	2031.58
446.50	2639.83
446.71	4169.66
446.91	5158.83
447.12	5982.12
447.32	6227.87
447.53	5695.40
447.73	4614.07
447.93	4120.51
448.14	3809.22
448.34	3721.16
448.55	3180.50
448.75	3264.46
448.96	3063.76
449.16	2672.60
449.36	2588.63
449.57	2217.95
449.77	1959.91
449.98	1896.42
450.18	1914.85
450.39	1892.32
450.59	1929.19
450.79	1849.32
451.00	1808.36
451.20	1810.40
451.41	1904.61
451.61	1877.99
451.81	1814.50
452.02	1767.40
452.22	1824.74
452.43	1748.97
452.63	1791.97
