SpectraSuite Data File
++++++++++++++++++++++++++++++++++++
Date: Wed May 04 21:13:01 CEST 2016
User: root
Dark Spectrum Present: No
Reference Spectrum Present: No
Number of Sampled Component Spectra: 1
Spectrometers: USB4C02835
Integration Time (usec): 100000 (USB4C02835)
Spectra Averaged: 1 (USB4C02835)
Boxcar Smoothing: 0 (USB4C02835)
Correct for Electrical Dark: No (USB4C02835)
Strobe/Lamp Enabled: No (USB4C02835)
Correct for Detector Non-linearity: No (USB4C02835)
Correct for Stray Light: No (USB4C02835)
Number of Pixels in Processed Spectrum: 3648
>>>>>Begin Processed Spectral Data<<<<<
177.47	1540.07
177.69	1540.07
177.91	1540.07
178.13	1509.35
178.36	1519.59
178.58	1705.96
178.80	1798.12
179.02	1675.24
179.24	1703.91
179.46	1796.07
179.68	1884.13
179.90	1906.66
180.13	1820.64
180.35	1734.63
180.57	1787.88
180.79	1873.89
181.01	1806.31
181.23	1941.47
181.45	1853.41
181.67	1875.94
181.90	1839.08
182.12	1763.30
182.34	1728.49
182.56	1920.99
182.78	1859.56
183.00	1818.60
183.22	1828.84
183.44	1667.05
183.66	1980.39
183.89	1787.88
184.11	1798.12
184.33	1865.70
184.55	1898.47
184.77	1716.20
184.99	1798.12
185.21	1845.22
185.43	1941.47
185.65	1865.70
185.87	1757.16
186.10	1949.67
186.32	1896.42
186.54	1871.84
186.76	1888.23
186.98	1841.12
187.20	1734.63
187.42	1783.78
187.64	1755.11
187.86	1791.97
188.08	1853.41
188.30	1757.16
188.52	1818.60
188.75	1826.79
188.97	1955.81
189.19	1742.82
189.41	1761.25
189.63	1857.51
189.85	1865.70
190.07	1738.73
190.29	1783.78
190.51	1828.84
190.73	1755.11
190.95	1910.75
191.17	1744.87
191.39	1701.86
191.61	1765.35
191.84	1765.35
192.06	1857.51
192.28	1761.25
192.50	1986.53
192.72	1783.78
192.94	1787.88
193.16	1839.08
193.38	1826.79
193.60	1802.21
193.82	1740.77
194.04	1861.60
194.26	1859.56
194.48	1789.92
194.70	1847.27
194.92	1816.55
195.14	1845.22
195.36	1830.88
195.58	1787.88
195.80	1798.12
196.02	1841.12
196.24	1746.92
196.46	1882.08
196.69	1853.41
196.91	1984.48
197.13	1884.13
197.35	1812.45
197.57	1898.47
197.79	1818.60
198.01	1871.84
198.23	1882.08
198.45	1818.60
198.67	1849.32
198.89	1779.68
199.11	1890.28
199.33	1789.92
199.55	1720.29
199.77	1771.49
199.99	1875.94
200.21	1763.30
200.43	1869.80
200.65	1742.82
200.87	1638.38
201.09	1812.45
201.31	1857.51
201.53	1908.71
201.75	1771.49
201.97	1933.28
202.19	1791.97
202.41	1834.98
202.63	2002.91
202.85	1808.36
203.07	1787.88
203.29	1759.21
203.51	1738.73
203.73	1810.40
203.95	2086.88
204.17	1818.60
204.39	1779.68
204.61	1818.60
204.83	1845.22
205.05	1857.51
205.27	1867.75
205.49	1941.47
205.71	1843.17
205.93	1689.57
206.15	1732.58
206.37	1865.70
206.59	1787.88
206.81	1763.30
207.03	1787.88
207.25	1748.97
207.47	1853.41
207.69	1812.45
207.91	1847.27
208.13	1894.37
208.34	1755.11
208.56	1755.11
208.78	1822.69
209.00	1771.49
209.22	1812.45
209.44	1832.93
209.66	1802.21
209.88	1824.74
210.10	1742.82
210.32	1791.97
210.54	1927.14
210.76	1822.69
210.98	1904.61
211.20	1662.95
211.42	1828.84
211.64	1904.61
211.86	1783.78
212.08	1859.56
212.30	1845.22
212.52	1742.82
212.74	1824.74
212.96	1781.73
213.17	1812.45
213.39	1867.75
213.61	1869.80
213.83	1839.08
214.05	1873.89
214.27	1822.69
214.49	1746.92
214.71	1796.07
214.93	1896.42
215.15	1810.40
215.37	1890.28
215.59	1736.68
215.81	1785.83
216.03	1933.28
216.24	1732.58
216.46	1796.07
216.68	1837.03
216.90	1810.40
217.12	1914.85
217.34	1781.73
217.56	1773.54
217.78	1916.90
218.00	1857.51
218.22	1769.44
218.44	1789.92
218.66	1791.97
218.87	1957.86
219.09	1777.64
219.31	1890.28
219.53	1806.31
219.75	1767.40
219.97	1818.60
220.19	1763.30
220.41	1765.35
220.63	1853.41
220.85	1865.70
221.06	1740.77
221.28	1894.37
221.50	1816.55
221.72	1736.68
221.94	1777.64
222.16	1812.45
222.38	1916.90
222.60	1853.41
222.82	1787.88
223.03	1877.99
223.25	1742.82
223.47	1841.12
223.69	1916.90
223.91	1837.03
224.13	1853.41
224.35	1787.88
224.57	1800.16
224.78	1820.64
225.00	1751.01
225.22	1769.44
225.44	1847.27
225.66	1886.18
225.88	1779.68
226.10	1884.13
226.32	1791.97
226.53	1939.43
226.75	1779.68
226.97	1826.79
227.19	1796.07
227.41	1814.50
227.63	1773.54
227.85	1732.58
228.06	1873.89
228.28	1787.88
228.50	1884.13
228.72	1767.40
228.94	1814.50
229.16	1691.62
229.37	1736.68
229.59	1746.92
229.81	1920.99
230.03	1845.22
230.25	1751.01
230.47	1685.48
230.69	1767.40
230.90	1871.84
231.12	1804.26
231.34	1880.04
231.56	1834.98
231.78	1755.11
232.00	1806.31
232.21	1841.12
232.43	1808.36
232.65	1654.76
232.87	1834.98
233.09	1761.25
233.30	1763.30
233.52	1877.99
233.74	1794.02
233.96	1757.16
234.18	1794.02
234.40	1742.82
234.61	1912.80
234.83	1757.16
235.05	1808.36
235.27	1984.48
235.49	1916.90
235.70	1787.88
235.92	1877.99
236.14	1812.45
236.36	1984.48
236.58	1767.40
236.79	1798.12
237.01	1738.73
237.23	1783.78
237.45	1859.56
237.67	1781.73
237.88	1847.27
238.10	1951.71
238.32	1732.58
238.54	1746.92
238.76	1724.39
238.97	1734.63
239.19	1824.74
239.41	1822.69
239.63	1882.08
239.85	1812.45
240.06	1794.02
240.28	1791.97
240.50	1877.99
240.72	1929.19
240.93	1779.68
241.15	1861.60
241.37	1859.56
241.59	1855.46
241.81	1794.02
242.02	1775.59
242.24	1886.18
242.46	1800.16
242.68	1746.92
242.89	1808.36
243.11	1902.56
243.33	1863.65
243.55	1802.21
243.76	1816.55
243.98	1783.78
244.20	1841.12
244.42	1804.26
244.64	1888.23
244.85	1748.97
245.07	1755.11
245.29	1804.26
245.51	1826.79
245.72	1877.99
245.94	1982.43
246.16	1781.73
246.38	1851.36
246.59	1785.83
246.81	1751.01
247.03	1773.54
247.24	1708.01
247.46	1783.78
247.68	1861.60
247.90	1830.88
248.11	1791.97
248.33	1882.08
248.55	1746.92
248.77	1822.69
248.98	1841.12
249.20	1877.99
249.42	1869.80
249.64	1755.11
249.85	1800.16
250.07	1734.63
250.29	1834.98
250.50	1843.17
250.72	1740.77
250.94	1884.13
251.16	1912.80
251.37	1873.89
251.59	1804.26
251.81	1785.83
252.02	1931.23
252.24	1773.54
252.46	1908.71
252.68	1691.62
252.89	1810.40
253.11	1701.86
253.33	1871.84
253.54	1863.65
253.76	1748.97
253.98	1814.50
254.20	1775.59
254.41	1763.30
254.63	1816.55
254.85	1669.09
255.06	1834.98
255.28	1877.99
255.50	1865.70
255.71	1738.73
255.93	1710.05
256.15	1863.65
256.36	1802.21
256.58	1794.02
256.80	1853.41
257.02	1820.64
257.23	1808.36
257.45	1791.97
257.67	1904.61
257.88	1769.44
258.10	1818.60
258.32	1828.84
258.53	1791.97
258.75	1908.71
258.97	1761.25
259.18	1847.27
259.40	1761.25
259.62	1869.80
259.83	1796.07
260.05	1855.46
260.27	2123.74
260.48	1865.70
260.70	1763.30
260.92	1728.49
261.13	1796.07
261.35	1863.65
261.57	1861.60
261.78	1718.25
262.00	1773.54
262.22	1779.68
262.43	1773.54
262.65	1867.75
262.86	1832.93
263.08	1931.23
263.30	1808.36
263.51	1708.01
263.73	1777.64
263.95	1869.80
264.16	1724.39
264.38	1681.38
264.60	1804.26
264.81	1830.88
265.03	1945.57
265.25	1894.37
265.46	1812.45
265.68	1882.08
265.89	1929.19
266.11	1714.15
266.33	1763.30
266.54	1884.13
266.76	1851.36
266.98	1920.99
267.19	1886.18
267.41	1900.52
267.62	1761.25
267.84	1708.01
268.06	1847.27
268.27	1808.36
268.49	1925.09
268.70	1867.75
268.92	1748.97
269.14	1734.63
269.35	1697.77
269.57	1808.36
269.79	1816.55
270.00	1773.54
270.22	1984.48
270.43	1714.15
270.65	1740.77
270.87	1910.75
271.08	1929.19
271.30	1871.84
271.51	1849.32
271.73	1871.84
271.95	1916.90
272.16	1783.78
272.38	1853.41
272.59	1783.78
272.81	1869.80
273.02	1798.12
273.24	1816.55
273.46	1884.13
273.67	1728.49
273.89	1861.60
274.10	1783.78
274.32	1894.37
274.54	1822.69
274.75	1861.60
274.97	1789.92
275.18	1834.98
275.40	1847.27
275.61	1728.49
275.83	1789.92
276.05	1751.01
276.26	1847.27
276.48	1843.17
276.69	1794.02
276.91	1849.32
277.12	1877.99
277.34	1873.89
277.55	1861.60
277.77	1814.50
277.99	1753.06
278.20	1824.74
278.42	1687.53
278.63	1804.26
278.85	1748.97
279.06	1626.09
279.28	1800.16
279.49	1871.84
279.71	1769.44
279.93	1787.88
280.14	1837.03
280.36	1738.73
280.57	1888.23
280.79	1880.04
281.00	1753.06
281.22	1730.53
281.43	1884.13
281.65	1662.95
281.86	1791.97
282.08	1847.27
282.29	1968.10
282.51	1759.21
282.73	1734.63
282.94	1742.82
283.16	1816.55
283.37	1927.14
283.59	1818.60
283.80	1837.03
284.02	1779.68
284.23	1892.32
284.45	1822.69
284.66	1787.88
284.88	1738.73
285.09	1877.99
285.31	1929.19
285.52	1822.69
285.74	1705.96
285.95	1886.18
286.17	1837.03
286.38	1861.60
286.60	1804.26
286.81	1812.45
287.03	1771.49
287.24	1759.21
287.46	1804.26
287.67	1796.07
287.89	1804.26
288.10	1753.06
288.32	1808.36
288.53	1857.51
288.75	1818.60
288.96	1873.89
289.18	1873.89
289.39	1722.34
289.61	1861.60
289.82	1951.71
290.04	2000.87
290.25	1740.77
290.47	1828.84
290.68	1826.79
290.90	1882.08
291.11	1738.73
291.33	1839.08
291.54	1740.77
291.76	1832.93
291.97	1880.04
292.18	1894.37
292.40	1771.49
292.61	1716.20
292.83	1861.60
293.04	1820.64
293.26	1822.69
293.47	1824.74
293.69	1644.52
293.90	1818.60
294.12	1949.67
294.33	1853.41
294.55	1794.02
294.76	1812.45
294.97	1863.65
295.19	1849.32
295.40	1699.81
295.62	1796.07
295.83	1832.93
296.05	1773.54
296.26	1894.37
296.48	1787.88
296.69	1755.11
296.90	1832.93
297.12	1861.60
297.33	1853.41
297.55	1830.88
297.76	1828.84
297.98	1822.69
298.19	1818.60
298.41	1826.79
298.62	1777.64
298.83	1898.47
299.05	1920.99
299.26	1855.46
299.48	1759.21
299.69	1841.12
299.90	1818.60
300.12	1697.77
300.33	1796.07
300.55	1767.40
300.76	1882.08
300.98	1755.11
301.19	1806.31
301.40	1746.92
301.62	1734.63
301.83	1783.78
302.05	1820.64
302.26	1771.49
302.47	1794.02
302.69	1744.87
302.90	1880.04
303.12	1660.90
303.33	1964.00
303.54	1920.99
303.76	1779.68
303.97	1814.50
304.19	1894.37
304.40	1701.86
304.61	1828.84
304.83	1898.47
305.04	1884.13
305.26	1869.80
305.47	1771.49
305.68	1847.27
305.90	1714.15
306.11	1802.21
306.33	1855.46
306.54	1828.84
306.75	1769.44
306.97	1740.77
307.18	1697.77
307.39	1746.92
307.61	1834.98
307.82	1798.12
308.04	1916.90
308.25	1714.15
308.46	1777.64
308.68	1877.99
308.89	1781.73
309.10	1871.84
309.32	1755.11
309.53	1824.74
309.74	1837.03
309.96	1865.70
310.17	1986.53
310.39	1765.35
310.60	1859.56
310.81	1853.41
311.03	1783.78
311.24	1828.84
311.45	1812.45
311.67	1871.84
311.88	1880.04
312.09	1810.40
312.31	1812.45
312.52	1777.64
312.73	1742.82
312.95	1705.96
313.16	1787.88
313.37	1900.52
313.59	1820.64
313.80	1798.12
314.01	1902.56
314.23	1744.87
314.44	1773.54
314.65	1771.49
314.87	1763.30
315.08	1800.16
315.29	1746.92
315.51	1753.06
315.72	1714.15
315.93	1896.42
316.15	1877.99
316.36	1783.78
316.57	1796.07
316.79	1822.69
317.00	1779.68
317.21	1832.93
317.43	1736.68
317.64	1822.69
317.85	1757.16
318.07	1767.40
318.28	1906.66
318.49	1902.56
318.70	2156.51
318.92	2000.87
319.13	1994.72
319.34	2013.15
319.56	1886.18
319.77	1884.13
319.98	1920.99
320.20	1927.14
320.41	1968.10
320.62	1902.56
320.83	1761.25
321.05	2017.25
321.26	1822.69
321.47	1724.39
321.69	1933.28
321.90	1742.82
322.11	1763.30
322.32	1841.12
322.54	1912.80
322.75	1763.30
322.96	1961.95
323.18	1773.54
323.39	1708.01
323.60	1744.87
323.81	1902.56
324.03	1753.06
324.24	1818.60
324.45	1802.21
324.66	1808.36
324.88	1861.60
325.09	1873.89
325.30	1845.22
325.52	1779.68
325.73	1834.98
325.94	1712.10
326.15	1773.54
326.37	1755.11
326.58	1898.47
326.79	1910.75
327.00	1806.31
327.22	1871.84
327.43	1728.49
327.64	1691.62
327.85	1916.90
328.07	1759.21
328.28	1914.85
328.49	1845.22
328.70	1857.51
328.92	1767.40
329.13	1800.16
329.34	1806.31
329.55	1927.14
329.76	1820.64
329.98	1763.30
330.19	1980.39
330.40	1898.47
330.61	1779.68
330.83	1849.32
331.04	1755.11
331.25	1777.64
331.46	1826.79
331.68	1748.97
331.89	1834.98
332.10	1765.35
332.31	1695.72
332.52	1785.83
332.74	1910.75
332.95	1781.73
333.16	1806.31
333.37	1877.99
333.58	1783.78
333.80	1880.04
334.01	1613.80
334.22	1779.68
334.43	1732.58
334.64	1781.73
334.86	1710.05
335.07	1773.54
335.28	1994.72
335.49	1755.11
335.70	1822.69
335.92	1894.37
336.13	1937.38
336.34	1820.64
336.55	1812.45
336.76	1896.42
336.98	1693.67
337.19	1757.16
337.40	1927.14
337.61	2041.82
337.82	1765.35
338.04	1865.70
338.25	1783.78
338.46	1753.06
338.67	1824.74
338.88	1824.74
339.09	1722.34
339.31	1753.06
339.52	1767.40
339.73	1662.95
339.94	1796.07
340.15	1855.46
340.36	1783.78
340.58	1898.47
340.79	1785.83
341.00	1794.02
341.21	1681.38
341.42	1972.19
341.63	1826.79
341.85	1884.13
342.06	1796.07
342.27	1738.73
342.48	1890.28
342.69	1736.68
342.90	1796.07
343.12	1890.28
343.33	1814.50
343.54	1861.60
343.75	1898.47
343.96	1820.64
344.17	1777.64
344.38	1751.01
344.60	1751.01
344.81	1773.54
345.02	1789.92
345.23	1851.36
345.44	1992.67
345.65	1941.47
345.86	1843.17
346.07	1837.03
346.29	1785.83
346.50	1904.61
346.71	1851.36
346.92	1941.47
347.13	1966.05
347.34	1798.12
347.55	1820.64
347.76	1853.41
347.98	1718.25
348.19	1767.40
348.40	1849.32
348.61	1837.03
348.82	1933.28
349.03	1935.33
349.24	1671.14
349.45	1931.23
349.66	1794.02
349.88	1779.68
350.09	1796.07
350.30	1898.47
350.51	1896.42
350.72	1834.98
350.93	1861.60
351.14	1783.78
351.35	1857.51
351.56	1873.89
351.77	1771.49
351.99	1849.32
352.20	1918.95
352.41	1851.36
352.62	1718.25
352.83	1742.82
353.04	1834.98
353.25	1798.12
353.46	1904.61
353.67	1839.08
353.88	1648.61
354.09	1863.65
354.30	1730.53
354.52	1873.89
354.73	1800.16
354.94	1800.16
355.15	1839.08
355.36	1941.47
355.57	1869.80
355.78	1873.89
355.99	1826.79
356.20	1744.87
356.41	1849.32
356.62	1884.13
356.83	1802.21
357.04	1931.23
357.25	1726.44
357.46	1791.97
357.68	1691.62
357.89	1769.44
358.10	1755.11
358.31	1808.36
358.52	1710.05
358.73	1804.26
358.94	1800.16
359.15	1828.84
359.36	1806.31
359.57	1832.93
359.78	1818.60
359.99	1859.56
360.20	1794.02
360.41	1857.51
360.62	1789.92
360.83	1855.46
361.04	1791.97
361.25	1904.61
361.46	1910.75
361.67	1841.12
361.88	1869.80
362.09	1880.04
362.30	1859.56
362.51	1714.15
362.72	1855.46
362.93	1912.80
363.14	1861.60
363.35	1869.80
363.56	1728.49
363.78	1832.93
363.99	1824.74
364.20	1763.30
364.41	1841.12
364.62	1949.67
364.83	1865.70
365.04	1822.69
365.25	1857.51
365.46	1927.14
365.67	1791.97
365.88	1820.64
366.09	1767.40
366.30	1806.31
366.51	1712.10
366.72	1841.12
366.93	1861.60
367.14	1808.36
367.35	1923.04
367.56	1814.50
367.77	1898.47
367.98	1828.84
368.18	1820.64
368.39	1880.04
368.60	1738.73
368.81	1933.28
369.02	1849.32
369.23	1839.08
369.44	1765.35
369.65	1832.93
369.86	1908.71
370.07	1880.04
370.28	1804.26
370.49	1861.60
370.70	1861.60
370.91	1726.44
371.12	1767.40
371.33	1798.12
371.54	1798.12
371.75	1900.52
371.96	1660.90
372.17	1779.68
372.38	1806.31
372.59	1808.36
372.80	1826.79
373.01	1828.84
373.22	1787.88
373.43	1873.89
373.64	1720.29
373.85	1886.18
374.06	1861.60
374.26	1869.80
374.47	1843.17
374.68	1943.52
374.89	1771.49
375.10	1757.16
375.31	1888.23
375.52	1837.03
375.73	1771.49
375.94	1771.49
376.15	1939.43
376.36	1791.97
376.57	1839.08
376.78	1798.12
376.99	1759.21
377.20	1898.47
377.40	1742.82
377.61	1912.80
377.82	1748.97
378.03	1880.04
378.24	1877.99
378.45	1837.03
378.66	1826.79
378.87	1699.81
379.08	1742.82
379.29	1849.32
379.50	1816.55
379.71	1832.93
379.91	1916.90
380.12	1847.27
380.33	1857.51
380.54	1859.56
380.75	1740.77
380.96	1880.04
381.17	1869.80
381.38	1894.37
381.59	1804.26
381.80	1875.94
382.00	1980.39
382.21	1859.56
382.42	2025.44
382.63	2007.01
382.84	1828.84
383.05	1937.38
383.26	1947.62
383.47	1871.84
383.68	1826.79
383.88	1886.18
384.09	1927.14
384.30	1898.47
384.51	1914.85
384.72	1832.93
384.93	1773.54
385.14	1906.66
385.35	1798.12
385.55	1732.58
385.76	1871.84
385.97	1789.92
386.18	1751.01
386.39	1816.55
386.60	1916.90
386.81	1824.74
387.02	1777.64
387.22	1789.92
387.43	1830.88
387.64	1998.82
387.85	1961.95
388.06	2183.13
388.27	4214.72
388.48	8855.42
388.68	11872.07
388.89	13899.56
389.10	15003.42
389.31	13219.64
389.52	10458.98
389.73	9090.93
389.93	8312.71
390.14	7569.29
390.35	6975.38
390.56	6203.30
390.77	5074.87
390.98	4024.26
391.18	3200.98
391.39	2418.65
391.60	2035.68
391.81	1945.57
392.02	1871.84
392.23	1992.67
392.43	1888.23
392.64	1916.90
392.85	1814.50
393.06	2000.87
393.27	1841.12
393.47	1753.06
393.68	1822.69
393.89	1839.08
394.10	1918.95
394.31	1794.02
394.52	1710.05
394.72	1857.51
394.93	1886.18
395.14	1767.40
395.35	1832.93
395.56	1810.40
395.76	1816.55
395.97	1857.51
396.18	1951.71
396.39	2004.96
396.60	2238.43
396.80	1982.43
397.01	2025.44
397.22	2050.02
397.43	2019.30
397.64	1873.89
397.84	1880.04
398.05	1984.48
398.26	1894.37
398.47	1900.52
398.67	1898.47
398.88	1816.55
399.09	1824.74
399.30	1808.36
399.51	1800.16
399.71	1781.73
399.92	1787.88
400.13	1861.60
400.34	1783.78
400.54	1820.64
400.75	1966.05
400.96	1912.80
401.17	1931.23
401.37	1841.12
401.58	1787.88
401.79	1845.22
402.00	1910.75
402.21	2195.42
402.41	2181.09
402.62	2131.94
402.83	2263.01
403.04	2281.44
403.24	2271.20
403.45	2021.35
403.66	2125.79
403.87	2058.21
404.07	1990.63
404.28	2037.73
404.49	2072.54
404.70	1880.04
404.90	2002.91
405.11	1847.27
405.32	1839.08
405.52	1742.82
405.73	1748.97
405.94	1814.50
406.15	1837.03
406.35	1937.38
406.56	1869.80
406.77	1804.26
406.98	1884.13
407.18	1763.30
407.39	1959.91
407.60	1763.30
407.80	1908.71
408.01	1759.21
408.22	1824.74
408.43	1722.34
408.63	1834.98
408.84	1843.17
409.05	1877.99
409.25	1726.44
409.46	1806.31
409.67	1783.78
409.88	1763.30
410.08	1857.51
410.29	1783.78
410.50	1845.22
410.70	1849.32
410.91	1771.49
411.12	1779.68
411.32	1855.46
411.53	1812.45
411.74	1877.99
411.95	1931.23
412.15	1918.95
412.36	1920.99
412.57	1843.17
412.77	1949.67
412.98	1875.94
413.19	1861.60
413.39	1945.57
413.60	1877.99
413.81	1935.33
414.01	1824.74
414.22	1923.04
414.43	1826.79
414.63	1822.69
414.84	1927.14
415.05	1851.36
415.25	1691.62
415.46	1888.23
415.67	1822.69
415.87	1810.40
416.08	1732.58
416.29	1794.02
416.49	1845.22
416.70	1785.83
416.91	1818.60
417.11	1845.22
417.32	1898.47
417.53	1845.22
417.73	1771.49
417.94	1826.79
418.15	1789.92
418.35	1828.84
418.56	1845.22
418.77	1902.56
418.97	1855.46
419.18	1798.12
419.38	1697.77
419.59	1834.98
419.80	1961.95
420.00	1771.49
420.21	1779.68
420.42	1859.56
420.62	1851.36
420.83	1771.49
421.04	1773.54
421.24	1767.40
421.45	1953.76
421.65	1781.73
421.86	1769.44
422.07	1877.99
422.27	1812.45
422.48	1779.68
422.69	1730.53
422.89	1830.88
423.10	1857.51
423.30	1701.86
423.51	1857.51
423.72	1814.50
423.92	1845.22
424.13	1697.77
424.33	1794.02
424.54	1929.19
424.75	1828.84
424.95	1904.61
425.16	1839.08
425.36	1837.03
425.57	1798.12
425.78	1923.04
425.98	1869.80
426.19	1751.01
426.39	1744.87
426.60	1884.13
426.81	1925.09
427.01	1802.21
427.22	1736.68
427.42	1736.68
427.63	1806.31
427.83	1918.95
428.04	1863.65
428.25	1935.33
428.45	1935.33
428.66	1830.88
428.86	1812.45
429.07	1837.03
429.28	1925.09
429.48	1890.28
429.69	1697.77
429.89	1751.01
430.10	1738.73
430.30	1908.71
430.51	1937.38
430.71	1789.92
430.92	1787.88
431.13	1808.36
431.33	1873.89
431.54	1884.13
431.74	1880.04
431.95	1949.67
432.15	1796.07
432.36	1791.97
432.56	1837.03
432.77	1865.70
432.98	1976.29
433.18	1804.26
433.39	1800.16
433.59	1785.83
433.80	1996.77
434.00	1964.00
434.21	1832.93
434.41	1820.64
434.62	2009.06
434.82	1765.35
435.03	1734.63
435.23	1814.50
435.44	1746.92
435.64	1859.56
435.85	1886.18
436.06	1931.23
436.26	1947.62
436.47	1814.50
436.67	1837.03
436.88	1898.47
437.08	1894.37
437.29	1890.28
437.49	1789.92
437.70	1873.89
437.90	1830.88
438.11	1937.38
438.31	1920.99
438.52	2080.74
438.72	1978.34
438.93	2082.78
439.13	1945.57
439.34	1966.05
439.54	1804.26
439.75	1877.99
439.95	1957.86
440.16	1837.03
440.36	1902.56
440.57	1849.32
440.77	1808.36
440.98	1875.94
441.18	1910.75
441.39	1775.59
441.59	1830.88
441.80	1990.63
442.00	1863.65
442.21	1945.57
442.41	1746.92
442.62	1914.85
442.82	1751.01
443.02	1841.12
443.23	1769.44
443.43	1828.84
443.64	1904.61
443.84	1814.50
444.05	1943.52
444.25	1877.99
444.46	1855.46
444.66	1861.60
444.87	1949.67
445.07	1755.11
445.28	1826.79
445.48	1943.52
445.69	1814.50
445.89	2015.20
446.09	1865.70
446.30	2142.18
446.50	2602.97
446.71	4106.18
446.91	5275.57
447.12	5986.21
447.32	6326.18
447.53	5734.31
447.73	4571.07
447.93	4179.90
448.14	3774.41
448.34	3612.62
448.55	3291.09
448.75	3213.26
448.96	2985.94
449.16	2740.18
449.36	2611.16
449.57	2222.05
449.77	1988.58
449.98	1877.99
450.18	1886.18
450.39	1935.33
450.59	1943.52
450.79	1894.37
451.00	1757.16
451.20	1888.23
451.41	1828.84
451.61	1923.04
451.81	1804.26
452.02	1779.68
452.22	1779.68
452.43	1767.40
452.63	1869.80
