SpectraSuite Data File
++++++++++++++++++++++++++++++++++++
Date: Wed May 04 21:13:46 CEST 2016
User: root
Dark Spectrum Present: No
Reference Spectrum Present: No
Number of Sampled Component Spectra: 1
Spectrometers: USB4C02835
Integration Time (usec): 100000 (USB4C02835)
Spectra Averaged: 1 (USB4C02835)
Boxcar Smoothing: 0 (USB4C02835)
Correct for Electrical Dark: No (USB4C02835)
Strobe/Lamp Enabled: No (USB4C02835)
Correct for Detector Non-linearity: No (USB4C02835)
Correct for Stray Light: No (USB4C02835)
Number of Pixels in Processed Spectrum: 3648
>>>>>Begin Processed Spectral Data<<<<<
177.47	1517.54
177.69	1517.54
177.91	1517.54
178.13	1480.68
178.36	1517.54
178.58	1730.53
178.80	1804.26
179.02	1701.86
179.24	1718.25
179.46	1785.83
179.68	1939.43
179.90	1787.88
180.13	1859.56
180.35	1779.68
180.57	1834.98
180.79	1867.75
181.01	1832.93
181.23	1920.99
181.45	1849.32
181.67	1920.99
181.90	1920.99
182.12	1736.68
182.34	1732.58
182.56	1820.64
182.78	1834.98
183.00	1785.83
183.22	1765.35
183.44	1712.10
183.66	1955.81
183.89	1869.80
184.11	1861.60
184.33	1892.32
184.55	1902.56
184.77	1847.27
184.99	1863.65
185.21	1738.73
185.43	1992.67
185.65	1791.97
185.87	1779.68
186.10	1914.85
186.32	1900.52
186.54	1877.99
186.76	1779.68
186.98	1822.69
187.20	1777.64
187.42	1832.93
187.64	1818.60
187.86	1892.32
188.08	1894.37
188.30	1763.30
188.52	1763.30
188.75	1871.84
188.97	1923.04
189.19	1771.49
189.41	1822.69
189.63	1900.52
189.85	1810.40
190.07	1665.00
190.29	1714.15
190.51	1908.71
190.73	1755.11
190.95	1888.23
191.17	1822.69
191.39	1712.10
191.61	1851.36
191.84	1783.78
192.06	1804.26
192.28	1753.06
192.50	1927.14
192.72	1828.84
192.94	1812.45
193.16	1896.42
193.38	1837.03
193.60	1693.67
193.82	1785.83
194.04	1873.89
194.26	1855.46
194.48	1845.22
194.70	1804.26
194.92	1769.44
195.14	1937.38
195.36	1759.21
195.58	1845.22
195.80	1781.73
196.02	1849.32
196.24	1787.88
196.46	1822.69
196.69	1775.59
196.91	1947.62
197.13	1759.21
197.35	1828.84
197.57	1869.80
197.79	1816.55
198.01	1859.56
198.23	1828.84
198.45	1748.97
198.67	1746.92
198.89	1818.60
199.11	1828.84
199.33	1740.77
199.55	1681.38
199.77	1802.21
199.99	1937.38
200.21	1837.03
200.43	1906.66
200.65	1695.72
200.87	1665.00
201.09	1902.56
201.31	1789.92
201.53	1871.84
201.75	1839.08
201.97	1845.22
202.19	1839.08
202.41	1765.35
202.63	1931.23
202.85	1908.71
203.07	1816.55
203.29	1759.21
203.51	1734.63
203.73	1730.53
203.95	1968.10
204.17	1789.92
204.39	1859.56
204.61	1751.01
204.83	1806.31
205.05	1843.17
205.27	1834.98
205.49	1886.18
205.71	1839.08
205.93	1705.96
206.15	1781.73
206.37	1781.73
206.59	1886.18
206.81	1802.21
207.03	1658.85
207.25	1742.82
207.47	1912.80
207.69	1857.51
207.91	1865.70
208.13	1972.19
208.34	1736.68
208.56	1794.02
208.78	1812.45
209.00	1771.49
209.22	1861.60
209.44	1787.88
209.66	1785.83
209.88	1755.11
210.10	1755.11
210.32	1796.07
210.54	1849.32
210.76	1744.87
210.98	1888.23
211.20	1708.01
211.42	1748.97
211.64	1884.13
211.86	1931.23
212.08	1832.93
212.30	1865.70
212.52	1843.17
212.74	1927.14
212.96	1791.97
213.17	1873.89
213.39	1861.60
213.61	1955.81
213.83	1785.83
214.05	1841.12
214.27	1877.99
214.49	1763.30
214.71	1828.84
214.93	1886.18
215.15	1802.21
215.37	1794.02
215.59	1759.21
215.81	1812.45
216.03	1873.89
216.24	1816.55
216.46	1769.44
216.68	1855.46
216.90	1871.84
217.12	1925.09
217.34	1806.31
217.56	1777.64
217.78	1847.27
218.00	1886.18
218.22	1808.36
218.44	1769.44
218.66	1744.87
218.87	1925.09
219.09	1781.73
219.31	1828.84
219.53	1865.70
219.75	1730.53
219.97	1845.22
220.19	1830.88
220.41	1742.82
220.63	1912.80
220.85	1843.17
221.06	1779.68
221.28	1865.70
221.50	1929.19
221.72	1845.22
221.94	1767.40
222.16	1812.45
222.38	1853.41
222.60	1826.79
222.82	1806.31
223.03	1933.28
223.25	1703.91
223.47	1855.46
223.69	1923.04
223.91	1884.13
224.13	1755.11
224.35	1769.44
224.57	1857.51
224.78	1828.84
225.00	1761.25
225.22	1808.36
225.44	1763.30
225.66	1898.47
225.88	1785.83
226.10	1853.41
226.32	1892.32
226.53	1916.90
226.75	1800.16
226.97	1822.69
227.19	1740.77
227.41	1718.25
227.63	1751.01
227.85	1796.07
228.06	1798.12
228.28	1775.59
228.50	1763.30
228.72	1812.45
228.94	1759.21
229.16	1732.58
229.37	1789.92
229.59	1763.30
229.81	1843.17
230.03	1791.97
230.25	1730.53
230.47	1757.16
230.69	1789.92
230.90	1859.56
231.12	1816.55
231.34	1791.97
231.56	1877.99
231.78	1691.62
232.00	1806.31
232.21	1783.78
232.43	1742.82
232.65	1669.09
232.87	1855.46
233.09	1742.82
233.30	1691.62
233.52	1824.74
233.74	1771.49
233.96	1746.92
234.18	1812.45
234.40	1787.88
234.61	1974.24
234.83	1771.49
235.05	1724.39
235.27	1927.14
235.49	1873.89
235.70	1794.02
235.92	1871.84
236.14	1871.84
236.36	1955.81
236.58	1744.87
236.79	1920.99
237.01	1824.74
237.23	1775.59
237.45	1902.56
237.67	1789.92
237.88	1853.41
238.10	1937.38
238.32	1675.24
238.54	1818.60
238.76	1779.68
238.97	1736.68
239.19	1775.59
239.41	1890.28
239.63	1877.99
239.85	1822.69
240.06	1767.40
240.28	1798.12
240.50	1912.80
240.72	1800.16
240.93	1785.83
241.15	1888.23
241.37	1783.78
241.59	1972.19
241.81	1808.36
242.02	1820.64
242.24	1787.88
242.46	1853.41
242.68	1802.21
242.89	1759.21
243.11	1890.28
243.33	1834.98
243.55	1763.30
243.76	1781.73
243.98	1783.78
244.20	1834.98
244.42	1806.31
244.64	1873.89
244.85	1621.99
245.07	1736.68
245.29	1781.73
245.51	1824.74
245.72	1828.84
245.94	1925.09
246.16	1894.37
246.38	1816.55
246.59	1812.45
246.81	1746.92
247.03	1771.49
247.24	1705.96
247.46	1814.50
247.68	1824.74
247.90	1773.54
248.11	1718.25
248.33	1853.41
248.55	1744.87
248.77	1814.50
248.98	1853.41
249.20	1923.04
249.42	1800.16
249.64	1826.79
249.85	1871.84
250.07	1773.54
250.29	1859.56
250.50	1896.42
250.72	1763.30
250.94	1830.88
251.16	1939.43
251.37	1849.32
251.59	1837.03
251.81	1804.26
252.02	1961.95
252.24	1791.97
252.46	1947.62
252.68	1699.81
252.89	1796.07
253.11	1689.57
253.33	1859.56
253.54	1841.12
253.76	1730.53
253.98	1787.88
254.20	1822.69
254.41	1708.01
254.63	1875.94
254.85	1791.97
255.06	1771.49
255.28	1855.46
255.50	1802.21
255.71	1753.06
255.93	1802.21
256.15	1693.67
256.36	1886.18
256.58	1755.11
256.80	1853.41
257.02	1826.79
257.23	1767.40
257.45	1818.60
257.67	1947.62
257.88	1802.21
258.10	1857.51
258.32	1834.98
258.53	1722.34
258.75	1884.13
258.97	1832.93
259.18	1861.60
259.40	1855.46
259.62	1945.57
259.83	1902.56
260.05	1781.73
260.27	2103.26
260.48	1906.66
260.70	1730.53
260.92	1794.02
261.13	1814.50
261.35	1841.12
261.57	1857.51
261.78	1757.16
262.00	1771.49
262.22	1779.68
262.43	1763.30
262.65	1769.44
262.86	1759.21
263.08	1894.37
263.30	1839.08
263.51	1660.90
263.73	1746.92
263.95	1920.99
264.16	1779.68
264.38	1794.02
264.60	1806.31
264.81	1720.29
265.03	1953.76
265.25	1898.47
265.46	1822.69
265.68	1867.75
265.89	1918.95
266.11	1695.72
266.33	1929.19
266.54	1898.47
266.76	1832.93
266.98	1859.56
267.19	1927.14
267.41	1849.32
267.62	1857.51
267.84	1718.25
268.06	1853.41
268.27	1832.93
268.49	1937.38
268.70	1910.75
268.92	1787.88
269.14	1746.92
269.35	1828.84
269.57	1814.50
269.79	1779.68
270.00	1695.72
270.22	2009.06
270.43	1857.51
270.65	1624.04
270.87	1861.60
271.08	1845.22
271.30	1847.27
271.51	1802.21
271.73	1830.88
271.95	1910.75
272.16	1781.73
272.38	1839.08
272.59	1763.30
272.81	1818.60
273.02	1832.93
273.24	1804.26
273.46	1884.13
273.67	1722.34
273.89	1789.92
274.10	1746.92
274.32	1898.47
274.54	1828.84
274.75	1865.70
274.97	1794.02
275.18	1916.90
275.40	1818.60
275.61	1773.54
275.83	1775.59
276.05	1740.77
276.26	1873.89
276.48	1847.27
276.69	1705.96
276.91	1808.36
277.12	1966.05
277.34	1865.70
277.55	1806.31
277.77	1785.83
277.99	1845.22
278.20	1773.54
278.42	1748.97
278.63	1804.26
278.85	1796.07
279.06	1800.16
279.28	1857.51
279.49	1937.38
279.71	1834.98
279.93	1820.64
280.14	1808.36
280.36	1746.92
280.57	1937.38
280.79	1925.09
281.00	1779.68
281.22	1798.12
281.43	1923.04
281.65	1695.72
281.86	1742.82
282.08	1851.36
282.29	1906.66
282.51	1714.15
282.73	1712.10
282.94	1736.68
283.16	1812.45
283.37	1904.61
283.59	1845.22
283.80	1816.55
284.02	1841.12
284.23	1845.22
284.45	1828.84
284.66	1726.44
284.88	1806.31
285.09	1779.68
285.31	1857.51
285.52	1927.14
285.74	1714.15
285.95	1869.80
286.17	1771.49
286.38	1794.02
286.60	1798.12
286.81	1796.07
287.03	1724.39
287.24	1906.66
287.46	1742.82
287.67	1818.60
287.89	1916.90
288.10	1814.50
288.32	1810.40
288.53	1877.99
288.75	1869.80
288.96	1828.84
289.18	1787.88
289.39	1804.26
289.61	1861.60
289.82	1947.62
290.04	1935.33
290.25	1755.11
290.47	1787.88
290.68	1773.54
290.90	1937.38
291.11	1720.29
291.33	1845.22
291.54	1771.49
291.76	1849.32
291.97	1775.59
292.18	1896.42
292.40	1742.82
292.61	1767.40
292.83	1918.95
293.04	1822.69
293.26	1777.64
293.47	1849.32
293.69	1771.49
293.90	1832.93
294.12	1925.09
294.33	1806.31
294.55	1773.54
294.76	1877.99
294.97	1904.61
295.19	1882.08
295.40	1814.50
295.62	1804.26
295.83	1861.60
296.05	1705.96
296.26	1914.85
296.48	1722.34
296.69	1783.78
296.90	1773.54
297.12	1869.80
297.33	1912.80
297.55	1814.50
297.76	1865.70
297.98	1837.03
298.19	1861.60
298.41	1810.40
298.62	1660.90
298.83	1910.75
299.05	1796.07
299.26	1732.58
299.48	1765.35
299.69	1871.84
299.90	1882.08
300.12	1767.40
300.33	1785.83
300.55	1830.88
300.76	1830.88
300.98	1671.14
301.19	1843.17
301.40	1732.58
301.62	1785.83
301.83	1806.31
302.05	1804.26
302.26	1746.92
302.47	1773.54
302.69	1791.97
302.90	1808.36
303.12	1673.19
303.33	1824.74
303.54	1961.95
303.76	1785.83
303.97	1757.16
304.19	1943.52
304.40	1746.92
304.61	1808.36
304.83	1943.52
305.04	1931.23
305.26	1839.08
305.47	1767.40
305.68	1781.73
305.90	1751.01
306.11	1837.03
306.33	1765.35
306.54	1730.53
306.75	1744.87
306.97	1753.06
307.18	1744.87
307.39	1832.93
307.61	1871.84
307.82	1812.45
308.04	1869.80
308.25	1755.11
308.46	1853.41
308.68	1851.36
308.89	1806.31
309.10	1863.65
309.32	1796.07
309.53	1837.03
309.74	1785.83
309.96	1746.92
310.17	1757.16
310.39	1841.12
310.60	1863.65
310.81	1787.88
311.03	1763.30
311.24	1861.60
311.45	1771.49
311.67	2004.96
311.88	1796.07
312.09	1755.11
312.31	1787.88
312.52	1775.59
312.73	1785.83
312.95	1697.77
313.16	1693.67
313.37	1896.42
313.59	1845.22
313.80	1884.13
314.01	1968.10
314.23	1816.55
314.44	1800.16
314.65	1714.15
314.87	1806.31
315.08	1763.30
315.29	1757.16
315.51	1791.97
315.72	1804.26
315.93	1968.10
316.15	1882.08
316.36	1779.68
316.57	1746.92
316.79	1857.51
317.00	1765.35
317.21	1908.71
317.43	1763.30
317.64	1900.52
317.85	1783.78
318.07	1746.92
318.28	1859.56
318.49	2002.91
318.70	2133.98
318.92	2066.40
319.13	1961.95
319.34	1990.63
319.56	1925.09
319.77	1925.09
319.98	1968.10
320.20	1966.05
320.41	1923.04
320.62	1882.08
320.83	1802.21
321.05	1945.57
321.26	1857.51
321.47	1843.17
321.69	1912.80
321.90	1738.73
322.11	1757.16
322.32	1822.69
322.54	1910.75
322.75	1775.59
322.96	1970.15
323.18	1705.96
323.39	1679.33
323.60	1783.78
323.81	1927.14
324.03	1740.77
324.24	1826.79
324.45	1828.84
324.66	1830.88
324.88	1931.23
325.09	1816.55
325.30	1791.97
325.52	1824.74
325.73	1816.55
325.94	1763.30
326.15	1783.78
326.37	1744.87
326.58	1882.08
326.79	1822.69
327.00	1746.92
327.22	1853.41
327.43	1839.08
327.64	1806.31
327.85	1834.98
328.07	1818.60
328.28	1918.95
328.49	1798.12
328.70	1839.08
328.92	1830.88
329.13	1802.21
329.34	1834.98
329.55	1955.81
329.76	1828.84
329.98	1818.60
330.19	1875.94
330.40	1886.18
330.61	1853.41
330.83	1869.80
331.04	1845.22
331.25	1857.51
331.46	1712.10
331.68	1787.88
331.89	1931.23
332.10	1794.02
332.31	1837.03
332.52	1794.02
332.74	1855.46
332.95	1734.63
333.16	1734.63
333.37	1824.74
333.58	1732.58
333.80	1871.84
334.01	1681.38
334.22	1748.97
334.43	1837.03
334.64	1773.54
334.86	1802.21
335.07	1689.57
335.28	1941.47
335.49	1710.05
335.70	1898.47
335.92	1857.51
336.13	2002.91
336.34	1875.94
336.55	1818.60
336.76	1751.01
336.98	1667.05
337.19	1787.88
337.40	1925.09
337.61	1974.24
337.82	1816.55
338.04	1906.66
338.25	1652.71
338.46	1785.83
338.67	1832.93
338.88	1753.06
339.09	1718.25
339.31	1761.25
339.52	1724.39
339.73	1730.53
339.94	1787.88
340.15	1937.38
340.36	1789.92
340.58	1816.55
340.79	1746.92
341.00	1814.50
341.21	1630.18
341.42	1978.34
341.63	1759.21
341.85	1808.36
342.06	1810.40
342.27	1759.21
342.48	1789.92
342.69	1783.78
342.90	1771.49
343.12	1923.04
343.33	1775.59
343.54	1894.37
343.75	1951.71
343.96	1824.74
344.17	1781.73
344.38	1886.18
344.60	1718.25
344.81	1761.25
345.02	1691.62
345.23	1867.75
345.44	1976.29
345.65	1855.46
345.86	1806.31
346.07	1892.32
346.29	1804.26
346.50	1826.79
346.71	1787.88
346.92	1961.95
347.13	1906.66
347.34	1808.36
347.55	1804.26
347.76	1771.49
347.98	1751.01
348.19	1861.60
348.40	1882.08
348.61	1796.07
348.82	1871.84
349.03	1865.70
349.24	1796.07
349.45	1933.28
349.66	1689.57
349.88	1867.75
350.09	1701.86
350.30	1910.75
350.51	1902.56
350.72	1796.07
350.93	1775.59
351.14	1783.78
351.35	1773.54
351.56	1841.12
351.77	1775.59
351.99	1785.83
352.20	1920.99
352.41	1906.66
352.62	1761.25
352.83	1855.46
353.04	1755.11
353.25	1806.31
353.46	1902.56
353.67	1900.52
353.88	1728.49
354.09	1779.68
354.30	1802.21
354.52	1826.79
354.73	1802.21
354.94	1816.55
355.15	1781.73
355.36	1935.33
355.57	1806.31
355.78	1906.66
355.99	1734.63
356.20	1794.02
356.41	1826.79
356.62	1820.64
356.83	1810.40
357.04	1910.75
357.25	1699.81
357.46	1722.34
357.68	1734.63
357.89	1718.25
358.10	1845.22
358.31	1755.11
358.52	1806.31
358.73	1710.05
358.94	1787.88
359.15	1767.40
359.36	1824.74
359.57	1785.83
359.78	1716.20
359.99	1773.54
360.20	1683.43
360.41	1814.50
360.62	1855.46
360.83	1884.13
361.04	1796.07
361.25	1853.41
361.46	1951.71
361.67	1834.98
361.88	1857.51
362.09	1931.23
362.30	1857.51
362.51	1773.54
362.72	1855.46
362.93	1888.23
363.14	1830.88
363.35	1849.32
363.56	1802.21
363.78	1949.67
363.99	1871.84
364.20	1828.84
364.41	1822.69
364.62	1976.29
364.83	1767.40
365.04	1767.40
365.25	1834.98
365.46	1861.60
365.67	1665.00
365.88	1798.12
366.09	1800.16
366.30	1785.83
366.51	1845.22
366.72	1734.63
366.93	1781.73
367.14	1787.88
367.35	1908.71
367.56	1802.21
367.77	1882.08
367.98	1816.55
368.18	1806.31
368.39	1853.41
368.60	1738.73
368.81	1873.89
369.02	1822.69
369.23	1849.32
369.44	1773.54
369.65	1824.74
369.86	1861.60
370.07	1914.85
370.28	1746.92
370.49	1818.60
370.70	1794.02
370.91	1765.35
371.12	1757.16
371.33	1888.23
371.54	1812.45
371.75	1902.56
371.96	1769.44
372.17	1884.13
372.38	1751.01
372.59	1859.56
372.80	1757.16
373.01	1812.45
373.22	1808.36
373.43	1826.79
373.64	1710.05
373.85	1882.08
374.06	1927.14
374.26	1847.27
374.47	1779.68
374.68	1927.14
374.89	1896.42
375.10	1718.25
375.31	1834.98
375.52	1830.88
375.73	1779.68
375.94	1703.91
376.15	1853.41
376.36	1794.02
376.57	1718.25
376.78	1804.26
376.99	1808.36
377.20	1927.14
377.40	1781.73
377.61	1912.80
377.82	1734.63
378.03	1857.51
378.24	1808.36
378.45	1845.22
378.66	1894.37
378.87	1714.15
379.08	1708.01
379.29	1826.79
379.50	1855.46
379.71	1779.68
379.91	1877.99
380.12	1873.89
380.33	1824.74
380.54	1875.94
380.75	1767.40
380.96	1830.88
381.17	1871.84
381.38	1822.69
381.59	1855.46
381.80	1851.36
382.00	1986.53
382.21	1855.46
382.42	1970.15
382.63	2058.21
382.84	1894.37
383.05	1953.76
383.26	1888.23
383.47	1830.88
383.68	1875.94
383.88	1843.17
384.09	1751.01
384.30	1916.90
384.51	1746.92
384.72	1779.68
384.93	1699.81
385.14	1884.13
385.35	1869.80
385.55	1730.53
385.76	1914.85
385.97	1826.79
386.18	1755.11
386.39	1761.25
386.60	1798.12
386.81	1812.45
387.02	1753.06
387.22	1834.98
387.43	1804.26
387.64	1929.19
387.85	2013.15
388.06	2207.71
388.27	4132.80
388.48	8824.70
388.68	11949.90
388.89	13711.15
389.10	14653.22
389.31	12904.25
389.52	10428.26
389.73	9166.71
389.93	8255.36
390.14	7571.34
390.35	6952.85
390.56	6274.98
390.77	5146.55
390.98	4081.60
391.18	3121.10
391.39	2514.91
391.60	2054.11
391.81	2004.96
392.02	1806.31
392.23	1978.34
392.43	1804.26
392.64	1910.75
392.85	1830.88
393.06	1996.77
393.27	1775.59
393.47	1791.97
393.68	1771.49
393.89	1775.59
394.10	1857.51
394.31	1736.68
394.52	1812.45
394.72	1746.92
394.93	1914.85
395.14	1861.60
395.35	1816.55
395.56	1777.64
395.76	1789.92
395.97	1820.64
396.18	2015.20
396.39	2029.54
396.60	2244.57
396.80	2039.78
397.01	1943.52
397.22	1996.77
397.43	1994.72
397.64	1849.32
397.84	1953.76
398.05	2029.54
398.26	1841.12
398.47	1888.23
398.67	1939.43
398.88	1800.16
399.09	1902.56
399.30	1755.11
399.51	1828.84
399.71	1785.83
399.92	1816.55
400.13	1789.92
400.34	1789.92
400.54	1806.31
400.75	1890.28
400.96	1898.47
401.17	2015.20
401.37	1877.99
401.58	1746.92
401.79	1810.40
402.00	1961.95
402.21	2158.56
402.41	2109.41
402.62	2187.23
402.83	2373.60
403.04	2312.16
403.24	2330.59
403.45	2050.02
403.66	2066.40
403.87	2025.44
404.07	2021.35
404.28	2090.98
404.49	2035.68
404.70	1916.90
404.90	1839.08
405.11	1845.22
405.32	1920.99
405.52	1812.45
405.73	1787.88
405.94	1791.97
406.15	1859.56
406.35	1841.12
406.56	1886.18
406.77	1777.64
406.98	1857.51
407.18	1804.26
407.39	1904.61
407.60	1755.11
407.80	1855.46
408.01	1873.89
408.22	1826.79
408.43	1738.73
408.63	1861.60
408.84	1894.37
409.05	1837.03
409.25	1775.59
409.46	1771.49
409.67	1773.54
409.88	1798.12
410.08	1800.16
410.29	1771.49
410.50	1851.36
410.70	1875.94
410.91	1779.68
411.12	1841.12
411.32	1722.34
411.53	1705.96
411.74	1892.32
411.95	1884.13
412.15	1953.76
412.36	1910.75
412.57	1853.41
412.77	1945.57
412.98	1843.17
413.19	1814.50
413.39	1849.32
413.60	1800.16
413.81	1933.28
414.01	1769.44
414.22	1902.56
414.43	1886.18
414.63	1871.84
414.84	1845.22
415.05	1824.74
415.25	1671.14
415.46	1927.14
415.67	1804.26
415.87	1814.50
416.08	1820.64
416.29	1769.44
416.49	1822.69
416.70	1783.78
416.91	1789.92
417.11	1902.56
417.32	1832.93
417.53	1890.28
417.73	1867.75
417.94	1785.83
418.15	1837.03
418.35	1779.68
418.56	1808.36
418.77	1996.77
418.97	1873.89
419.18	1802.21
419.38	1734.63
419.59	1787.88
419.80	1851.36
420.00	1808.36
420.21	1798.12
420.42	1818.60
420.62	1748.97
420.83	1724.39
421.04	1871.84
421.24	1845.22
421.45	1789.92
421.65	1843.17
421.86	1748.97
422.07	1869.80
422.27	1855.46
422.48	1837.03
422.69	1779.68
422.89	1751.01
423.10	1826.79
423.30	1716.20
423.51	1867.75
423.72	1867.75
423.92	1865.70
424.13	1767.40
424.33	1851.36
424.54	1832.93
424.75	1820.64
424.95	1990.63
425.16	1834.98
425.36	1806.31
425.57	1869.80
425.78	1808.36
425.98	1947.62
426.19	1847.27
426.39	1746.92
426.60	1794.02
426.81	1923.04
427.01	1789.92
427.22	1859.56
427.42	1662.95
427.63	1892.32
427.83	1890.28
428.04	1992.67
428.25	1892.32
428.45	1869.80
428.66	1908.71
428.86	1869.80
429.07	1783.78
429.28	1839.08
429.48	1855.46
429.69	1771.49
429.89	1894.37
430.10	1710.05
430.30	1802.21
430.51	1847.27
430.71	1822.69
430.92	1892.32
431.13	1791.97
431.33	1834.98
431.54	1828.84
431.74	1916.90
431.95	1939.43
432.15	1732.58
432.36	1845.22
432.56	1865.70
432.77	1886.18
432.98	1912.80
433.18	1830.88
433.39	1773.54
433.59	1734.63
433.80	1900.52
434.00	1955.81
434.21	1779.68
434.41	1824.74
434.62	1986.53
434.82	1796.07
435.03	1767.40
435.23	1816.55
435.44	1753.06
435.64	1783.78
435.85	1853.41
436.06	1865.70
436.26	1894.37
436.47	1742.82
436.67	1796.07
436.88	1877.99
437.08	1914.85
437.29	1873.89
437.49	1812.45
437.70	1902.56
437.90	1757.16
438.11	1898.47
438.31	1869.80
438.52	1972.19
438.72	2037.73
438.93	2064.35
439.13	1902.56
439.34	1937.38
439.54	1927.14
439.75	1888.23
439.95	1886.18
440.16	1798.12
440.36	1882.08
440.57	1837.03
440.77	1832.93
440.98	1802.21
441.18	1810.40
441.39	1857.51
441.59	1783.78
441.80	1931.23
442.00	1830.88
442.21	1896.42
442.41	1716.20
442.62	1918.95
442.82	1787.88
443.02	1845.22
443.23	1908.71
443.43	1834.98
443.64	1929.19
443.84	1808.36
444.05	1992.67
444.25	1875.94
444.46	1753.06
444.66	1826.79
444.87	1951.71
445.07	1783.78
445.28	1892.32
445.48	1877.99
445.69	1886.18
445.89	1927.14
446.09	1861.60
446.30	2045.92
446.50	2555.86
446.71	4108.23
446.91	5312.43
447.12	5906.34
447.32	6227.87
447.53	5640.11
447.73	4730.81
447.93	4087.75
448.14	3901.38
448.34	3719.11
448.55	3250.13
448.75	3182.54
448.96	3082.19
449.16	2844.63
449.36	2623.45
449.57	2195.42
449.77	1966.05
449.98	1920.99
450.18	1880.04
450.39	1937.38
450.59	1882.08
450.79	1861.60
451.00	1828.84
451.20	1847.27
451.41	1832.93
451.61	1841.12
451.81	1810.40
452.02	1812.45
452.22	1843.17
452.43	1773.54
452.63	1814.50
