SpectraSuite Data File
++++++++++++++++++++++++++++++++++++
Date: Wed May 04 21:13:04 CEST 2016
User: root
Dark Spectrum Present: No
Reference Spectrum Present: No
Number of Sampled Component Spectra: 1
Spectrometers: USB4C02835
Integration Time (usec): 100000 (USB4C02835)
Spectra Averaged: 1 (USB4C02835)
Boxcar Smoothing: 0 (USB4C02835)
Correct for Electrical Dark: No (USB4C02835)
Strobe/Lamp Enabled: No (USB4C02835)
Correct for Detector Non-linearity: No (USB4C02835)
Correct for Stray Light: No (USB4C02835)
Number of Pixels in Processed Spectrum: 3648
>>>>>Begin Processed Spectral Data<<<<<
177.47	1560.55
177.69	1560.55
177.91	1560.55
178.13	1552.36
178.36	1503.21
178.58	1767.40
178.80	1761.25
179.02	1654.76
179.24	1804.26
179.46	1751.01
179.68	1787.88
179.90	1724.39
180.13	1849.32
180.35	1798.12
180.57	1865.70
180.79	1837.03
181.01	1818.60
181.23	1873.89
181.45	1896.42
181.67	1828.84
181.90	1853.41
182.12	1751.01
182.34	1837.03
182.56	1871.84
182.78	1812.45
183.00	1814.50
183.22	1785.83
183.44	1775.59
183.66	1929.19
183.89	1937.38
184.11	1757.16
184.33	1818.60
184.55	1849.32
184.77	1818.60
184.99	1824.74
185.21	1755.11
185.43	2011.11
185.65	1763.30
185.87	1853.41
186.10	1857.51
186.32	1861.60
186.54	1841.12
186.76	1837.03
186.98	1877.99
187.20	1777.64
187.42	1865.70
187.64	1800.16
187.86	1785.83
188.08	1871.84
188.30	1769.44
188.52	1837.03
188.75	1877.99
188.97	1976.29
189.19	1816.55
189.41	1830.88
189.63	1865.70
189.85	1808.36
190.07	1775.59
190.29	1746.92
190.51	1847.27
190.73	1730.53
190.95	1896.42
191.17	1757.16
191.39	1714.15
191.61	1767.40
191.84	1796.07
192.06	1773.54
192.28	1677.29
192.50	2050.02
192.72	1863.65
192.94	1837.03
193.16	1851.36
193.38	1863.65
193.60	1724.39
193.82	1796.07
194.04	1882.08
194.26	1826.79
194.48	1798.12
194.70	1783.78
194.92	1804.26
195.14	1826.79
195.36	1730.53
195.58	1882.08
195.80	1806.31
196.02	1714.15
196.24	1826.79
196.46	1834.98
196.69	1806.31
196.91	1988.58
197.13	1812.45
197.35	1755.11
197.57	1914.85
197.79	1804.26
198.01	1814.50
198.23	1806.31
198.45	1798.12
198.67	1734.63
198.89	1763.30
199.11	1939.43
199.33	1740.77
199.55	1732.58
199.77	1767.40
199.99	1834.98
200.21	1853.41
200.43	1824.74
200.65	1789.92
200.87	1693.67
201.09	1837.03
201.31	1767.40
201.53	1787.88
201.75	1910.75
201.97	1851.36
202.19	1765.35
202.41	1849.32
202.63	1949.67
202.85	1859.56
203.07	1779.68
203.29	1724.39
203.51	1736.68
203.73	1738.73
203.95	2031.58
204.17	1845.22
204.39	1845.22
204.61	1800.16
204.83	1753.06
205.05	1865.70
205.27	1798.12
205.49	1927.14
205.71	1734.63
205.93	1677.29
206.15	1685.48
206.37	1783.78
206.59	1763.30
206.81	1722.34
207.03	1691.62
207.25	1732.58
207.47	1857.51
207.69	1767.40
207.91	1925.09
208.13	1951.71
208.34	1759.21
208.56	1710.05
208.78	1865.70
209.00	1787.88
209.22	1779.68
209.44	1777.64
209.66	1781.73
209.88	1857.51
210.10	1779.68
210.32	1812.45
210.54	1867.75
210.76	1822.69
210.98	1839.08
211.20	1642.47
211.42	1859.56
211.64	1884.13
211.86	1853.41
212.08	1859.56
212.30	1855.46
212.52	1824.74
212.74	1814.50
212.96	1773.54
213.17	1855.46
213.39	1855.46
213.61	1900.52
213.83	1787.88
214.05	1845.22
214.27	1853.41
214.49	1734.63
214.71	1710.05
214.93	1910.75
215.15	1726.44
215.37	1845.22
215.59	1681.38
215.81	1781.73
216.03	1910.75
216.24	1794.02
216.46	1800.16
216.68	1894.37
216.90	1857.51
217.12	1906.66
217.34	1783.78
217.56	1849.32
217.78	1890.28
218.00	1828.84
218.22	1789.92
218.44	1820.64
218.66	1820.64
218.87	1996.77
219.09	1732.58
219.31	1796.07
219.53	1791.97
219.75	1822.69
219.97	1851.36
220.19	1812.45
220.41	1748.97
220.63	1908.71
220.85	1796.07
221.06	1718.25
221.28	1869.80
221.50	1863.65
221.72	1863.65
221.94	1779.68
222.16	1886.18
222.38	1863.65
222.60	1916.90
222.82	1787.88
223.03	1896.42
223.25	1751.01
223.47	1832.93
223.69	1929.19
223.91	1877.99
224.13	1812.45
224.35	1763.30
224.57	1787.88
224.78	1828.84
225.00	1777.64
225.22	1787.88
225.44	1767.40
225.66	1818.60
225.88	1796.07
226.10	1865.70
226.32	1845.22
226.53	1871.84
226.75	1767.40
226.97	1857.51
227.19	1828.84
227.41	1736.68
227.63	1794.02
227.85	1654.76
228.06	1826.79
228.28	1818.60
228.50	1845.22
228.72	1771.49
228.94	1765.35
229.16	1753.06
229.37	1726.44
229.59	1820.64
229.81	1834.98
230.03	1751.01
230.25	1708.01
230.47	1789.92
230.69	1648.61
230.90	1894.37
231.12	1775.59
231.34	1781.73
231.56	1849.32
231.78	1767.40
232.00	1798.12
232.21	1796.07
232.43	1736.68
232.65	1734.63
232.87	1808.36
233.09	1804.26
233.30	1839.08
233.52	1863.65
233.74	1812.45
233.96	1671.14
234.18	1853.41
234.40	1791.97
234.61	1914.85
234.83	1726.44
235.05	1738.73
235.27	1966.05
235.49	1931.23
235.70	1779.68
235.92	1861.60
236.14	1888.23
236.36	1910.75
236.58	1779.68
236.79	1861.60
237.01	1789.92
237.23	1755.11
237.45	1980.39
237.67	1783.78
237.88	1822.69
238.10	1896.42
238.32	1759.21
238.54	1787.88
238.76	1781.73
238.97	1724.39
239.19	1814.50
239.41	1863.65
239.63	1824.74
239.85	1783.78
240.06	1759.21
240.28	1693.67
240.50	1873.89
240.72	1798.12
240.93	1849.32
241.15	1769.44
241.37	1882.08
241.59	1925.09
241.81	1761.25
242.02	1767.40
242.24	1845.22
242.46	1865.70
242.68	1744.87
242.89	1851.36
243.11	1828.84
243.33	1841.12
243.55	1839.08
243.76	1849.32
243.98	1826.79
244.20	1820.64
244.42	1779.68
244.64	1851.36
244.85	1714.15
245.07	1732.58
245.29	1791.97
245.51	1816.55
245.72	1794.02
245.94	1916.90
246.16	1834.98
246.38	1830.88
246.59	1806.31
246.81	1724.39
247.03	1824.74
247.24	1681.38
247.46	1837.03
247.68	1804.26
247.90	1746.92
248.11	1783.78
248.33	1873.89
248.55	1828.84
248.77	1818.60
248.98	1832.93
249.20	1961.95
249.42	1834.98
249.64	1796.07
249.85	1734.63
250.07	1794.02
250.29	1837.03
250.50	1820.64
250.72	1787.88
250.94	1763.30
251.16	1945.57
251.37	1927.14
251.59	1812.45
251.81	1898.47
252.02	1923.04
252.24	1812.45
252.46	1929.19
252.68	1794.02
252.89	1759.21
253.11	1791.97
253.33	1890.28
253.54	1892.32
253.76	1740.77
253.98	1773.54
254.20	1830.88
254.41	1722.34
254.63	1847.27
254.85	1714.15
255.06	1849.32
255.28	1851.36
255.50	1832.93
255.71	1753.06
255.93	1714.15
256.15	1853.41
256.36	1832.93
256.58	1837.03
256.80	1884.13
257.02	1834.98
257.23	1742.82
257.45	1773.54
257.67	1798.12
257.88	1724.39
258.10	1837.03
258.32	1892.32
258.53	1767.40
258.75	1890.28
258.97	1814.50
259.18	1804.26
259.40	1871.84
259.62	1941.47
259.83	1861.60
260.05	1853.41
260.27	2111.46
260.48	1845.22
260.70	1687.53
260.92	1744.87
261.13	1843.17
261.35	1810.40
261.57	1800.16
261.78	1810.40
262.00	1732.58
262.22	1796.07
262.43	1753.06
262.65	1863.65
262.86	1783.78
263.08	1918.95
263.30	1857.51
263.51	1677.29
263.73	1755.11
263.95	1951.71
264.16	1812.45
264.38	1679.33
264.60	1794.02
264.81	1806.31
265.03	1828.84
265.25	1818.60
265.46	1781.73
265.68	1902.56
265.89	1904.61
266.11	1644.52
266.33	1853.41
266.54	1767.40
266.76	1808.36
266.98	1853.41
267.19	1828.84
267.41	1900.52
267.62	1855.46
267.84	1712.10
268.06	1843.17
268.27	1773.54
268.49	1812.45
268.70	1826.79
268.92	1791.97
269.14	1783.78
269.35	1728.49
269.57	1830.88
269.79	1775.59
270.00	1703.91
270.22	1863.65
270.43	1818.60
270.65	1667.05
270.87	1798.12
271.08	1837.03
271.30	1830.88
271.51	1828.84
271.73	1877.99
271.95	1906.66
272.16	1851.36
272.38	1771.49
272.59	1736.68
272.81	1871.84
273.02	1802.21
273.24	1861.60
273.46	1865.70
273.67	1683.43
273.89	1767.40
274.10	1828.84
274.32	1910.75
274.54	1873.89
274.75	1824.74
274.97	1802.21
275.18	1861.60
275.40	1757.16
275.61	1703.91
275.83	1787.88
276.05	1837.03
276.26	1902.56
276.48	1851.36
276.69	1771.49
276.91	1751.01
277.12	1873.89
277.34	1863.65
277.55	1820.64
277.77	1855.46
277.99	1722.34
278.20	1796.07
278.42	1699.81
278.63	1843.17
278.85	1755.11
279.06	1722.34
279.28	1822.69
279.49	1890.28
279.71	1812.45
279.93	1814.50
280.14	1783.78
280.36	1800.16
280.57	1902.56
280.79	1837.03
281.00	1783.78
281.22	1837.03
281.43	1824.74
281.65	1744.87
281.86	1732.58
282.08	1882.08
282.29	1902.56
282.51	1734.63
282.73	1714.15
282.94	1660.90
283.16	1890.28
283.37	1982.43
283.59	1794.02
283.80	1816.55
284.02	1755.11
284.23	1757.16
284.45	1845.22
284.66	1816.55
284.88	1773.54
285.09	1791.97
285.31	1724.39
285.52	1845.22
285.74	1765.35
285.95	1853.41
286.17	1853.41
286.38	1902.56
286.60	1851.36
286.81	1806.31
287.03	1841.12
287.24	1742.82
287.46	1794.02
287.67	1828.84
287.89	1910.75
288.10	1841.12
288.32	1841.12
288.53	1810.40
288.75	1816.55
288.96	1849.32
289.18	1769.44
289.39	1751.01
289.61	1804.26
289.82	2027.49
290.04	1959.91
290.25	1728.49
290.47	1812.45
290.68	1777.64
290.90	1871.84
291.11	1710.05
291.33	1820.64
291.54	1734.63
291.76	1761.25
291.97	1875.94
292.18	1894.37
292.40	1789.92
292.61	1746.92
292.83	1931.23
293.04	1902.56
293.26	1834.98
293.47	1789.92
293.69	1677.29
293.90	1892.32
294.12	1873.89
294.33	1816.55
294.55	1779.68
294.76	1882.08
294.97	1873.89
295.19	2009.06
295.40	1824.74
295.62	1843.17
295.83	1882.08
296.05	1775.59
296.26	1877.99
296.48	1818.60
296.69	1775.59
296.90	1761.25
297.12	1880.04
297.33	1794.02
297.55	1851.36
297.76	1867.75
297.98	1787.88
298.19	1757.16
298.41	1794.02
298.62	1730.53
298.83	1925.09
299.05	1814.50
299.26	1824.74
299.48	1783.78
299.69	1779.68
299.90	1816.55
300.12	1728.49
300.33	1898.47
300.55	1753.06
300.76	1884.13
300.98	1718.25
301.19	1859.56
301.40	1794.02
301.62	1755.11
301.83	1783.78
302.05	1759.21
302.26	1814.50
302.47	1740.77
302.69	1791.97
302.90	1751.01
303.12	1693.67
303.33	1851.36
303.54	1943.52
303.76	1726.44
303.97	1796.07
304.19	1916.90
304.40	1800.16
304.61	1822.69
304.83	1972.19
305.04	1904.61
305.26	1867.75
305.47	1763.30
305.68	1769.44
305.90	1671.14
306.11	1783.78
306.33	1812.45
306.54	1804.26
306.75	1775.59
306.97	1728.49
307.18	1794.02
307.39	1779.68
307.61	1810.40
307.82	1742.82
308.04	1877.99
308.25	1746.92
308.46	1806.31
308.68	1777.64
308.89	1816.55
309.10	1863.65
309.32	1927.14
309.53	1802.21
309.74	1810.40
309.96	1746.92
310.17	1912.80
310.39	1812.45
310.60	1865.70
310.81	1851.36
311.03	1748.97
311.24	1861.60
311.45	1783.78
311.67	1902.56
311.88	1849.32
312.09	1808.36
312.31	1761.25
312.52	1822.69
312.73	1796.07
312.95	1685.48
313.16	1755.11
313.37	1937.38
313.59	1767.40
313.80	1869.80
314.01	1939.43
314.23	1746.92
314.44	1826.79
314.65	1748.97
314.87	1789.92
315.08	1818.60
315.29	1810.40
315.51	1724.39
315.72	1757.16
315.93	1925.09
316.15	1832.93
316.36	1742.82
316.57	1757.16
316.79	1859.56
317.00	1748.97
317.21	1880.04
317.43	1689.57
317.64	1837.03
317.85	1796.07
318.07	1806.31
318.28	1888.23
318.49	2021.35
318.70	2068.45
318.92	2037.73
319.13	2068.45
319.34	2035.68
319.56	1904.61
319.77	1890.28
319.98	1861.60
320.20	1896.42
320.41	1898.47
320.62	1877.99
320.83	1728.49
321.05	2017.25
321.26	1920.99
321.47	1857.51
321.69	1906.66
321.90	1708.01
322.11	1837.03
322.32	1765.35
322.54	1920.99
322.75	1761.25
322.96	1972.19
323.18	1691.62
323.39	1605.61
323.60	1730.53
323.81	1902.56
324.03	1812.45
324.24	1830.88
324.45	1763.30
324.66	1804.26
324.88	1869.80
325.09	1902.56
325.30	1802.21
325.52	1814.50
325.73	1820.64
325.94	1804.26
326.15	1681.38
326.37	1771.49
326.58	1841.12
326.79	1859.56
327.00	1716.20
327.22	1791.97
327.43	1837.03
327.64	1767.40
327.85	1775.59
328.07	1873.89
328.28	1941.47
328.49	1808.36
328.70	1791.97
328.92	1742.82
329.13	1802.21
329.34	1904.61
329.55	1955.81
329.76	1847.27
329.98	1812.45
330.19	1918.95
330.40	1886.18
330.61	1853.41
330.83	1808.36
331.04	1732.58
331.25	1822.69
331.46	1765.35
331.68	1732.58
331.89	1855.46
332.10	1798.12
332.31	1748.97
332.52	1828.84
332.74	1935.33
332.95	1683.43
333.16	1738.73
333.37	1832.93
333.58	1736.68
333.80	1798.12
334.01	1732.58
334.22	1771.49
334.43	1765.35
334.64	1714.15
334.86	1673.19
335.07	1769.44
335.28	1869.80
335.49	1699.81
335.70	1824.74
335.92	1902.56
336.13	1873.89
336.34	1802.21
336.55	1814.50
336.76	1882.08
336.98	1720.29
337.19	1791.97
337.40	1845.22
337.61	1937.38
337.82	1794.02
338.04	1869.80
338.25	1738.73
338.46	1810.40
338.67	1822.69
338.88	1798.12
339.09	1765.35
339.31	1761.25
339.52	1769.44
339.73	1775.59
339.94	1845.22
340.15	1820.64
340.36	1722.34
340.58	1796.07
340.79	1687.53
341.00	1837.03
341.21	1724.39
341.42	1873.89
341.63	1679.33
341.85	1894.37
342.06	1867.75
342.27	1759.21
342.48	1847.27
342.69	1703.91
342.90	1890.28
343.12	1918.95
343.33	1791.97
343.54	1837.03
343.75	1931.23
343.96	1767.40
344.17	1783.78
344.38	1828.84
344.60	1742.82
344.81	1771.49
345.02	1822.69
345.23	1892.32
345.44	2029.54
345.65	1777.64
345.86	1855.46
346.07	1769.44
346.29	1767.40
346.50	1853.41
346.71	1781.73
346.92	1880.04
347.13	1951.71
347.34	1855.46
347.55	1730.53
347.76	1837.03
347.98	1734.63
348.19	1818.60
348.40	1912.80
348.61	1794.02
348.82	1818.60
349.03	1834.98
349.24	1755.11
349.45	1951.71
349.66	1693.67
349.88	1826.79
350.09	1755.11
350.30	1767.40
350.51	1916.90
350.72	1869.80
350.93	1861.60
351.14	1773.54
351.35	1849.32
351.56	1818.60
351.77	1779.68
351.99	1855.46
352.20	1968.10
352.41	1865.70
352.62	1724.39
352.83	1748.97
353.04	1826.79
353.25	1728.49
353.46	1851.36
353.67	1828.84
353.88	1710.05
354.09	1855.46
354.30	1724.39
354.52	1890.28
354.73	1886.18
354.94	1830.88
355.15	1822.69
355.36	1867.75
355.57	1738.73
355.78	1880.04
355.99	1755.11
356.20	1759.21
356.41	1847.27
356.62	1806.31
356.83	1816.55
357.04	1900.52
357.25	1738.73
357.46	1832.93
357.68	1738.73
357.89	1812.45
358.10	1826.79
358.31	1953.76
358.52	1796.07
358.73	1761.25
358.94	1789.92
359.15	1808.36
359.36	1847.27
359.57	1841.12
359.78	1804.26
359.99	1798.12
360.20	1802.21
360.41	1742.82
360.62	1822.69
360.83	1812.45
361.04	1830.88
361.25	1953.76
361.46	1990.63
361.67	1812.45
361.88	1814.50
362.09	1923.04
362.30	1748.97
362.51	1775.59
362.72	1820.64
362.93	1865.70
363.14	1830.88
363.35	1875.94
363.56	1767.40
363.78	1806.31
363.99	1814.50
364.20	1877.99
364.41	1804.26
364.62	1943.52
364.83	1794.02
365.04	1830.88
365.25	1818.60
365.46	1925.09
365.67	1757.16
365.88	1806.31
366.09	1732.58
366.30	1820.64
366.51	1834.98
366.72	1705.96
366.93	1824.74
367.14	1843.17
367.35	1994.72
367.56	1894.37
367.77	1851.36
367.98	1849.32
368.18	1916.90
368.39	1902.56
368.60	1730.53
368.81	1841.12
369.02	1853.41
369.23	1834.98
369.44	1748.97
369.65	1744.87
369.86	1886.18
370.07	1814.50
370.28	1773.54
370.49	1892.32
370.70	1871.84
370.91	1634.28
371.12	1722.34
371.33	1873.89
371.54	1796.07
371.75	1902.56
371.96	1697.77
372.17	1890.28
372.38	1791.97
372.59	1863.65
372.80	1791.97
373.01	1828.84
373.22	1837.03
373.43	1830.88
373.64	1740.77
373.85	1884.13
374.06	1877.99
374.26	1877.99
374.47	1791.97
374.68	1964.00
374.89	1789.92
375.10	1787.88
375.31	1783.78
375.52	1697.77
375.73	1726.44
375.94	1810.40
376.15	1951.71
376.36	1800.16
376.57	1804.26
376.78	1708.01
376.99	1843.17
377.20	1837.03
377.40	1767.40
377.61	1939.43
377.82	1771.49
378.03	1882.08
378.24	1816.55
378.45	1890.28
378.66	1796.07
378.87	1677.29
379.08	1783.78
379.29	1769.44
379.50	1863.65
379.71	1826.79
379.91	1830.88
380.12	1806.31
380.33	1810.40
380.54	1828.84
380.75	1845.22
380.96	1757.16
381.17	1857.51
381.38	1800.16
381.59	1851.36
381.80	1843.17
382.00	1939.43
382.21	1923.04
382.42	1966.05
382.63	2025.44
382.84	1943.52
383.05	1966.05
383.26	1974.24
383.47	1894.37
383.68	1890.28
383.88	1898.47
384.09	1832.93
384.30	2004.96
384.51	1847.27
384.72	1775.59
384.93	1787.88
385.14	1806.31
385.35	1800.16
385.55	1748.97
385.76	1894.37
385.97	1877.99
386.18	1761.25
386.39	1777.64
386.60	1886.18
386.81	1787.88
387.02	1828.84
387.22	1814.50
387.43	1906.66
387.64	1974.24
387.85	1949.67
388.06	2224.09
388.27	4204.48
388.48	8775.55
388.68	11966.28
388.89	13780.78
389.10	14804.77
389.31	12990.27
389.52	10430.30
389.73	8925.05
389.93	8324.99
390.14	7628.68
390.35	6750.10
390.56	6283.17
390.77	5158.83
390.98	4052.93
391.18	3149.78
391.39	2402.27
391.60	1994.72
391.81	2031.58
392.02	1785.83
392.23	1968.10
392.43	1824.74
392.64	1957.86
392.85	1800.16
393.06	1939.43
393.27	1837.03
393.47	1820.64
393.68	1845.22
393.89	1757.16
394.10	1820.64
394.31	1812.45
394.52	1781.73
394.72	1781.73
394.93	1902.56
395.14	1830.88
395.35	1800.16
395.56	1869.80
395.76	1867.75
395.97	1841.12
396.18	1937.38
396.39	2002.91
396.60	2131.94
396.80	2103.26
397.01	2019.30
397.22	2009.06
397.43	1978.34
397.64	1808.36
397.84	1873.89
398.05	2125.79
398.26	1961.95
398.47	1988.58
398.67	1810.40
398.88	1896.42
399.09	1898.47
399.30	1820.64
399.51	1832.93
399.71	1722.34
399.92	1841.12
400.13	1820.64
400.34	1865.70
400.54	1841.12
400.75	1898.47
400.96	1898.47
401.17	1888.23
401.37	1873.89
401.58	1798.12
401.79	1859.56
402.00	1970.15
402.21	2160.61
402.41	2113.50
402.62	2222.05
402.83	2224.09
403.04	2209.76
403.24	2373.60
403.45	2004.96
403.66	2146.27
403.87	2052.06
404.07	2013.15
404.28	2039.78
404.49	1937.38
404.70	1898.47
404.90	1898.47
405.11	1861.60
405.32	1849.32
405.52	1769.44
405.73	1783.78
405.94	1720.29
406.15	1789.92
406.35	1920.99
406.56	1877.99
406.77	1814.50
406.98	1828.84
407.18	1802.21
407.39	1898.47
407.60	1802.21
407.80	1812.45
408.01	1800.16
408.22	1832.93
408.43	1724.39
408.63	1849.32
408.84	1820.64
409.05	1875.94
409.25	1714.15
409.46	1748.97
409.67	1726.44
409.88	1771.49
410.08	1867.75
410.29	1753.06
410.50	1814.50
410.70	1845.22
410.91	1804.26
411.12	1806.31
411.32	1851.36
411.53	1783.78
411.74	1914.85
411.95	1970.15
412.15	1941.47
412.36	1920.99
412.57	1871.84
412.77	1906.66
412.98	1888.23
413.19	1834.98
413.39	1834.98
413.60	1873.89
413.81	1906.66
414.01	1730.53
414.22	1849.32
414.43	1877.99
414.63	1890.28
414.84	1882.08
415.05	1800.16
415.25	1800.16
415.46	1880.04
415.67	1703.91
415.87	1871.84
416.08	1820.64
416.29	1773.54
416.49	1890.28
416.70	1716.20
416.91	1757.16
417.11	1759.21
417.32	1832.93
417.53	1832.93
417.73	1810.40
417.94	1861.60
418.15	1888.23
418.35	1851.36
418.56	1806.31
418.77	1937.38
418.97	1787.88
419.18	1841.12
419.38	1654.76
419.59	1861.60
419.80	1988.58
420.00	1884.13
420.21	1800.16
420.42	1796.07
420.62	1814.50
420.83	1703.91
421.04	1830.88
421.24	1863.65
421.45	1837.03
421.65	1812.45
421.86	1740.77
422.07	1845.22
422.27	1884.13
422.48	1849.32
422.69	1796.07
422.89	1826.79
423.10	1763.30
423.30	1697.77
423.51	1918.95
423.72	1816.55
423.92	1800.16
424.13	1794.02
424.33	1804.26
424.54	1880.04
424.75	1810.40
424.95	1918.95
425.16	1861.60
425.36	1779.68
425.57	1900.52
425.78	1830.88
425.98	1832.93
426.19	1847.27
426.39	1759.21
426.60	1742.82
426.81	1959.91
427.01	1863.65
427.22	1742.82
427.42	1677.29
427.63	1755.11
427.83	1847.27
428.04	1986.53
428.25	1900.52
428.45	1863.65
428.66	1808.36
428.86	1816.55
429.07	1757.16
429.28	1791.97
429.48	1757.16
429.69	1720.29
429.89	1787.88
430.10	1771.49
430.30	1935.33
430.51	1871.84
430.71	1814.50
430.92	1802.21
431.13	1785.83
431.33	1800.16
431.54	1873.89
431.74	1892.32
431.95	1910.75
432.15	1718.25
432.36	1763.30
432.56	1834.98
432.77	1857.51
432.98	1953.76
433.18	1824.74
433.39	1863.65
433.59	1779.68
433.80	1906.66
434.00	2019.30
434.21	1763.30
434.41	1816.55
434.62	1988.58
434.82	1751.01
435.03	1796.07
435.23	1804.26
435.44	1697.77
435.64	1865.70
435.85	1828.84
436.06	1914.85
436.26	1974.24
436.47	1839.08
436.67	1806.31
436.88	1830.88
437.08	1841.12
437.29	1927.14
437.49	1900.52
437.70	1933.28
437.90	1769.44
438.11	1912.80
438.31	2002.91
438.52	1964.00
438.72	2039.78
438.93	2105.31
439.13	1851.36
439.34	2015.20
439.54	1902.56
439.75	1884.13
439.95	1855.46
440.16	1820.64
440.36	1877.99
440.57	1867.75
440.77	1875.94
440.98	1933.28
441.18	1859.56
441.39	1783.78
441.59	1732.58
441.80	2002.91
442.00	1916.90
442.21	1931.23
442.41	1755.11
442.62	1834.98
442.82	1746.92
443.02	1818.60
443.23	1877.99
443.43	1757.16
443.64	1882.08
443.84	1822.69
444.05	2021.35
444.25	1910.75
444.46	1773.54
444.66	1820.64
444.87	1927.14
445.07	1722.34
445.28	1810.40
445.48	1906.66
445.69	1880.04
445.89	1974.24
446.09	1882.08
446.30	2101.22
446.50	2519.00
446.71	4188.10
446.91	5164.98
447.12	5908.39
447.32	6293.41
447.53	5707.69
447.73	4638.65
447.93	4237.25
448.14	3712.97
448.34	3473.36
448.55	3250.13
448.75	3090.38
448.96	3084.24
449.16	2856.92
449.36	2486.23
449.57	2199.52
449.77	2000.87
449.98	1904.61
450.18	2002.91
450.39	1875.94
450.59	1925.09
450.79	1890.28
451.00	1787.88
451.20	1898.47
451.41	1884.13
451.61	1877.99
451.81	1818.60
452.02	1847.27
452.22	1787.88
452.43	1783.78
452.63	1847.27
