SpectraSuite Data File
++++++++++++++++++++++++++++++++++++
Date: Wed May 04 21:13:31 CEST 2016
User: root
Dark Spectrum Present: No
Reference Spectrum Present: No
Number of Sampled Component Spectra: 1
Spectrometers: USB4C02835
Integration Time (usec): 100000 (USB4C02835)
Spectra Averaged: 1 (USB4C02835)
Boxcar Smoothing: 0 (USB4C02835)
Correct for Electrical Dark: No (USB4C02835)
Strobe/Lamp Enabled: No (USB4C02835)
Correct for Detector Non-linearity: No (USB4C02835)
Correct for Stray Light: No (USB4C02835)
Number of Pixels in Processed Spectrum: 3648
>>>>>Begin Processed Spectral Data<<<<<
177.47	1558.50
177.69	1558.50
177.91	1558.50
178.13	1511.40
178.36	1505.26
178.58	1757.16
178.80	1837.03
179.02	1693.67
179.24	1755.11
179.46	1785.83
179.68	1955.81
179.90	1703.91
180.13	1748.97
180.35	1763.30
180.57	1806.31
180.79	1906.66
181.01	1810.40
181.23	1779.68
181.45	1943.52
181.67	1828.84
181.90	1865.70
182.12	1679.33
182.34	1787.88
182.56	1888.23
182.78	1861.60
183.00	1712.10
183.22	1882.08
183.44	1695.72
183.66	1966.05
183.89	1900.52
184.11	1785.83
184.33	1863.65
184.55	1916.90
184.77	1847.27
184.99	1779.68
185.21	1796.07
185.43	1953.76
185.65	1828.84
185.87	1841.12
186.10	1945.57
186.32	1980.39
186.54	1875.94
186.76	1828.84
186.98	1920.99
187.20	1861.60
187.42	1851.36
187.64	1824.74
187.86	1839.08
188.08	1871.84
188.30	1818.60
188.52	1816.55
188.75	1832.93
188.97	1894.37
189.19	1677.29
189.41	1841.12
189.63	1845.22
189.85	1806.31
190.07	1771.49
190.29	1714.15
190.51	1806.31
190.73	1775.59
190.95	1849.32
191.17	1853.41
191.39	1763.30
191.61	1708.01
191.84	1755.11
192.06	1824.74
192.28	1693.67
192.50	1959.91
192.72	1824.74
192.94	1781.73
193.16	1871.84
193.38	1888.23
193.60	1755.11
193.82	1769.44
194.04	1920.99
194.26	1882.08
194.48	1742.82
194.70	1773.54
194.92	1748.97
195.14	1812.45
195.36	1796.07
195.58	1773.54
195.80	1763.30
196.02	1736.68
196.24	1781.73
196.46	1791.97
196.69	1798.12
196.91	1951.71
197.13	1773.54
197.35	1806.31
197.57	1824.74
197.79	1861.60
198.01	1867.75
198.23	1777.64
198.45	1851.36
198.67	1794.02
198.89	1865.70
199.11	1808.36
199.33	1697.77
199.55	1683.43
199.77	1820.64
199.99	1882.08
200.21	1763.30
200.43	1861.60
200.65	1796.07
200.87	1699.81
201.09	1800.16
201.31	1759.21
201.53	1863.65
201.75	1789.92
201.97	1845.22
202.19	1755.11
202.41	1945.57
202.63	1984.48
202.85	1843.17
203.07	1857.51
203.29	1708.01
203.51	1742.82
203.73	1816.55
203.95	2027.49
204.17	1867.75
204.39	1861.60
204.61	1722.34
204.83	1810.40
205.05	1929.19
205.27	1796.07
205.49	1898.47
205.71	1773.54
205.93	1757.16
206.15	1714.15
206.37	1808.36
206.59	1841.12
206.81	1671.14
207.03	1794.02
207.25	1785.83
207.47	1828.84
207.69	1859.56
207.91	1837.03
208.13	1902.56
208.34	1701.86
208.56	1722.34
208.78	1794.02
209.00	1818.60
209.22	1789.92
209.44	1880.04
209.66	1783.78
209.88	1816.55
210.10	1716.20
210.32	1837.03
210.54	1908.71
210.76	1728.49
210.98	1869.80
211.20	1660.90
211.42	1783.78
211.64	1853.41
211.86	1775.59
212.08	1892.32
212.30	1771.49
212.52	1769.44
212.74	1812.45
212.96	1832.93
213.17	1822.69
213.39	1853.41
213.61	1888.23
213.83	1787.88
214.05	1828.84
214.27	1906.66
214.49	1697.77
214.71	1755.11
214.93	1886.18
215.15	1853.41
215.37	1744.87
215.59	1728.49
215.81	1818.60
216.03	1877.99
216.24	1828.84
216.46	1779.68
216.68	1908.71
216.90	1886.18
217.12	1910.75
217.34	1830.88
217.56	1812.45
217.78	1925.09
218.00	1796.07
218.22	1794.02
218.44	1869.80
218.66	1738.73
218.87	1914.85
219.09	1800.16
219.31	1751.01
219.53	1841.12
219.75	1812.45
219.97	1812.45
220.19	1742.82
220.41	1796.07
220.63	1957.86
220.85	1867.75
221.06	1761.25
221.28	1849.32
221.50	1841.12
221.72	1810.40
221.94	1775.59
222.16	1812.45
222.38	1882.08
222.60	1789.92
222.82	1765.35
223.03	1890.28
223.25	1830.88
223.47	1746.92
223.69	1894.37
223.91	1867.75
224.13	1705.96
224.35	1785.83
224.57	1826.79
224.78	1875.94
225.00	1763.30
225.22	1832.93
225.44	1757.16
225.66	1900.52
225.88	1722.34
226.10	1826.79
226.32	1798.12
226.53	1949.67
226.75	1806.31
226.97	1808.36
227.19	1755.11
227.41	1777.64
227.63	1892.32
227.85	1744.87
228.06	1816.55
228.28	1828.84
228.50	1822.69
228.72	1751.01
228.94	1765.35
229.16	1691.62
229.37	1826.79
229.59	1800.16
229.81	1914.85
230.03	1761.25
230.25	1767.40
230.47	1693.67
230.69	1730.53
230.90	1851.36
231.12	1773.54
231.34	1882.08
231.56	1855.46
231.78	1744.87
232.00	1822.69
232.21	1796.07
232.43	1759.21
232.65	1689.57
232.87	1832.93
233.09	1771.49
233.30	1841.12
233.52	1787.88
233.74	1771.49
233.96	1771.49
234.18	1822.69
234.40	1806.31
234.61	1970.15
234.83	1710.05
235.05	1716.20
235.27	1982.43
235.49	1837.03
235.70	1779.68
235.92	1855.46
236.14	1806.31
236.36	1931.23
236.58	1734.63
236.79	1904.61
237.01	1828.84
237.23	1837.03
237.45	1945.57
237.67	1796.07
237.88	1875.94
238.10	1976.29
238.32	1761.25
238.54	1800.16
238.76	1904.61
238.97	1767.40
239.19	1742.82
239.41	1853.41
239.63	1877.99
239.85	1757.16
240.06	1767.40
240.28	1753.06
240.50	1910.75
240.72	1820.64
240.93	1757.16
241.15	1865.70
241.37	1818.60
241.59	1937.38
241.81	1900.52
242.02	1767.40
242.24	1845.22
242.46	1890.28
242.68	1695.72
242.89	1847.27
243.11	1867.75
243.33	1812.45
243.55	1849.32
243.76	1875.94
243.98	1873.89
244.20	1824.74
244.42	1880.04
244.64	1843.17
244.85	1718.25
245.07	1757.16
245.29	1818.60
245.51	1753.06
245.72	1796.07
245.94	1847.27
246.16	1794.02
246.38	1877.99
246.59	1732.58
246.81	1802.21
247.03	1744.87
247.24	1656.81
247.46	1734.63
247.68	1775.59
247.90	1767.40
248.11	1697.77
248.33	1863.65
248.55	1781.73
248.77	1798.12
248.98	1861.60
249.20	1964.00
249.42	1828.84
249.64	1800.16
249.85	1777.64
250.07	1820.64
250.29	1904.61
250.50	1900.52
250.72	1689.57
250.94	1816.55
251.16	1964.00
251.37	1791.97
251.59	1882.08
251.81	1837.03
252.02	1896.42
252.24	1740.77
252.46	1875.94
252.68	1785.83
252.89	1771.49
253.11	1697.77
253.33	1900.52
253.54	1896.42
253.76	1685.48
253.98	1853.41
254.20	1765.35
254.41	1751.01
254.63	1843.17
254.85	1738.73
255.06	1841.12
255.28	1890.28
255.50	1832.93
255.71	1769.44
255.93	1667.05
256.15	1861.60
256.36	1916.90
256.58	1755.11
256.80	1832.93
257.02	1808.36
257.23	1837.03
257.45	1796.07
257.67	1888.23
257.88	1728.49
258.10	1910.75
258.32	1832.93
258.53	1837.03
258.75	1853.41
258.97	1730.53
259.18	1863.65
259.40	1748.97
259.62	1869.80
259.83	1884.13
260.05	1853.41
260.27	2136.03
260.48	1845.22
260.70	1742.82
260.92	1894.37
261.13	1808.36
261.35	1882.08
261.57	1828.84
261.78	1650.66
262.00	1755.11
262.22	1773.54
262.43	1759.21
262.65	1824.74
262.86	1767.40
263.08	2007.01
263.30	1873.89
263.51	1640.42
263.73	1703.91
263.95	1771.49
264.16	1718.25
264.38	1728.49
264.60	1818.60
264.81	1845.22
265.03	1920.99
265.25	1873.89
265.46	1755.11
265.68	1832.93
265.89	1830.88
266.11	1736.68
266.33	1861.60
266.54	1925.09
266.76	1832.93
266.98	1843.17
267.19	1964.00
267.41	1812.45
267.62	1765.35
267.84	1621.99
268.06	1886.18
268.27	1826.79
268.49	1914.85
268.70	1927.14
268.92	1814.50
269.14	1832.93
269.35	1716.20
269.57	1814.50
269.79	1888.23
270.00	1757.16
270.22	1910.75
270.43	1712.10
270.65	1683.43
270.87	1843.17
271.08	1890.28
271.30	1867.75
271.51	1820.64
271.73	1875.94
271.95	1888.23
272.16	1853.41
272.38	1759.21
272.59	1845.22
272.81	1855.46
273.02	1830.88
273.24	1877.99
273.46	1800.16
273.67	1794.02
273.89	1746.92
274.10	1720.29
274.32	1957.86
274.54	1849.32
274.75	1839.08
274.97	1800.16
275.18	1820.64
275.40	1814.50
275.61	1751.01
275.83	1748.97
276.05	1777.64
276.26	1853.41
276.48	1843.17
276.69	1787.88
276.91	1761.25
277.12	1894.37
277.34	1863.65
277.55	1892.32
277.77	1853.41
277.99	1730.53
278.20	1763.30
278.42	1761.25
278.63	1785.83
278.85	1751.01
279.06	1751.01
279.28	1812.45
279.49	1863.65
279.71	1871.84
279.93	1781.73
280.14	1775.59
280.36	1806.31
280.57	1937.38
280.79	1896.42
281.00	1779.68
281.22	1791.97
281.43	1898.47
281.65	1691.62
281.86	1681.38
282.08	1791.97
282.29	1871.84
282.51	1742.82
282.73	1751.01
282.94	1718.25
283.16	1839.08
283.37	1890.28
283.59	1812.45
283.80	1877.99
284.02	1814.50
284.23	1832.93
284.45	1779.68
284.66	1765.35
284.88	1789.92
285.09	1802.21
285.31	1828.84
285.52	1828.84
285.74	1687.53
285.95	1892.32
286.17	1837.03
286.38	1877.99
286.60	1804.26
286.81	1798.12
287.03	1755.11
287.24	1843.17
287.46	1904.61
287.67	1853.41
287.89	2002.91
288.10	1742.82
288.32	1800.16
288.53	1882.08
288.75	1794.02
288.96	1855.46
289.18	1746.92
289.39	1820.64
289.61	1806.31
289.82	1992.67
290.04	1953.76
290.25	1820.64
290.47	1824.74
290.68	1861.60
290.90	1834.98
291.11	1757.16
291.33	1863.65
291.54	1746.92
291.76	1818.60
291.97	1794.02
292.18	1826.79
292.40	1697.77
292.61	1812.45
292.83	1925.09
293.04	1765.35
293.26	1777.64
293.47	1837.03
293.69	1828.84
293.90	1794.02
294.12	1933.28
294.33	1769.44
294.55	1806.31
294.76	1861.60
294.97	1959.91
295.19	1869.80
295.40	1748.97
295.62	1806.31
295.83	1890.28
296.05	1773.54
296.26	1925.09
296.48	1765.35
296.69	1796.07
296.90	1785.83
297.12	1908.71
297.33	1968.10
297.55	1875.94
297.76	1798.12
297.98	1839.08
298.19	1802.21
298.41	1828.84
298.62	1732.58
298.83	1896.42
299.05	1861.60
299.26	1824.74
299.48	1712.10
299.69	1816.55
299.90	1828.84
300.12	1759.21
300.33	1820.64
300.55	1773.54
300.76	1886.18
300.98	1705.96
301.19	1931.23
301.40	1769.44
301.62	1728.49
301.83	1877.99
302.05	1789.92
302.26	1830.88
302.47	1820.64
302.69	1810.40
302.90	1775.59
303.12	1669.09
303.33	1867.75
303.54	1884.13
303.76	1855.46
303.97	1875.94
304.19	1904.61
304.40	1794.02
304.61	1736.68
304.83	1923.04
305.04	1798.12
305.26	1882.08
305.47	1796.07
305.68	1828.84
305.90	1734.63
306.11	1847.27
306.33	1804.26
306.54	1789.92
306.75	1775.59
306.97	1771.49
307.18	1689.57
307.39	1834.98
307.61	1828.84
307.82	1798.12
308.04	1865.70
308.25	1771.49
308.46	1812.45
308.68	1810.40
308.89	1814.50
309.10	1898.47
309.32	1808.36
309.53	1791.97
309.74	1916.90
309.96	1781.73
310.17	1916.90
310.39	1755.11
310.60	1796.07
310.81	1927.14
311.03	1746.92
311.24	1837.03
311.45	1730.53
311.67	2095.07
311.88	1779.68
312.09	1744.87
312.31	1861.60
312.52	1839.08
312.73	1810.40
312.95	1710.05
313.16	1824.74
313.37	1910.75
313.59	1746.92
313.80	1849.32
314.01	1980.39
314.23	1777.64
314.44	1718.25
314.65	1757.16
314.87	1753.06
315.08	1787.88
315.29	1808.36
315.51	1740.77
315.72	1751.01
315.93	1929.19
316.15	1796.07
316.36	1742.82
316.57	1828.84
316.79	1814.50
317.00	1877.99
317.21	1849.32
317.43	1765.35
317.64	1775.59
317.85	1761.25
318.07	1834.98
318.28	1886.18
318.49	1966.05
318.70	2107.36
318.92	1884.13
319.13	1996.77
319.34	1990.63
319.56	1867.75
319.77	2045.92
319.98	1931.23
320.20	1867.75
320.41	1892.32
320.62	1839.08
320.83	1804.26
321.05	1992.67
321.26	1818.60
321.47	1849.32
321.69	1894.37
321.90	1744.87
322.11	1841.12
322.32	1865.70
322.54	1906.66
322.75	1742.82
322.96	1947.62
323.18	1755.11
323.39	1699.81
323.60	1787.88
323.81	1900.52
324.03	1755.11
324.24	1845.22
324.45	1845.22
324.66	1738.73
324.88	1830.88
325.09	1859.56
325.30	1877.99
325.52	1808.36
325.73	1812.45
325.94	1773.54
326.15	1724.39
326.37	1783.78
326.58	1892.32
326.79	1906.66
327.00	1742.82
327.22	1820.64
327.43	1777.64
327.64	1679.33
327.85	1898.47
328.07	1787.88
328.28	1959.91
328.49	1783.78
328.70	1849.32
328.92	1812.45
329.13	1699.81
329.34	1794.02
329.55	2002.91
329.76	1900.52
329.98	1865.70
330.19	1986.53
330.40	1740.77
330.61	1791.97
330.83	1841.12
331.04	1746.92
331.25	1794.02
331.46	1796.07
331.68	1794.02
331.89	1894.37
332.10	1785.83
332.31	1757.16
332.52	1794.02
332.74	1857.51
332.95	1712.10
333.16	1804.26
333.37	1832.93
333.58	1716.20
333.80	1908.71
334.01	1736.68
334.22	1789.92
334.43	1812.45
334.64	1787.88
334.86	1751.01
335.07	1748.97
335.28	1847.27
335.49	1695.72
335.70	1863.65
335.92	1927.14
336.13	1949.67
336.34	1867.75
336.55	1755.11
336.76	1916.90
336.98	1708.01
337.19	1740.77
337.40	1931.23
337.61	1927.14
337.82	1798.12
338.04	1871.84
338.25	1703.91
338.46	1857.51
338.67	1822.69
338.88	1816.55
339.09	1689.57
339.31	1761.25
339.52	1701.86
339.73	1761.25
339.94	1746.92
340.15	1787.88
340.36	1800.16
340.58	1839.08
340.79	1753.06
341.00	1824.74
341.21	1685.48
341.42	1894.37
341.63	1742.82
341.85	1935.33
342.06	1902.56
342.27	1751.01
342.48	1902.56
342.69	1710.05
342.90	1906.66
343.12	1814.50
343.33	1814.50
343.54	1847.27
343.75	1888.23
343.96	1748.97
344.17	1734.63
344.38	1800.16
344.60	1791.97
344.81	1742.82
345.02	1757.16
345.23	1959.91
345.44	1996.77
345.65	1841.12
345.86	1957.86
346.07	1816.55
346.29	1796.07
346.50	1812.45
346.71	1849.32
346.92	1935.33
347.13	1918.95
347.34	1824.74
347.55	1765.35
347.76	1939.43
347.98	1767.40
348.19	1810.40
348.40	1888.23
348.61	1738.73
348.82	1849.32
349.03	1912.80
349.24	1705.96
349.45	1912.80
349.66	1689.57
349.88	1791.97
350.09	1769.44
350.30	1939.43
350.51	1906.66
350.72	1806.31
350.93	1832.93
351.14	1810.40
351.35	1845.22
351.56	1847.27
351.77	1794.02
351.99	1734.63
352.20	1949.67
352.41	1929.19
352.62	1615.85
352.83	1775.59
353.04	1775.59
353.25	1695.72
353.46	1861.60
353.67	1832.93
353.88	1693.67
354.09	1873.89
354.30	1785.83
354.52	1767.40
354.73	1765.35
354.94	1828.84
355.15	1820.64
355.36	1906.66
355.57	1845.22
355.78	1826.79
355.99	1765.35
356.20	1798.12
356.41	1912.80
356.62	1863.65
356.83	1812.45
357.04	1902.56
357.25	1738.73
357.46	1857.51
357.68	1724.39
357.89	1710.05
358.10	1820.64
358.31	1781.73
358.52	1769.44
358.73	1730.53
358.94	1712.10
359.15	1761.25
359.36	1812.45
359.57	1837.03
359.78	1781.73
359.99	1818.60
360.20	1744.87
360.41	1820.64
360.62	1902.56
360.83	1769.44
361.04	1816.55
361.25	1744.87
361.46	1908.71
361.67	1812.45
361.88	1830.88
362.09	1920.99
362.30	1914.85
362.51	1779.68
362.72	1845.22
362.93	1841.12
363.14	1763.30
363.35	1746.92
363.56	1794.02
363.78	1814.50
363.99	1900.52
364.20	1757.16
364.41	1882.08
364.62	1896.42
364.83	1890.28
365.04	1839.08
365.25	1796.07
365.46	1910.75
365.67	1724.39
365.88	1826.79
366.09	1755.11
366.30	1757.16
366.51	1863.65
366.72	1740.77
366.93	1755.11
367.14	1890.28
367.35	1896.42
367.56	1775.59
367.77	1855.46
367.98	1759.21
368.18	1828.84
368.39	1906.66
368.60	1765.35
368.81	1828.84
369.02	1845.22
369.23	1820.64
369.44	1736.68
369.65	1775.59
369.86	1806.31
370.07	1912.80
370.28	1722.34
370.49	1884.13
370.70	1867.75
370.91	1826.79
371.12	1693.67
371.33	2004.96
371.54	1720.29
371.75	1877.99
371.96	1669.09
372.17	1837.03
372.38	1857.51
372.59	1773.54
372.80	1802.21
373.01	1779.68
373.22	1824.74
373.43	1787.88
373.64	1767.40
373.85	1951.71
374.06	1935.33
374.26	1849.32
374.47	1837.03
374.68	1931.23
374.89	1882.08
375.10	1783.78
375.31	1855.46
375.52	1832.93
375.73	1828.84
375.94	1703.91
376.15	1964.00
376.36	1794.02
376.57	1818.60
376.78	1875.94
376.99	1816.55
377.20	1837.03
377.40	1888.23
377.61	1916.90
377.82	1755.11
378.03	1890.28
378.24	1841.12
378.45	1777.64
378.66	1751.01
378.87	1755.11
379.08	1701.86
379.29	1818.60
379.50	1945.57
379.71	1740.77
379.91	1886.18
380.12	1808.36
380.33	1806.31
380.54	1871.84
380.75	1787.88
380.96	1701.86
381.17	1927.14
381.38	1757.16
381.59	1888.23
381.80	1837.03
382.00	1970.15
382.21	1839.08
382.42	1957.86
382.63	2037.73
382.84	1929.19
383.05	1918.95
383.26	1947.62
383.47	1794.02
383.68	1841.12
383.88	1884.13
384.09	1820.64
384.30	1941.47
384.51	1753.06
384.72	1851.36
384.93	1804.26
385.14	1781.73
385.35	1875.94
385.55	1744.87
385.76	1933.28
385.97	1847.27
386.18	1755.11
386.39	1814.50
386.60	1841.12
386.81	1779.68
387.02	1812.45
387.22	1699.81
387.43	1918.95
387.64	1955.81
387.85	1941.47
388.06	2197.47
388.27	4247.49
388.48	8861.56
388.68	11675.47
388.89	13989.67
389.10	14937.88
389.31	13219.64
389.52	10422.11
389.73	9121.65
389.93	8349.57
390.14	7612.30
390.35	6854.55
390.56	6256.54
390.77	5212.08
390.98	4026.31
391.18	3207.12
391.39	2502.62
391.60	2039.78
391.81	1935.33
392.02	1839.08
392.23	1918.95
392.43	1847.27
392.64	1957.86
392.85	1886.18
393.06	1906.66
393.27	1873.89
393.47	1751.01
393.68	1816.55
393.89	1832.93
394.10	1875.94
394.31	1779.68
394.52	1796.07
394.72	1855.46
394.93	1947.62
395.14	1783.78
395.35	1859.56
395.56	1761.25
395.76	1777.64
395.97	1931.23
396.18	1998.82
396.39	1968.10
396.60	2224.09
396.80	2105.31
397.01	2095.07
397.22	1955.81
397.43	1937.38
397.64	1824.74
397.84	1972.19
398.05	2041.82
398.26	1918.95
398.47	1951.71
398.67	1920.99
398.88	1818.60
399.09	1914.85
399.30	1808.36
399.51	1861.60
399.71	1839.08
399.92	1812.45
400.13	1837.03
400.34	1824.74
400.54	1812.45
400.75	1939.43
400.96	1853.41
401.17	1947.62
401.37	1839.08
401.58	1834.98
401.79	1812.45
402.00	1918.95
402.21	2187.23
402.41	2168.80
402.62	2211.81
402.83	2316.25
403.04	2203.61
403.24	2275.29
403.45	2009.06
403.66	2101.22
403.87	2017.25
404.07	2090.98
404.28	2007.01
404.49	2017.25
404.70	1957.86
404.90	1910.75
405.11	1867.75
405.32	1943.52
405.52	1746.92
405.73	1826.79
405.94	1732.58
406.15	1886.18
406.35	1900.52
406.56	1839.08
406.77	1804.26
406.98	1857.51
407.18	1781.73
407.39	1892.32
407.60	1837.03
407.80	1920.99
408.01	1736.68
408.22	1810.40
408.43	1757.16
408.63	1918.95
408.84	1873.89
409.05	1898.47
409.25	1789.92
409.46	1755.11
409.67	1759.21
409.88	1800.16
410.08	1857.51
410.29	1761.25
410.50	1890.28
410.70	1880.04
410.91	1769.44
411.12	1882.08
411.32	1771.49
411.53	1767.40
411.74	1918.95
411.95	1980.39
412.15	1961.95
412.36	1947.62
412.57	1941.47
412.77	1910.75
412.98	1853.41
413.19	1773.54
413.39	1865.70
413.60	1880.04
413.81	1935.33
414.01	1830.88
414.22	1904.61
414.43	1894.37
414.63	1830.88
414.84	1855.46
415.05	1800.16
415.25	1759.21
415.46	1845.22
415.67	1859.56
415.87	1812.45
416.08	1767.40
416.29	1726.44
416.49	1873.89
416.70	1839.08
416.91	1837.03
417.11	1845.22
417.32	1937.38
417.53	1906.66
417.73	1834.98
417.94	1832.93
418.15	1832.93
418.35	1845.22
418.56	1812.45
418.77	2050.02
418.97	1830.88
419.18	1818.60
419.38	1673.19
419.59	1728.49
419.80	1902.56
420.00	1763.30
420.21	1906.66
420.42	1873.89
420.62	1851.36
420.83	1804.26
421.04	1806.31
421.24	1783.78
421.45	1935.33
421.65	1849.32
421.86	1765.35
422.07	1869.80
422.27	1773.54
422.48	1869.80
422.69	1789.92
422.89	1746.92
423.10	1794.02
423.30	1671.14
423.51	1787.88
423.72	1828.84
423.92	1855.46
424.13	1730.53
424.33	1851.36
424.54	1931.23
424.75	1820.64
424.95	1877.99
425.16	1841.12
425.36	1783.78
425.57	1912.80
425.78	1824.74
425.98	1837.03
426.19	1810.40
426.39	1705.96
426.60	1873.89
426.81	1849.32
427.01	1892.32
427.22	1816.55
427.42	1687.53
427.63	1732.58
427.83	1808.36
428.04	1910.75
428.25	1943.52
428.45	1898.47
428.66	1898.47
428.86	1826.79
429.07	1802.21
429.28	1824.74
429.48	1757.16
429.69	1820.64
429.89	1763.30
430.10	1722.34
430.30	1859.56
430.51	1791.97
430.71	1763.30
430.92	1873.89
431.13	1761.25
431.33	1871.84
431.54	1796.07
431.74	1898.47
431.95	1988.58
432.15	1761.25
432.36	1798.12
432.56	1814.50
432.77	1941.47
432.98	1966.05
433.18	1865.70
433.39	1789.92
433.59	1773.54
433.80	1845.22
434.00	1982.43
434.21	1808.36
434.41	1771.49
434.62	1959.91
434.82	1748.97
435.03	1810.40
435.23	1849.32
435.44	1740.77
435.64	1824.74
435.85	1855.46
436.06	1841.12
436.26	1851.36
436.47	1730.53
436.67	1824.74
436.88	1763.30
437.08	1861.60
437.29	1920.99
437.49	1845.22
437.70	1841.12
437.90	1742.82
438.11	1918.95
438.31	1875.94
438.52	2050.02
438.72	1957.86
438.93	2121.70
439.13	1941.47
439.34	1898.47
439.54	1910.75
439.75	1947.62
439.95	1904.61
440.16	1857.51
440.36	1896.42
440.57	1863.65
440.77	1857.51
440.98	1906.66
441.18	1875.94
441.39	1775.59
441.59	1800.16
441.80	1988.58
442.00	1869.80
442.21	1925.09
442.41	1732.58
442.62	1861.60
442.82	1767.40
443.02	1808.36
443.23	1886.18
443.43	1781.73
443.64	1990.63
443.84	1820.64
444.05	1869.80
444.25	1894.37
444.46	1861.60
444.66	1869.80
444.87	1939.43
445.07	1730.53
445.28	1765.35
445.48	1941.47
445.69	1898.47
445.89	1957.86
446.09	1927.14
446.30	2000.87
446.50	2588.63
446.71	4157.38
446.91	5148.59
447.12	6059.94
447.32	6377.37
447.53	5765.03
447.73	4827.06
447.93	4188.10
448.14	3764.17
448.34	3600.33
448.55	3297.23
448.75	3192.78
448.96	3035.09
449.16	2684.89
449.36	2543.58
449.57	2217.95
449.77	2117.60
449.98	1877.99
450.18	1877.99
450.39	1890.28
450.59	1892.32
450.79	1880.04
451.00	1765.35
451.20	1906.66
451.41	1837.03
451.61	1900.52
451.81	1781.73
452.02	1810.40
452.22	1808.36
452.43	1759.21
452.63	1859.56
