SpectraSuite Data File
++++++++++++++++++++++++++++++++++++
Date: Wed May 04 21:13:53 CEST 2016
User: root
Dark Spectrum Present: No
Reference Spectrum Present: No
Number of Sampled Component Spectra: 1
Spectrometers: USB4C02835
Integration Time (usec): 100000 (USB4C02835)
Spectra Averaged: 1 (USB4C02835)
Boxcar Smoothing: 0 (USB4C02835)
Correct for Electrical Dark: No (USB4C02835)
Strobe/Lamp Enabled: No (USB4C02835)
Correct for Detector Non-linearity: No (USB4C02835)
Correct for Stray Light: No (USB4C02835)
Number of Pixels in Processed Spectrum: 3648
>>>>>Begin Processed Spectral Data<<<<<
177.47	1533.93
177.69	1533.93
177.91	1533.93
178.13	1574.89
178.36	1544.17
178.58	1742.82
178.80	1837.03
179.02	1755.11
179.24	1787.88
179.46	1882.08
179.68	1873.89
179.90	1824.74
180.13	1849.32
180.35	1834.98
180.57	1798.12
180.79	1845.22
181.01	1832.93
181.23	1861.60
181.45	1855.46
181.67	1812.45
181.90	1863.65
182.12	1779.68
182.34	1773.54
182.56	1830.88
182.78	1804.26
183.00	1796.07
183.22	1765.35
183.44	1761.25
183.66	1964.00
183.89	1923.04
184.11	1746.92
184.33	1914.85
184.55	1920.99
184.77	1839.08
184.99	1771.49
185.21	1865.70
185.43	1888.23
185.65	1779.68
185.87	1812.45
186.10	1951.71
186.32	1990.63
186.54	1888.23
186.76	1828.84
186.98	1853.41
187.20	1873.89
187.42	1736.68
187.64	1865.70
187.86	1849.32
188.08	1898.47
188.30	1718.25
188.52	1822.69
188.75	1920.99
188.97	1828.84
189.19	1746.92
189.41	1681.38
189.63	1777.64
189.85	1859.56
190.07	1753.06
190.29	1705.96
190.51	1873.89
190.73	1724.39
190.95	1898.47
191.17	1832.93
191.39	1802.21
191.61	1834.98
191.84	1820.64
192.06	1781.73
192.28	1748.97
192.50	1976.29
192.72	1843.17
192.94	1763.30
193.16	1884.13
193.38	1851.36
193.60	1724.39
193.82	1779.68
194.04	1863.65
194.26	1767.40
194.48	1843.17
194.70	1794.02
194.92	1773.54
195.14	1865.70
195.36	1841.12
195.58	1861.60
195.80	1859.56
196.02	1816.55
196.24	1818.60
196.46	1783.78
196.69	1851.36
196.91	1955.81
197.13	1777.64
197.35	1787.88
197.57	1951.71
197.79	1820.64
198.01	1787.88
198.23	1849.32
198.45	1765.35
198.67	1691.62
198.89	1798.12
199.11	1810.40
199.33	1703.91
199.55	1718.25
199.77	1808.36
199.99	1816.55
200.21	1777.64
200.43	1869.80
200.65	1751.01
200.87	1781.73
201.09	1839.08
201.31	1794.02
201.53	1789.92
201.75	1765.35
201.97	1820.64
202.19	1847.27
202.41	1796.07
202.63	1923.04
202.85	1898.47
203.07	1847.27
203.29	1796.07
203.51	1777.64
203.73	1814.50
203.95	2045.92
204.17	1855.46
204.39	1832.93
204.61	1806.31
204.83	1847.27
205.05	1906.66
205.27	1839.08
205.49	1916.90
205.71	1880.04
205.93	1703.91
206.15	1771.49
206.37	1861.60
206.59	1787.88
206.81	1794.02
207.03	1804.26
207.25	1748.97
207.47	1865.70
207.69	1791.97
207.91	1873.89
208.13	1912.80
208.34	1884.13
208.56	1736.68
208.78	1857.51
209.00	1757.16
209.22	1771.49
209.44	1804.26
209.66	1798.12
209.88	1763.30
210.10	1824.74
210.32	1738.73
210.54	1914.85
210.76	1794.02
210.98	1867.75
211.20	1673.19
211.42	1775.59
211.64	1902.56
211.86	1869.80
212.08	1794.02
212.30	1794.02
212.52	1812.45
212.74	1869.80
212.96	1771.49
213.17	1839.08
213.39	1828.84
213.61	1898.47
213.83	1783.78
214.05	1812.45
214.27	1900.52
214.49	1820.64
214.71	1855.46
214.93	1894.37
215.15	1843.17
215.37	1832.93
215.59	1712.10
215.81	1882.08
216.03	1929.19
216.24	1826.79
216.46	1873.89
216.68	1853.41
216.90	1808.36
217.12	1873.89
217.34	1845.22
217.56	1791.97
217.78	1916.90
218.00	1908.71
218.22	1843.17
218.44	1761.25
218.66	1769.44
218.87	1951.71
219.09	1783.78
219.31	1841.12
219.53	1783.78
219.75	1710.05
219.97	1828.84
220.19	1804.26
220.41	1775.59
220.63	1945.57
220.85	1880.04
221.06	1742.82
221.28	1839.08
221.50	1888.23
221.72	1826.79
221.94	1839.08
222.16	1775.59
222.38	1859.56
222.60	1845.22
222.82	1781.73
223.03	1837.03
223.25	1703.91
223.47	1828.84
223.69	1982.43
223.91	1834.98
224.13	1843.17
224.35	1802.21
224.57	1828.84
224.78	1861.60
225.00	1775.59
225.22	1812.45
225.44	1773.54
225.66	1796.07
225.88	1849.32
226.10	1849.32
226.32	1888.23
226.53	1888.23
226.75	1787.88
226.97	1828.84
227.19	1773.54
227.41	1742.82
227.63	1804.26
227.85	1730.53
228.06	1732.58
228.28	1751.01
228.50	1923.04
228.72	1708.01
228.94	1806.31
229.16	1718.25
229.37	1814.50
229.59	1701.86
229.81	1822.69
230.03	1843.17
230.25	1732.58
230.47	1769.44
230.69	1744.87
230.90	1849.32
231.12	1804.26
231.34	1832.93
231.56	1869.80
231.78	1667.05
232.00	1845.22
232.21	1875.94
232.43	1775.59
232.65	1728.49
232.87	1943.52
233.09	1732.58
233.30	1763.30
233.52	1890.28
233.74	1871.84
233.96	1806.31
234.18	1882.08
234.40	1808.36
234.61	1920.99
234.83	1787.88
235.05	1783.78
235.27	1947.62
235.49	1957.86
235.70	1769.44
235.92	1839.08
236.14	1822.69
236.36	1980.39
236.58	1755.11
236.79	1843.17
237.01	1826.79
237.23	1800.16
237.45	1953.76
237.67	1730.53
237.88	1798.12
238.10	1888.23
238.32	1802.21
238.54	1732.58
238.76	1808.36
238.97	1755.11
239.19	1755.11
239.41	1834.98
239.63	1884.13
239.85	1763.30
240.06	1787.88
240.28	1796.07
240.50	1863.65
240.72	1859.56
240.93	1779.68
241.15	1857.51
241.37	1785.83
241.59	1941.47
241.81	1783.78
242.02	1783.78
242.24	1769.44
242.46	1810.40
242.68	1828.84
242.89	1804.26
243.11	1916.90
243.33	1812.45
243.55	1808.36
243.76	1908.71
243.98	1832.93
244.20	1775.59
244.42	1769.44
244.64	1914.85
244.85	1773.54
245.07	1693.67
245.29	1869.80
245.51	1748.97
245.72	1771.49
245.94	1882.08
246.16	1849.32
246.38	1851.36
246.59	1771.49
246.81	1744.87
247.03	1703.91
247.24	1632.23
247.46	1777.64
247.68	1818.60
247.90	1718.25
248.11	1785.83
248.33	1830.88
248.55	1849.32
248.77	1908.71
248.98	1886.18
249.20	1964.00
249.42	1767.40
249.64	1818.60
249.85	1877.99
250.07	1804.26
250.29	1910.75
250.50	1861.60
250.72	1677.29
250.94	1812.45
251.16	1830.88
251.37	1849.32
251.59	1796.07
251.81	1820.64
252.02	1912.80
252.24	1753.06
252.46	1822.69
252.68	1816.55
252.89	1722.34
253.11	1771.49
253.33	1912.80
253.54	1894.37
253.76	1699.81
253.98	1753.06
254.20	1796.07
254.41	1722.34
254.63	1814.50
254.85	1763.30
255.06	1828.84
255.28	1871.84
255.50	1822.69
255.71	1808.36
255.93	1714.15
256.15	1863.65
256.36	1820.64
256.58	1839.08
256.80	1812.45
257.02	1779.68
257.23	1843.17
257.45	1775.59
257.67	1800.16
257.88	1746.92
258.10	1798.12
258.32	1787.88
258.53	1871.84
258.75	1841.12
258.97	1759.21
259.18	1779.68
259.40	1855.46
259.62	1886.18
259.83	1869.80
260.05	1890.28
260.27	2099.17
260.48	1812.45
260.70	1763.30
260.92	1832.93
261.13	1800.16
261.35	1810.40
261.57	1873.89
261.78	1757.16
262.00	1781.73
262.22	1863.65
262.43	1771.49
262.65	1918.95
262.86	1816.55
263.08	1935.33
263.30	1888.23
263.51	1779.68
263.73	1816.55
263.95	1900.52
264.16	1771.49
264.38	1798.12
264.60	1783.78
264.81	1789.92
265.03	1847.27
265.25	1912.80
265.46	1779.68
265.68	1920.99
265.89	1851.36
266.11	1753.06
266.33	1867.75
266.54	1802.21
266.76	1814.50
266.98	1865.70
267.19	1904.61
267.41	1925.09
267.62	1755.11
267.84	1773.54
268.06	1820.64
268.27	1804.26
268.49	1937.38
268.70	1875.94
268.92	1763.30
269.14	1767.40
269.35	1753.06
269.57	1769.44
269.79	1861.60
270.00	1779.68
270.22	1984.48
270.43	1794.02
270.65	1753.06
270.87	1822.69
271.08	1896.42
271.30	1863.65
271.51	1812.45
271.73	1863.65
271.95	1830.88
272.16	1837.03
272.38	1759.21
272.59	1740.77
272.81	1832.93
273.02	1800.16
273.24	1875.94
273.46	1863.65
273.67	1738.73
273.89	1732.58
274.10	1773.54
274.32	1849.32
274.54	1839.08
274.75	1875.94
274.97	1787.88
275.18	1783.78
275.40	1824.74
275.61	1847.27
275.83	1734.63
276.05	1728.49
276.26	1800.16
276.48	1781.73
276.69	1851.36
276.91	1837.03
277.12	1822.69
277.34	1873.89
277.55	1886.18
277.77	1808.36
277.99	1800.16
278.20	1767.40
278.42	1736.68
278.63	1837.03
278.85	1726.44
279.06	1773.54
279.28	1753.06
279.49	1880.04
279.71	1869.80
279.93	1826.79
280.14	1771.49
280.36	1785.83
280.57	1943.52
280.79	1902.56
281.00	1794.02
281.22	1785.83
281.43	1796.07
281.65	1695.72
281.86	1767.40
282.08	1738.73
282.29	1931.23
282.51	1753.06
282.73	1732.58
282.94	1703.91
283.16	1888.23
283.37	1912.80
283.59	1802.21
283.80	1871.84
284.02	1761.25
284.23	1855.46
284.45	1783.78
284.66	1759.21
284.88	1828.84
285.09	1832.93
285.31	1822.69
285.52	1828.84
285.74	1703.91
285.95	1851.36
286.17	1871.84
286.38	1834.98
286.60	1730.53
286.81	1816.55
287.03	1824.74
287.24	1861.60
287.46	1927.14
287.67	1808.36
287.89	1830.88
288.10	1804.26
288.32	1777.64
288.53	1810.40
288.75	1820.64
288.96	1800.16
289.18	1689.57
289.39	1791.97
289.61	1880.04
289.82	1972.19
290.04	1929.19
290.25	1730.53
290.47	1804.26
290.68	1781.73
290.90	1927.14
291.11	1718.25
291.33	1896.42
291.54	1783.78
291.76	1705.96
291.97	1812.45
292.18	1875.94
292.40	1771.49
292.61	1798.12
292.83	2002.91
293.04	1839.08
293.26	1886.18
293.47	1757.16
293.69	1742.82
293.90	1796.07
294.12	1906.66
294.33	1789.92
294.55	1806.31
294.76	1865.70
294.97	1931.23
295.19	2060.26
295.40	1789.92
295.62	1781.73
295.83	1832.93
296.05	1763.30
296.26	1853.41
296.48	1812.45
296.69	1830.88
296.90	1771.49
297.12	1796.07
297.33	1906.66
297.55	1826.79
297.76	1814.50
297.98	1904.61
298.19	1859.56
298.41	1783.78
298.62	1765.35
298.83	1914.85
299.05	1789.92
299.26	1771.49
299.48	1746.92
299.69	1841.12
299.90	1779.68
300.12	1748.97
300.33	1894.37
300.55	1841.12
300.76	1916.90
300.98	1722.34
301.19	1839.08
301.40	1730.53
301.62	1804.26
301.83	1816.55
302.05	1769.44
302.26	1751.01
302.47	1794.02
302.69	1726.44
302.90	1871.84
303.12	1673.19
303.33	1855.46
303.54	1947.62
303.76	1867.75
303.97	1834.98
304.19	1955.81
304.40	1697.77
304.61	1894.37
304.83	1918.95
305.04	1800.16
305.26	1886.18
305.47	1796.07
305.68	1810.40
305.90	1681.38
306.11	1857.51
306.33	1699.81
306.54	1787.88
306.75	1742.82
306.97	1677.29
307.18	1806.31
307.39	1800.16
307.61	1933.28
307.82	1804.26
308.04	1824.74
308.25	1738.73
308.46	1871.84
308.68	1789.92
308.89	1775.59
309.10	1859.56
309.32	1765.35
309.53	1851.36
309.74	1855.46
309.96	1816.55
310.17	1918.95
310.39	1871.84
310.60	1882.08
310.81	1775.59
311.03	1783.78
311.24	1814.50
311.45	1779.68
311.67	1918.95
311.88	1851.36
312.09	1806.31
312.31	1818.60
312.52	1771.49
312.73	1882.08
312.95	1712.10
313.16	1728.49
313.37	1884.13
313.59	1839.08
313.80	1947.62
314.01	1877.99
314.23	1724.39
314.44	1796.07
314.65	1699.81
314.87	1748.97
315.08	1804.26
315.29	1691.62
315.51	1800.16
315.72	1722.34
315.93	1945.57
316.15	1857.51
316.36	1738.73
316.57	1746.92
316.79	1810.40
317.00	1777.64
317.21	1847.27
317.43	1777.64
317.64	1791.97
317.85	1769.44
318.07	1769.44
318.28	1884.13
318.49	1964.00
318.70	2070.50
318.92	1990.63
319.13	1970.15
319.34	2066.40
319.56	1951.71
319.77	1949.67
319.98	1980.39
320.20	1898.47
320.41	1968.10
320.62	1869.80
320.83	1824.74
321.05	1947.62
321.26	1814.50
321.47	1791.97
321.69	1884.13
321.90	1787.88
322.11	1771.49
322.32	1875.94
322.54	1951.71
322.75	1781.73
322.96	1939.43
323.18	1822.69
323.39	1687.53
323.60	1738.73
323.81	1877.99
324.03	1861.60
324.24	1851.36
324.45	1837.03
324.66	1804.26
324.88	1873.89
325.09	1847.27
325.30	1847.27
325.52	1843.17
325.73	1871.84
325.94	1757.16
326.15	1787.88
326.37	1710.05
326.58	1888.23
326.79	1918.95
327.00	1775.59
327.22	1828.84
327.43	1779.68
327.64	1763.30
327.85	1849.32
328.07	1822.69
328.28	1849.32
328.49	1812.45
328.70	1863.65
328.92	1755.11
329.13	1814.50
329.34	1865.70
329.55	1943.52
329.76	1902.56
329.98	1724.39
330.19	1851.36
330.40	1828.84
330.61	1818.60
330.83	1869.80
331.04	1738.73
331.25	1834.98
331.46	1812.45
331.68	1714.15
331.89	1916.90
332.10	1837.03
332.31	1695.72
332.52	1783.78
332.74	1865.70
332.95	1691.62
333.16	1765.35
333.37	1908.71
333.58	1763.30
333.80	1822.69
334.01	1744.87
334.22	1820.64
334.43	1837.03
334.64	1802.21
334.86	1724.39
335.07	1826.79
335.28	1968.10
335.49	1734.63
335.70	1853.41
335.92	1873.89
336.13	1886.18
336.34	1863.65
336.55	1773.54
336.76	1867.75
336.98	1712.10
337.19	1865.70
337.40	1912.80
337.61	1966.05
337.82	1781.73
338.04	1855.46
338.25	1675.24
338.46	1798.12
338.67	1804.26
338.88	1779.68
339.09	1777.64
339.31	1814.50
339.52	1746.92
339.73	1646.57
339.94	1773.54
340.15	1802.21
340.36	1746.92
340.58	1865.70
340.79	1804.26
341.00	1869.80
341.21	1703.91
341.42	1906.66
341.63	1861.60
341.85	1900.52
342.06	1746.92
342.27	1716.20
342.48	1849.32
342.69	1753.06
342.90	1771.49
343.12	1865.70
343.33	1771.49
343.54	1916.90
343.75	1898.47
343.96	1755.11
344.17	1769.44
344.38	1791.97
344.60	1775.59
344.81	1779.68
345.02	1787.88
345.23	1816.55
345.44	1873.89
345.65	1837.03
345.86	1877.99
346.07	1896.42
346.29	1724.39
346.50	1837.03
346.71	1847.27
346.92	1931.23
347.13	1890.28
347.34	1822.69
347.55	1798.12
347.76	1796.07
347.98	1769.44
348.19	1785.83
348.40	1871.84
348.61	1816.55
348.82	1933.28
349.03	1834.98
349.24	1810.40
349.45	1945.57
349.66	1728.49
349.88	1847.27
350.09	1781.73
350.30	1861.60
350.51	1939.43
350.72	1949.67
350.93	1841.12
351.14	1834.98
351.35	1849.32
351.56	1851.36
351.77	1769.44
351.99	1871.84
352.20	1933.28
352.41	1892.32
352.62	1685.48
352.83	1839.08
353.04	1871.84
353.25	1800.16
353.46	1818.60
353.67	1861.60
353.88	1662.95
354.09	1820.64
354.30	1806.31
354.52	1818.60
354.73	1763.30
354.94	1767.40
355.15	1925.09
355.36	1923.04
355.57	1800.16
355.78	1933.28
355.99	1777.64
356.20	1824.74
356.41	1927.14
356.62	1791.97
356.83	1849.32
357.04	1867.75
357.25	1718.25
357.46	1808.36
357.68	1779.68
357.89	1775.59
358.10	1763.30
358.31	1779.68
358.52	1779.68
358.73	1730.53
358.94	1794.02
359.15	1812.45
359.36	1863.65
359.57	1849.32
359.78	1816.55
359.99	1875.94
360.20	1802.21
360.41	1742.82
360.62	1882.08
360.83	1841.12
361.04	1775.59
361.25	1839.08
361.46	1871.84
361.67	1892.32
361.88	1845.22
362.09	1902.56
362.30	1837.03
362.51	1765.35
362.72	1789.92
362.93	1857.51
363.14	1830.88
363.35	1851.36
363.56	1818.60
363.78	1873.89
363.99	1920.99
364.20	1767.40
364.41	1824.74
364.62	2033.63
364.83	1806.31
365.04	1742.82
365.25	1787.88
365.46	1861.60
365.67	1730.53
365.88	1804.26
366.09	1789.92
366.30	1800.16
366.51	1818.60
366.72	1751.01
366.93	1865.70
367.14	1777.64
367.35	1869.80
367.56	1837.03
367.77	1861.60
367.98	1781.73
368.18	1814.50
368.39	1925.09
368.60	1775.59
368.81	1855.46
369.02	1824.74
369.23	1800.16
369.44	1634.28
369.65	1843.17
369.86	1826.79
370.07	1808.36
370.28	1771.49
370.49	1800.16
370.70	1882.08
370.91	1755.11
371.12	1726.44
371.33	1894.37
371.54	1785.83
371.75	1961.95
371.96	1691.62
372.17	1800.16
372.38	1755.11
372.59	1886.18
372.80	1779.68
373.01	1759.21
373.22	1857.51
373.43	1882.08
373.64	1783.78
373.85	1939.43
374.06	1845.22
374.26	1916.90
374.47	1816.55
374.68	1990.63
374.89	1820.64
375.10	1789.92
375.31	1871.84
375.52	1837.03
375.73	1824.74
375.94	1632.23
376.15	1849.32
376.36	1804.26
376.57	1826.79
376.78	1775.59
376.99	1779.68
377.20	1908.71
377.40	1853.41
377.61	1886.18
377.82	1789.92
378.03	1931.23
378.24	1884.13
378.45	1798.12
378.66	1800.16
378.87	1765.35
379.08	1679.33
379.29	1847.27
379.50	1826.79
379.71	1873.89
379.91	1894.37
380.12	1781.73
380.33	1808.36
380.54	1816.55
380.75	1812.45
380.96	1785.83
381.17	1933.28
381.38	1834.98
381.59	1837.03
381.80	1882.08
382.00	1974.24
382.21	1841.12
382.42	1923.04
382.63	1992.67
382.84	1978.34
383.05	1865.70
383.26	1888.23
383.47	1847.27
383.68	1822.69
383.88	1890.28
384.09	1839.08
384.30	1816.55
384.51	1841.12
384.72	1845.22
384.93	1730.53
385.14	1814.50
385.35	1918.95
385.55	1626.09
385.76	1900.52
385.97	1828.84
386.18	1738.73
386.39	1763.30
386.60	1843.17
386.81	1765.35
387.02	1783.78
387.22	1834.98
387.43	1873.89
387.64	1902.56
387.85	2103.26
388.06	2240.48
388.27	4132.80
388.48	8720.25
388.68	11736.91
388.89	13735.73
389.10	14569.25
389.31	13045.56
389.52	10469.22
389.73	9084.79
389.93	8279.94
390.14	7571.34
390.35	6977.43
390.56	6205.35
390.77	4990.90
390.98	4052.93
391.18	3151.82
391.39	2492.38
391.60	1968.10
391.81	1976.29
392.02	1820.64
392.23	2004.96
392.43	1849.32
392.64	1961.95
392.85	1814.50
393.06	1906.66
393.27	1822.69
393.47	1718.25
393.68	1826.79
393.89	1779.68
394.10	1873.89
394.31	1877.99
394.52	1732.58
394.72	1787.88
394.93	1914.85
395.14	1712.10
395.35	1820.64
395.56	1763.30
395.76	1886.18
395.97	1888.23
396.18	2011.11
396.39	1996.77
396.60	2179.04
396.80	2070.50
397.01	1998.82
397.22	1939.43
397.43	1980.39
397.64	1863.65
397.84	1955.81
398.05	2041.82
398.26	1849.32
398.47	1964.00
398.67	1933.28
398.88	1834.98
399.09	1865.70
399.30	1789.92
399.51	1849.32
399.71	1822.69
399.92	1865.70
400.13	1804.26
400.34	1841.12
400.54	1785.83
400.75	1902.56
400.96	1867.75
401.17	1935.33
401.37	1863.65
401.58	1806.31
401.79	1804.26
402.00	1968.10
402.21	2232.29
402.41	2170.85
402.62	2275.29
402.83	2299.87
403.04	2303.96
403.24	2258.91
403.45	1978.34
403.66	2146.27
403.87	1959.91
404.07	2103.26
404.28	2142.18
404.49	2052.06
404.70	1912.80
404.90	1853.41
405.11	1906.66
405.32	1812.45
405.52	1847.27
405.73	1796.07
405.94	1796.07
406.15	1816.55
406.35	1978.34
406.56	1884.13
406.77	1839.08
406.98	1812.45
407.18	1853.41
407.39	1890.28
407.60	1787.88
407.80	1748.97
408.01	1808.36
408.22	1923.04
408.43	1798.12
408.63	1867.75
408.84	1843.17
409.05	1892.32
409.25	1748.97
409.46	1765.35
409.67	1859.56
409.88	1828.84
410.08	1798.12
410.29	1796.07
410.50	1861.60
410.70	1837.03
410.91	1822.69
411.12	1841.12
411.32	1837.03
411.53	1746.92
411.74	1947.62
411.95	1877.99
412.15	1904.61
412.36	1974.24
412.57	1943.52
412.77	1953.76
412.98	1867.75
413.19	1822.69
413.39	1888.23
413.60	1898.47
413.81	1974.24
414.01	1783.78
414.22	1906.66
414.43	1861.60
414.63	1828.84
414.84	1912.80
415.05	1808.36
415.25	1710.05
415.46	1896.42
415.67	1734.63
415.87	1810.40
416.08	1794.02
416.29	1841.12
416.49	1880.04
416.70	1775.59
416.91	1820.64
417.11	1812.45
417.32	1873.89
417.53	1802.21
417.73	1910.75
417.94	1812.45
418.15	1834.98
418.35	1816.55
418.56	1855.46
418.77	1945.57
418.97	1738.73
419.18	1896.42
419.38	1722.34
419.59	1832.93
419.80	1886.18
420.00	1789.92
420.21	1787.88
420.42	1851.36
420.62	1867.75
420.83	1808.36
421.04	1785.83
421.24	1849.32
421.45	1906.66
421.65	1834.98
421.86	1791.97
422.07	1902.56
422.27	1791.97
422.48	1785.83
422.69	1759.21
422.89	1808.36
423.10	1841.12
423.30	1742.82
423.51	1937.38
423.72	1855.46
423.92	1791.97
424.13	1738.73
424.33	1806.31
424.54	1880.04
424.75	1808.36
424.95	1955.81
425.16	1853.41
425.36	1839.08
425.57	1859.56
425.78	1845.22
425.98	1816.55
426.19	1822.69
426.39	1773.54
426.60	1771.49
426.81	1906.66
427.01	1843.17
427.22	1753.06
427.42	1757.16
427.63	1751.01
427.83	1863.65
428.04	1943.52
428.25	1931.23
428.45	1929.19
428.66	1867.75
428.86	1847.27
429.07	1796.07
429.28	1806.31
429.48	1820.64
429.69	1744.87
429.89	1832.93
430.10	1820.64
430.30	1843.17
430.51	1886.18
430.71	1748.97
430.92	1773.54
431.13	1898.47
431.33	1867.75
431.54	1800.16
431.74	1867.75
431.95	1912.80
432.15	1771.49
432.36	1845.22
432.56	1822.69
432.77	1906.66
432.98	1884.13
433.18	1886.18
433.39	1767.40
433.59	1839.08
433.80	1890.28
434.00	1968.10
434.21	1830.88
434.41	1759.21
434.62	1951.71
434.82	1800.16
435.03	1771.49
435.23	1843.17
435.44	1697.77
435.64	1812.45
435.85	1830.88
436.06	1849.32
436.26	1814.50
436.47	1796.07
436.67	1853.41
436.88	1849.32
437.08	1822.69
437.29	1859.56
437.49	1816.55
437.70	1802.21
437.90	1748.97
438.11	1935.33
438.31	1898.47
438.52	2004.96
438.72	2007.01
438.93	2031.58
439.13	1966.05
439.34	1935.33
439.54	1812.45
439.75	1939.43
439.95	1877.99
440.16	1818.60
440.36	1861.60
440.57	1865.70
440.77	1929.19
440.98	1890.28
441.18	1816.55
441.39	1710.05
441.59	1794.02
441.80	1941.47
442.00	1804.26
442.21	1900.52
442.41	1779.68
442.62	1980.39
442.82	1779.68
443.02	1812.45
443.23	1843.17
443.43	1847.27
443.64	1949.67
443.84	1935.33
444.05	2019.30
444.25	1927.14
444.46	1822.69
444.66	1824.74
444.87	1947.62
445.07	1730.53
445.28	1865.70
445.48	1904.61
445.69	1871.84
445.89	2007.01
446.09	1785.83
446.30	2086.88
446.50	2574.30
446.71	4147.14
446.91	5169.07
447.12	5963.68
447.32	6307.74
447.53	5674.92
447.73	4601.79
447.93	4106.18
448.14	3782.60
448.34	3659.72
448.55	3243.98
448.75	3164.11
448.96	3110.86
449.16	2709.46
449.36	2510.81
449.57	2252.77
449.77	1984.48
449.98	1900.52
450.18	1904.61
450.39	1904.61
450.59	1939.43
450.79	1873.89
451.00	1863.65
451.20	1861.60
451.41	1763.30
451.61	1910.75
451.81	1853.41
452.02	1753.06
452.22	1841.12
452.43	1777.64
452.63	1804.26
