SpectraSuite Data File
++++++++++++++++++++++++++++++++++++
Date: Wed May 04 21:13:19 CEST 2016
User: root
Dark Spectrum Present: No
Reference Spectrum Present: No
Number of Sampled Component Spectra: 1
Spectrometers: USB4C02835
Integration Time (usec): 100000 (USB4C02835)
Spectra Averaged: 1 (USB4C02835)
Boxcar Smoothing: 0 (USB4C02835)
Correct for Electrical Dark: No (USB4C02835)
Strobe/Lamp Enabled: No (USB4C02835)
Correct for Detector Non-linearity: No (USB4C02835)
Correct for Stray Light: No (USB4C02835)
Number of Pixels in Processed Spectrum: 3648
>>>>>Begin Processed Spectral Data<<<<<
177.47	1568.74
177.69	1568.74
177.91	1568.74
178.13	1513.45
178.36	1478.63
178.58	1791.97
178.80	1890.28
179.02	1701.86
179.24	1648.61
179.46	1769.44
179.68	1794.02
179.90	1806.31
180.13	1802.21
180.35	1728.49
180.57	1822.69
180.79	1970.15
181.01	1759.21
181.23	1834.98
181.45	1894.37
181.67	1972.19
181.90	1894.37
182.12	1839.08
182.34	1765.35
182.56	1853.41
182.78	1869.80
183.00	1824.74
183.22	1775.59
183.44	1726.44
183.66	1810.40
183.89	1902.56
184.11	1753.06
184.33	1912.80
184.55	1816.55
184.77	1789.92
184.99	1812.45
185.21	1794.02
185.43	2037.73
185.65	1712.10
185.87	1771.49
186.10	1976.29
186.32	1906.66
186.54	1818.60
186.76	1832.93
186.98	1828.84
187.20	1855.46
187.42	1830.88
187.64	1822.69
187.86	1841.12
188.08	1894.37
188.30	1763.30
188.52	1808.36
188.75	1853.41
188.97	1861.60
189.19	1802.21
189.41	1773.54
189.63	1806.31
189.85	1830.88
190.07	1757.16
190.29	1714.15
190.51	1861.60
190.73	1748.97
190.95	1853.41
191.17	1869.80
191.39	1722.34
191.61	1740.77
191.84	1796.07
192.06	1834.98
192.28	1822.69
192.50	1945.57
192.72	1746.92
192.94	1806.31
193.16	1791.97
193.38	1896.42
193.60	1742.82
193.82	1722.34
194.04	1832.93
194.26	1892.32
194.48	1828.84
194.70	1763.30
194.92	1748.97
195.14	1873.89
195.36	1794.02
195.58	1748.97
195.80	1767.40
196.02	1832.93
196.24	1785.83
196.46	1820.64
196.69	1867.75
196.91	2017.25
197.13	1789.92
197.35	1781.73
197.57	1943.52
197.79	1826.79
198.01	1808.36
198.23	1794.02
198.45	1816.55
198.67	1753.06
198.89	1859.56
199.11	1839.08
199.33	1806.31
199.55	1660.90
199.77	1785.83
199.99	1918.95
200.21	1812.45
200.43	1843.17
200.65	1673.19
200.87	1724.39
201.09	1853.41
201.31	1785.83
201.53	1837.03
201.75	1869.80
201.97	1759.21
202.19	1845.22
202.41	1832.93
202.63	1869.80
202.85	1849.32
203.07	1880.04
203.29	1845.22
203.51	1716.20
203.73	1771.49
203.95	2062.30
204.17	1863.65
204.39	1855.46
204.61	1820.64
204.83	1755.11
205.05	1871.84
205.27	1902.56
205.49	2058.21
205.71	1812.45
205.93	1740.77
206.15	1705.96
206.37	1726.44
206.59	1779.68
206.81	1720.29
207.03	1804.26
207.25	1722.34
207.47	1896.42
207.69	1783.78
207.91	1853.41
208.13	2000.87
208.34	1732.58
208.56	1716.20
208.78	1818.60
209.00	1791.97
209.22	1853.41
209.44	1759.21
209.66	1818.60
209.88	1724.39
210.10	1765.35
210.32	1798.12
210.54	1845.22
210.76	1886.18
210.98	1839.08
211.20	1701.86
211.42	1816.55
211.64	1828.84
211.86	1806.31
212.08	1826.79
212.30	1880.04
212.52	1832.93
212.74	1796.07
212.96	1755.11
213.17	1871.84
213.39	1927.14
213.61	1884.13
213.83	1781.73
214.05	1800.16
214.27	1925.09
214.49	1779.68
214.71	1794.02
214.93	1837.03
215.15	1771.49
215.37	1890.28
215.59	1730.53
215.81	1857.51
216.03	1869.80
216.24	1822.69
216.46	1773.54
216.68	1771.49
216.90	1865.70
217.12	1900.52
217.34	1759.21
217.56	1806.31
217.78	1888.23
218.00	1843.17
218.22	1791.97
218.44	1886.18
218.66	1767.40
218.87	1923.04
219.09	1724.39
219.31	1824.74
219.53	1820.64
219.75	1753.06
219.97	1777.64
220.19	1828.84
220.41	1824.74
220.63	1920.99
220.85	1873.89
221.06	1869.80
221.28	1865.70
221.50	1855.46
221.72	1804.26
221.94	1791.97
222.16	1839.08
222.38	1875.94
222.60	1882.08
222.82	1789.92
223.03	1890.28
223.25	1775.59
223.47	1789.92
223.69	1933.28
223.91	1834.98
224.13	1796.07
224.35	1798.12
224.57	1839.08
224.78	1892.32
225.00	1771.49
225.22	1843.17
225.44	1839.08
225.66	1812.45
225.88	1796.07
226.10	1832.93
226.32	1748.97
226.53	1843.17
226.75	1822.69
226.97	1847.27
227.19	1802.21
227.41	1763.30
227.63	1796.07
227.85	1753.06
228.06	1814.50
228.28	1808.36
228.50	1832.93
228.72	1689.57
228.94	1761.25
229.16	1701.86
229.37	1746.92
229.59	1775.59
229.81	1832.93
230.03	1777.64
230.25	1685.48
230.47	1703.91
230.69	1757.16
230.90	1798.12
231.12	1753.06
231.34	1882.08
231.56	1847.27
231.78	1781.73
232.00	1771.49
232.21	1791.97
232.43	1769.44
232.65	1691.62
232.87	1800.16
233.09	1763.30
233.30	1773.54
233.52	1810.40
233.74	1742.82
233.96	1718.25
234.18	1824.74
234.40	1808.36
234.61	1951.71
234.83	1746.92
235.05	1765.35
235.27	1906.66
235.49	1787.88
235.70	1753.06
235.92	1916.90
236.14	1849.32
236.36	1937.38
236.58	1806.31
236.79	1832.93
237.01	1781.73
237.23	1798.12
237.45	1908.71
237.67	1763.30
237.88	1818.60
238.10	1796.07
238.32	1730.53
238.54	1837.03
238.76	1804.26
238.97	1816.55
239.19	1705.96
239.41	1912.80
239.63	1957.86
239.85	1785.83
240.06	1820.64
240.28	1734.63
240.50	1861.60
240.72	1751.01
240.93	1744.87
241.15	1861.60
241.37	1845.22
241.59	1861.60
241.81	1755.11
242.02	1775.59
242.24	1890.28
242.46	1861.60
242.68	1800.16
242.89	1847.27
243.11	1863.65
243.33	1787.88
243.55	1808.36
243.76	1914.85
243.98	1755.11
244.20	1853.41
244.42	1832.93
244.64	1851.36
244.85	1736.68
245.07	1753.06
245.29	1861.60
245.51	1738.73
245.72	1787.88
245.94	1849.32
246.16	1871.84
246.38	1859.56
246.59	1796.07
246.81	1767.40
247.03	1837.03
247.24	1675.24
247.46	1769.44
247.68	1736.68
247.90	1869.80
248.11	1744.87
248.33	1834.98
248.55	1757.16
248.77	1785.83
248.98	1884.13
249.20	1890.28
249.42	1796.07
249.64	1847.27
249.85	1791.97
250.07	1787.88
250.29	1906.66
250.50	1841.12
250.72	1667.05
250.94	1820.64
251.16	1896.42
251.37	1875.94
251.59	1908.71
251.81	1863.65
252.02	1882.08
252.24	1808.36
252.46	1964.00
252.68	1716.20
252.89	1789.92
253.11	1726.44
253.33	1935.33
253.54	1961.95
253.76	1783.78
253.98	1755.11
254.20	1771.49
254.41	1763.30
254.63	1851.36
254.85	1726.44
255.06	1812.45
255.28	1812.45
255.50	1845.22
255.71	1714.15
255.93	1669.09
256.15	1740.77
256.36	1740.77
256.58	1736.68
256.80	1812.45
257.02	1837.03
257.23	1824.74
257.45	1791.97
257.67	1906.66
257.88	1738.73
258.10	1914.85
258.32	1769.44
258.53	1818.60
258.75	1865.70
258.97	1734.63
259.18	1839.08
259.40	1763.30
259.62	1902.56
259.83	1943.52
260.05	1861.60
260.27	2133.98
260.48	1884.13
260.70	1722.34
260.92	1751.01
261.13	1810.40
261.35	1916.90
261.57	1787.88
261.78	1703.91
262.00	1804.26
262.22	1898.47
262.43	1824.74
262.65	1824.74
262.86	1902.56
263.08	1961.95
263.30	1765.35
263.51	1759.21
263.73	1789.92
263.95	1935.33
264.16	1748.97
264.38	1759.21
264.60	1853.41
264.81	1830.88
265.03	1873.89
265.25	1877.99
265.46	1761.25
265.68	1830.88
265.89	1832.93
266.11	1726.44
266.33	1847.27
266.54	1877.99
266.76	1859.56
266.98	1847.27
267.19	1898.47
267.41	1880.04
267.62	1794.02
267.84	1771.49
268.06	1855.46
268.27	1837.03
268.49	1873.89
268.70	1785.83
268.92	1779.68
269.14	1787.88
269.35	1732.58
269.57	1763.30
269.79	1867.75
270.00	1736.68
270.22	1927.14
270.43	1728.49
270.65	1771.49
270.87	1785.83
271.08	1851.36
271.30	1765.35
271.51	1839.08
271.73	1890.28
271.95	1927.14
272.16	1839.08
272.38	1798.12
272.59	1783.78
272.81	1791.97
273.02	1828.84
273.24	1839.08
273.46	1834.98
273.67	1812.45
273.89	1759.21
274.10	1771.49
274.32	1894.37
274.54	1861.60
274.75	1804.26
274.97	1761.25
275.18	1816.55
275.40	1865.70
275.61	1787.88
275.83	1830.88
276.05	1736.68
276.26	1841.12
276.48	1863.65
276.69	1736.68
276.91	1824.74
277.12	1972.19
277.34	1861.60
277.55	1820.64
277.77	1820.64
277.99	1783.78
278.20	1771.49
278.42	1767.40
278.63	1720.29
278.85	1816.55
279.06	1732.58
279.28	1849.32
279.49	1869.80
279.71	1804.26
279.93	1791.97
280.14	1804.26
280.36	1742.82
280.57	1828.84
280.79	1859.56
281.00	1742.82
281.22	1775.59
281.43	1871.84
281.65	1650.66
281.86	1660.90
282.08	1867.75
282.29	1931.23
282.51	1794.02
282.73	1777.64
282.94	1710.05
283.16	1826.79
283.37	1875.94
283.59	1787.88
283.80	1789.92
284.02	1785.83
284.23	1837.03
284.45	1777.64
284.66	1734.63
284.88	1789.92
285.09	1865.70
285.31	1873.89
285.52	1826.79
285.74	1740.77
285.95	1886.18
286.17	1894.37
286.38	1814.50
286.60	1701.86
286.81	1791.97
287.03	1796.07
287.24	1763.30
287.46	1867.75
287.67	1802.21
287.89	1908.71
288.10	1697.77
288.32	1834.98
288.53	1898.47
288.75	1851.36
288.96	1857.51
289.18	1783.78
289.39	1843.17
289.61	1837.03
289.82	1918.95
290.04	1955.81
290.25	1753.06
290.47	1781.73
290.68	1830.88
290.90	1951.71
291.11	1697.77
291.33	1845.22
291.54	1759.21
291.76	1757.16
291.97	1777.64
292.18	1894.37
292.40	1775.59
292.61	1738.73
292.83	1916.90
293.04	1822.69
293.26	1800.16
293.47	1802.21
293.69	1777.64
293.90	1820.64
294.12	1853.41
294.33	1873.89
294.55	1794.02
294.76	1826.79
294.97	1863.65
295.19	2021.35
295.40	1755.11
295.62	1755.11
295.83	1984.48
296.05	1759.21
296.26	1886.18
296.48	1771.49
296.69	1804.26
296.90	1857.51
297.12	1861.60
297.33	1886.18
297.55	1851.36
297.76	1855.46
297.98	1849.32
298.19	1775.59
298.41	1746.92
298.62	1718.25
298.83	1900.52
299.05	1806.31
299.26	1796.07
299.48	1816.55
299.69	1847.27
299.90	1834.98
300.12	1871.84
300.33	1843.17
300.55	1839.08
300.76	1857.51
300.98	1791.97
301.19	1865.70
301.40	1787.88
301.62	1767.40
301.83	1781.73
302.05	1884.13
302.26	1812.45
302.47	1865.70
302.69	1783.78
302.90	1783.78
303.12	1679.33
303.33	1808.36
303.54	1927.14
303.76	1853.41
303.97	1794.02
304.19	1869.80
304.40	1800.16
304.61	1796.07
304.83	1916.90
305.04	1882.08
305.26	1877.99
305.47	1791.97
305.68	1812.45
305.90	1744.87
306.11	1929.19
306.33	1839.08
306.54	1765.35
306.75	1837.03
306.97	1689.57
307.18	1812.45
307.39	1853.41
307.61	1746.92
307.82	1869.80
308.04	1751.01
308.25	1777.64
308.46	1800.16
308.68	1814.50
308.89	1830.88
309.10	1800.16
309.32	1818.60
309.53	1828.84
309.74	1845.22
309.96	1648.61
310.17	1902.56
310.39	1787.88
310.60	1818.60
310.81	1769.44
311.03	1796.07
311.24	1857.51
311.45	1804.26
311.67	1953.76
311.88	1837.03
312.09	1724.39
312.31	1734.63
312.52	1824.74
312.73	1779.68
312.95	1681.38
313.16	1732.58
313.37	1933.28
313.59	1923.04
313.80	1843.17
314.01	2011.11
314.23	1826.79
314.44	1787.88
314.65	1859.56
314.87	1751.01
315.08	1779.68
315.29	1816.55
315.51	1751.01
315.72	1742.82
315.93	1931.23
316.15	1894.37
316.36	1820.64
316.57	1796.07
316.79	1912.80
317.00	1808.36
317.21	1841.12
317.43	1765.35
317.64	1791.97
317.85	1769.44
318.07	1789.92
318.28	1847.27
318.49	1992.67
318.70	2037.73
318.92	2027.49
319.13	1988.58
319.34	2033.63
319.56	1955.81
319.77	1955.81
319.98	1849.32
320.20	1916.90
320.41	1941.47
320.62	1845.22
320.83	1746.92
321.05	2045.92
321.26	1918.95
321.47	1828.84
321.69	1939.43
321.90	1730.53
322.11	1882.08
322.32	1847.27
322.54	1877.99
322.75	1783.78
322.96	1968.10
323.18	1773.54
323.39	1722.34
323.60	1845.22
323.81	1847.27
324.03	1841.12
324.24	1894.37
324.45	1789.92
324.66	1804.26
324.88	1916.90
325.09	1888.23
325.30	1834.98
325.52	1818.60
325.73	1830.88
325.94	1804.26
326.15	1761.25
326.37	1685.48
326.58	1894.37
326.79	1894.37
327.00	1734.63
327.22	1771.49
327.43	1753.06
327.64	1679.33
327.85	1896.42
328.07	1820.64
328.28	1900.52
328.49	1781.73
328.70	1755.11
328.92	1851.36
329.13	1806.31
329.34	1896.42
329.55	1920.99
329.76	1882.08
329.98	1781.73
330.19	1900.52
330.40	1894.37
330.61	1814.50
330.83	1834.98
331.04	1701.86
331.25	1777.64
331.46	1771.49
331.68	1753.06
331.89	1937.38
332.10	1738.73
332.31	1705.96
332.52	1794.02
332.74	1939.43
332.95	1736.68
333.16	1937.38
333.37	1853.41
333.58	1820.64
333.80	1849.32
334.01	1734.63
334.22	1791.97
334.43	1783.78
334.64	1814.50
334.86	1691.62
335.07	1753.06
335.28	1902.56
335.49	1671.14
335.70	1816.55
335.92	1837.03
336.13	1898.47
336.34	1904.61
336.55	1775.59
336.76	1837.03
336.98	1648.61
337.19	1843.17
337.40	1972.19
337.61	1927.14
337.82	1800.16
338.04	1906.66
338.25	1701.86
338.46	1771.49
338.67	1861.60
338.88	1767.40
339.09	1685.48
339.31	1732.58
339.52	1808.36
339.73	1722.34
339.94	1804.26
340.15	1769.44
340.36	1755.11
340.58	1800.16
340.79	1751.01
341.00	1859.56
341.21	1753.06
341.42	1910.75
341.63	1843.17
341.85	1882.08
342.06	1841.12
342.27	1669.09
342.48	1845.22
342.69	1683.43
342.90	1812.45
343.12	1783.78
343.33	1794.02
343.54	1859.56
343.75	1906.66
343.96	1837.03
344.17	1796.07
344.38	1753.06
344.60	1816.55
344.81	1730.53
345.02	1785.83
345.23	1880.04
345.44	1959.91
345.65	1902.56
345.86	1828.84
346.07	1834.98
346.29	1783.78
346.50	1890.28
346.71	1886.18
346.92	1984.48
347.13	1935.33
347.34	1769.44
347.55	1746.92
347.76	1886.18
347.98	1710.05
348.19	1804.26
348.40	1884.13
348.61	1701.86
348.82	1929.19
349.03	1855.46
349.24	1791.97
349.45	1943.52
349.66	1673.19
349.88	1808.36
350.09	1738.73
350.30	1933.28
350.51	1847.27
350.72	1832.93
350.93	1904.61
351.14	1703.91
351.35	1918.95
351.56	1834.98
351.77	1869.80
351.99	1855.46
352.20	1902.56
352.41	1935.33
352.62	1740.77
352.83	1824.74
353.04	1773.54
353.25	1736.68
353.46	1951.71
353.67	1959.91
353.88	1722.34
354.09	1773.54
354.30	1824.74
354.52	1861.60
354.73	1753.06
354.94	1730.53
355.15	1755.11
355.36	1929.19
355.57	1736.68
355.78	1886.18
355.99	1738.73
356.20	1826.79
356.41	1875.94
356.62	1832.93
356.83	1810.40
357.04	1994.72
357.25	1742.82
357.46	1765.35
357.68	1697.77
357.89	1847.27
358.10	1763.30
358.31	1837.03
358.52	1761.25
358.73	1759.21
358.94	1746.92
359.15	1742.82
359.36	1738.73
359.57	1773.54
359.78	1812.45
359.99	1855.46
360.20	1832.93
360.41	1746.92
360.62	1906.66
360.83	1781.73
361.04	1810.40
361.25	1822.69
361.46	1892.32
361.67	1841.12
361.88	1900.52
362.09	1849.32
362.30	1830.88
362.51	1759.21
362.72	1873.89
362.93	1925.09
363.14	1931.23
363.35	1834.98
363.56	1751.01
363.78	1816.55
363.99	1812.45
364.20	1787.88
364.41	1802.21
364.62	1888.23
364.83	1884.13
365.04	1794.02
365.25	1785.83
365.46	2017.25
365.67	1796.07
365.88	1808.36
366.09	1822.69
366.30	1843.17
366.51	1861.60
366.72	1769.44
366.93	1742.82
367.14	1828.84
367.35	1892.32
367.56	1791.97
367.77	1859.56
367.98	1732.58
368.18	1847.27
368.39	1843.17
368.60	1779.68
368.81	1777.64
369.02	1773.54
369.23	1783.78
369.44	1746.92
369.65	1822.69
369.86	1812.45
370.07	1781.73
370.28	1767.40
370.49	1884.13
370.70	1869.80
370.91	1755.11
371.12	1722.34
371.33	1892.32
371.54	1804.26
371.75	1961.95
371.96	1691.62
372.17	1877.99
372.38	1791.97
372.59	1810.40
372.80	1777.64
373.01	1753.06
373.22	1785.83
373.43	1931.23
373.64	1712.10
373.85	2007.01
374.06	1953.76
374.26	1863.65
374.47	1789.92
374.68	1875.94
374.89	1826.79
375.10	1773.54
375.31	1927.14
375.52	1765.35
375.73	1841.12
375.94	1671.14
376.15	1890.28
376.36	1691.62
376.57	1742.82
376.78	1802.21
376.99	1806.31
377.20	1853.41
377.40	1777.64
377.61	1918.95
377.82	1826.79
378.03	1890.28
378.24	1826.79
378.45	1818.60
378.66	1794.02
378.87	1742.82
379.08	1783.78
379.29	1755.11
379.50	1937.38
379.71	1865.70
379.91	1927.14
380.12	1855.46
380.33	1822.69
380.54	1791.97
380.75	1798.12
380.96	1886.18
381.17	1906.66
381.38	1779.68
381.59	1892.32
381.80	1896.42
382.00	1966.05
382.21	1904.61
382.42	1966.05
382.63	2013.15
382.84	1841.12
383.05	1984.48
383.26	1943.52
383.47	1863.65
383.68	1787.88
383.88	1837.03
384.09	1816.55
384.30	1951.71
384.51	1816.55
384.72	1781.73
384.93	1722.34
385.14	1826.79
385.35	1865.70
385.55	1787.88
385.76	1900.52
385.97	1791.97
386.18	1748.97
386.39	1759.21
386.60	1861.60
386.81	1884.13
387.02	1812.45
387.22	1802.21
387.43	1904.61
387.64	1890.28
387.85	2007.01
388.06	2154.46
388.27	4319.17
388.48	8947.58
388.68	11853.64
388.89	13932.33
389.10	14798.62
389.31	13164.34
389.52	10508.13
389.73	9185.14
389.93	8398.72
390.14	7477.13
390.35	7026.58
390.56	6098.85
390.77	5322.67
390.98	3999.68
391.18	3100.62
391.39	2486.23
391.60	2007.01
391.81	2011.11
392.02	1857.51
392.23	1992.67
392.43	1908.71
392.64	1951.71
392.85	1804.26
393.06	1931.23
393.27	1847.27
393.47	1796.07
393.68	1789.92
393.89	1794.02
394.10	1871.84
394.31	1687.53
394.52	1742.82
394.72	1818.60
394.93	1916.90
395.14	1812.45
395.35	1861.60
395.56	1839.08
395.76	1728.49
395.97	1892.32
396.18	2017.25
396.39	1980.39
396.60	2232.29
396.80	2025.44
397.01	1992.67
397.22	1869.80
397.43	1906.66
397.64	1906.66
397.84	1980.39
398.05	2002.91
398.26	1871.84
398.47	1871.84
398.67	1869.80
398.88	1798.12
399.09	1892.32
399.30	1818.60
399.51	1775.59
399.71	1755.11
399.92	1834.98
400.13	1779.68
400.34	1808.36
400.54	1871.84
400.75	1966.05
400.96	1910.75
401.17	1972.19
401.37	1841.12
401.58	1837.03
401.79	1845.22
402.00	1947.62
402.21	2203.61
402.41	2195.42
402.62	2166.75
402.83	2242.53
403.04	2291.68
403.24	2303.96
403.45	1998.82
403.66	2025.44
403.87	2045.92
404.07	2107.36
404.28	2133.98
404.49	2023.39
404.70	1968.10
404.90	1888.23
405.11	1834.98
405.32	1851.36
405.52	1794.02
405.73	1802.21
405.94	1728.49
406.15	1757.16
406.35	1880.04
406.56	1828.84
406.77	1861.60
406.98	1798.12
407.18	1800.16
407.39	1888.23
407.60	1697.77
407.80	1906.66
408.01	1830.88
408.22	1804.26
408.43	1808.36
408.63	1888.23
408.84	1855.46
409.05	1832.93
409.25	1716.20
409.46	1724.39
409.67	1814.50
409.88	1746.92
410.08	1904.61
410.29	1810.40
410.50	1826.79
410.70	1857.51
410.91	1710.05
411.12	1918.95
411.32	1847.27
411.53	1748.97
411.74	1974.24
411.95	1882.08
412.15	1904.61
412.36	1906.66
412.57	1828.84
412.77	1943.52
412.98	1923.04
413.19	1880.04
413.39	1849.32
413.60	1916.90
413.81	1945.57
414.01	1816.55
414.22	1923.04
414.43	1933.28
414.63	1873.89
414.84	1931.23
415.05	1834.98
415.25	1734.63
415.46	1910.75
415.67	1814.50
415.87	1851.36
416.08	1849.32
416.29	1779.68
416.49	1920.99
416.70	1810.40
416.91	1802.21
417.11	1800.16
417.32	1896.42
417.53	1886.18
417.73	1859.56
417.94	1849.32
418.15	1804.26
418.35	1892.32
418.56	1816.55
418.77	1955.81
418.97	1777.64
419.18	1875.94
419.38	1685.48
419.59	1785.83
419.80	1964.00
420.00	1796.07
420.21	1810.40
420.42	1902.56
420.62	1859.56
420.83	1761.25
421.04	1822.69
421.24	1890.28
421.45	1814.50
421.65	1849.32
421.86	1871.84
422.07	1830.88
422.27	1863.65
422.48	1832.93
422.69	1705.96
422.89	1816.55
423.10	1849.32
423.30	1777.64
423.51	1804.26
423.72	1800.16
423.92	1789.92
424.13	1820.64
424.33	1796.07
424.54	1902.56
424.75	1847.27
424.95	1986.53
425.16	1843.17
425.36	1791.97
425.57	1857.51
425.78	1863.65
425.98	1873.89
426.19	1824.74
426.39	1753.06
426.60	1841.12
426.81	1896.42
427.01	1867.75
427.22	1779.68
427.42	1716.20
427.63	1791.97
427.83	1941.47
428.04	1904.61
428.25	1939.43
428.45	1904.61
428.66	1884.13
428.86	1828.84
429.07	1824.74
429.28	1812.45
429.48	1808.36
429.69	1748.97
429.89	1910.75
430.10	1748.97
430.30	1816.55
430.51	1890.28
430.71	1820.64
430.92	1847.27
431.13	1845.22
431.33	1816.55
431.54	1798.12
431.74	1908.71
431.95	2009.06
432.15	1748.97
432.36	1763.30
432.56	1902.56
432.77	1939.43
432.98	1937.38
433.18	1871.84
433.39	1804.26
433.59	1757.16
433.80	1945.57
434.00	1955.81
434.21	1783.78
434.41	1839.08
434.62	1888.23
434.82	1744.87
435.03	1857.51
435.23	1816.55
435.44	1753.06
435.64	1796.07
435.85	1759.21
436.06	1812.45
436.26	1824.74
436.47	1847.27
436.67	1787.88
436.88	1834.98
437.08	1947.62
437.29	1929.19
437.49	1886.18
437.70	1908.71
437.90	1920.99
438.11	1959.91
438.31	1931.23
438.52	2117.60
438.72	2076.64
438.93	2125.79
439.13	1998.82
439.34	1978.34
439.54	1951.71
439.75	1845.22
439.95	1898.47
440.16	1865.70
440.36	1808.36
440.57	1951.71
440.77	1914.85
440.98	1865.70
441.18	1890.28
441.39	1783.78
441.59	1685.48
441.80	1988.58
442.00	1861.60
442.21	1935.33
442.41	1726.44
442.62	1898.47
442.82	1773.54
443.02	1880.04
443.23	1869.80
443.43	1867.75
443.64	2000.87
443.84	1906.66
444.05	1935.33
444.25	1861.60
444.46	1822.69
444.66	1845.22
444.87	2009.06
445.07	1769.44
445.28	1794.02
445.48	1828.84
445.69	1941.47
445.89	1912.80
446.09	1847.27
446.30	2058.21
446.50	2549.72
446.71	4157.38
446.91	5134.26
447.12	5889.96
447.32	6217.63
447.53	5724.07
447.73	4689.85
447.93	4204.48
448.14	3821.51
448.34	3747.78
448.55	3256.27
448.75	3286.99
448.96	3080.14
449.16	2740.18
449.36	2566.10
449.57	2197.47
449.77	2045.92
449.98	1916.90
450.18	2017.25
450.39	2011.11
450.59	1898.47
450.79	1982.43
451.00	1847.27
451.20	1937.38
451.41	1894.37
451.61	1904.61
451.81	1789.92
452.02	1896.42
452.22	1865.70
452.43	1789.92
452.63	1779.68
