SpectraSuite Data File
++++++++++++++++++++++++++++++++++++
Date: Wed May 04 21:13:06 CEST 2016
User: root
Dark Spectrum Present: No
Reference Spectrum Present: No
Number of Sampled Component Spectra: 1
Spectrometers: USB4C02835
Integration Time (usec): 100000 (USB4C02835)
Spectra Averaged: 1 (USB4C02835)
Boxcar Smoothing: 0 (USB4C02835)
Correct for Electrical Dark: No (USB4C02835)
Strobe/Lamp Enabled: No (USB4C02835)
Correct for Detector Non-linearity: No (USB4C02835)
Correct for Stray Light: No (USB4C02835)
Number of Pixels in Processed Spectrum: 3648
>>>>>Begin Processed Spectral Data<<<<<
177.47	1558.50
177.69	1558.50
177.91	1558.50
178.13	1540.07
178.36	1505.26
178.58	1693.67
178.80	1791.97
179.02	1603.56
179.24	1755.11
179.46	1847.27
179.68	1853.41
179.90	1820.64
180.13	1849.32
180.35	1757.16
180.57	1732.58
180.79	1832.93
181.01	1789.92
181.23	1828.84
181.45	1886.18
181.67	1853.41
181.90	1785.83
182.12	1834.98
182.34	1726.44
182.56	1839.08
182.78	1818.60
183.00	1777.64
183.22	1806.31
183.44	1746.92
183.66	1959.91
183.89	1877.99
184.11	1783.78
184.33	1814.50
184.55	1908.71
184.77	1906.66
184.99	1828.84
185.21	1810.40
185.43	1929.19
185.65	1800.16
185.87	1806.31
186.10	1910.75
186.32	1877.99
186.54	1798.12
186.76	1892.32
186.98	1834.98
187.20	1773.54
187.42	1734.63
187.64	1857.51
187.86	1847.27
188.08	1785.83
188.30	1689.57
188.52	1763.30
188.75	1925.09
188.97	1933.28
189.19	1685.48
189.41	1812.45
189.63	1849.32
189.85	1796.07
190.07	1781.73
190.29	1755.11
190.51	1832.93
190.73	1712.10
190.95	1884.13
191.17	1804.26
191.39	1748.97
191.61	1779.68
191.84	1789.92
192.06	1783.78
192.28	1730.53
192.50	1976.29
192.72	1800.16
192.94	1798.12
193.16	1902.56
193.38	1771.49
193.60	1730.53
193.82	1746.92
194.04	1816.55
194.26	1812.45
194.48	1843.17
194.70	1773.54
194.92	1808.36
195.14	1863.65
195.36	1806.31
195.58	1777.64
195.80	1771.49
196.02	1781.73
196.24	1884.13
196.46	1845.22
196.69	1830.88
196.91	1923.04
197.13	1820.64
197.35	1753.06
197.57	1902.56
197.79	1816.55
198.01	1871.84
198.23	1861.60
198.45	1791.97
198.67	1771.49
198.89	1810.40
199.11	1796.07
199.33	1740.77
199.55	1632.23
199.77	1808.36
199.99	1894.37
200.21	1734.63
200.43	1875.94
200.65	1804.26
200.87	1730.53
201.09	1861.60
201.31	1779.68
201.53	1822.69
201.75	1771.49
201.97	1818.60
202.19	1777.64
202.41	1783.78
202.63	1925.09
202.85	1843.17
203.07	1853.41
203.29	1814.50
203.51	1687.53
203.73	1683.43
203.95	2029.54
204.17	1863.65
204.39	1875.94
204.61	1726.44
204.83	1755.11
205.05	1918.95
205.27	1925.09
205.49	1984.48
205.71	1841.12
205.93	1714.15
206.15	1830.88
206.37	1779.68
206.59	1779.68
206.81	1693.67
207.03	1783.78
207.25	1755.11
207.47	1863.65
207.69	1789.92
207.91	1974.24
208.13	1806.31
208.34	1724.39
208.56	1796.07
208.78	1853.41
209.00	1830.88
209.22	1798.12
209.44	1759.21
209.66	1734.63
209.88	1855.46
210.10	1798.12
210.32	1804.26
210.54	1910.75
210.76	1806.31
210.98	1873.89
211.20	1796.07
211.42	1834.98
211.64	1927.14
211.86	1832.93
212.08	1871.84
212.30	1763.30
212.52	1794.02
212.74	1837.03
212.96	1822.69
213.17	1851.36
213.39	1871.84
213.61	1896.42
213.83	1830.88
214.05	1828.84
214.27	1820.64
214.49	1845.22
214.71	1703.91
214.93	1871.84
215.15	1810.40
215.37	1837.03
215.59	1748.97
215.81	1826.79
216.03	1886.18
216.24	1810.40
216.46	1789.92
216.68	1837.03
216.90	1880.04
217.12	1869.80
217.34	1837.03
217.56	1751.01
217.78	1900.52
218.00	1890.28
218.22	1814.50
218.44	1873.89
218.66	1884.13
218.87	1884.13
219.09	1824.74
219.31	1851.36
219.53	1832.93
219.75	1832.93
219.97	1783.78
220.19	1843.17
220.41	1732.58
220.63	1890.28
220.85	1808.36
221.06	1716.20
221.28	1796.07
221.50	1804.26
221.72	1771.49
221.94	1773.54
222.16	1871.84
222.38	1839.08
222.60	1798.12
222.82	1783.78
223.03	1914.85
223.25	1783.78
223.47	1824.74
223.69	1949.67
223.91	1863.65
224.13	1810.40
224.35	1783.78
224.57	1886.18
224.78	1920.99
225.00	1763.30
225.22	1759.21
225.44	1800.16
225.66	1802.21
225.88	1796.07
226.10	1865.70
226.32	1808.36
226.53	1900.52
226.75	1849.32
226.97	1796.07
227.19	1755.11
227.41	1738.73
227.63	1812.45
227.85	1693.67
228.06	1769.44
228.28	1787.88
228.50	1830.88
228.72	1816.55
228.94	1822.69
229.16	1736.68
229.37	1761.25
229.59	1787.88
229.81	1910.75
230.03	1798.12
230.25	1734.63
230.47	1703.91
230.69	1693.67
230.90	1871.84
231.12	1865.70
231.34	1904.61
231.56	1910.75
231.78	1763.30
232.00	1839.08
232.21	1769.44
232.43	1761.25
232.65	1646.57
232.87	1802.21
233.09	1757.16
233.30	1781.73
233.52	1849.32
233.74	1796.07
233.96	1748.97
234.18	1816.55
234.40	1886.18
234.61	2007.01
234.83	1730.53
235.05	1820.64
235.27	1955.81
235.49	1914.85
235.70	1882.08
235.92	1882.08
236.14	1787.88
236.36	1920.99
236.58	1714.15
236.79	1888.23
237.01	1773.54
237.23	1773.54
237.45	1837.03
237.67	1744.87
237.88	1861.60
238.10	1966.05
238.32	1759.21
238.54	1828.84
238.76	1705.96
238.97	1732.58
239.19	1726.44
239.41	1949.67
239.63	1871.84
239.85	1816.55
240.06	1757.16
240.28	1804.26
240.50	1812.45
240.72	1755.11
240.93	1787.88
241.15	1871.84
241.37	1802.21
241.59	1810.40
241.81	1814.50
242.02	1800.16
242.24	1794.02
242.46	1871.84
242.68	1753.06
242.89	1898.47
243.11	1794.02
243.33	1830.88
243.55	1849.32
243.76	1738.73
243.98	1822.69
244.20	1824.74
244.42	1818.60
244.64	1806.31
244.85	1724.39
245.07	1812.45
245.29	1884.13
245.51	1832.93
245.72	1890.28
245.94	1914.85
246.16	1794.02
246.38	1888.23
246.59	1728.49
246.81	1767.40
247.03	1744.87
247.24	1667.05
247.46	1769.44
247.68	1869.80
247.90	1882.08
248.11	1769.44
248.33	1820.64
248.55	1820.64
248.77	1894.37
248.98	1814.50
249.20	1964.00
249.42	1753.06
249.64	1853.41
249.85	1837.03
250.07	1759.21
250.29	1832.93
250.50	1894.37
250.72	1910.75
250.94	1837.03
251.16	1959.91
251.37	1875.94
251.59	1779.68
251.81	1814.50
252.02	1880.04
252.24	1728.49
252.46	1785.83
252.68	1773.54
252.89	1824.74
253.11	1755.11
253.33	1912.80
253.54	1935.33
253.76	1834.98
253.98	1857.51
254.20	1757.16
254.41	1816.55
254.63	1798.12
254.85	1718.25
255.06	1816.55
255.28	1873.89
255.50	1816.55
255.71	1861.60
255.93	1710.05
256.15	1765.35
256.36	1927.14
256.58	1783.78
256.80	1822.69
257.02	1777.64
257.23	1751.01
257.45	1781.73
257.67	1890.28
257.88	1808.36
258.10	1875.94
258.32	1742.82
258.53	1757.16
258.75	1906.66
258.97	1824.74
259.18	1800.16
259.40	1830.88
259.62	1884.13
259.83	1914.85
260.05	1859.56
260.27	2066.40
260.48	1832.93
260.70	1781.73
260.92	1779.68
261.13	1787.88
261.35	1898.47
261.57	1902.56
261.78	1734.63
262.00	1740.77
262.22	1820.64
262.43	1767.40
262.65	1822.69
262.86	1783.78
263.08	1861.60
263.30	1839.08
263.51	1716.20
263.73	1796.07
263.95	1939.43
264.16	1826.79
264.38	1771.49
264.60	1841.12
264.81	1816.55
265.03	1853.41
265.25	1888.23
265.46	1751.01
265.68	1855.46
265.89	1834.98
266.11	1691.62
266.33	1873.89
266.54	1978.34
266.76	1849.32
266.98	1918.95
267.19	1918.95
267.41	1894.37
267.62	1781.73
267.84	1720.29
268.06	1882.08
268.27	1877.99
268.49	1941.47
268.70	1802.21
268.92	1783.78
269.14	1839.08
269.35	1701.86
269.57	1818.60
269.79	1818.60
270.00	1773.54
270.22	1841.12
270.43	1744.87
270.65	1673.19
270.87	1834.98
271.08	1853.41
271.30	1796.07
271.51	1826.79
271.73	1882.08
271.95	1880.04
272.16	1888.23
272.38	1830.88
272.59	1765.35
272.81	1791.97
273.02	1796.07
273.24	1877.99
273.46	1886.18
273.67	1804.26
273.89	1703.91
274.10	1814.50
274.32	1781.73
274.54	1896.42
274.75	1859.56
274.97	1726.44
275.18	1857.51
275.40	1869.80
275.61	1777.64
275.83	1787.88
276.05	1734.63
276.26	1785.83
276.48	1785.83
276.69	1736.68
276.91	1755.11
277.12	1863.65
277.34	1918.95
277.55	1892.32
277.77	1845.22
277.99	1800.16
278.20	1701.86
278.42	1658.85
278.63	1775.59
278.85	1779.68
279.06	1699.81
279.28	1785.83
279.49	1845.22
279.71	1880.04
279.93	1804.26
280.14	1867.75
280.36	1822.69
280.57	1918.95
280.79	1882.08
281.00	1753.06
281.22	1710.05
281.43	1890.28
281.65	1710.05
281.86	1730.53
282.08	1845.22
282.29	1902.56
282.51	1808.36
282.73	1697.77
282.94	1685.48
283.16	1824.74
283.37	1882.08
283.59	1808.36
283.80	1789.92
284.02	1791.97
284.23	1871.84
284.45	1834.98
284.66	1703.91
284.88	1763.30
285.09	1853.41
285.31	1791.97
285.52	1822.69
285.74	1732.58
285.95	1865.70
286.17	1828.84
286.38	1882.08
286.60	1775.59
286.81	1689.57
287.03	1728.49
287.24	1886.18
287.46	1828.84
287.67	1806.31
287.89	1851.36
288.10	1746.92
288.32	1785.83
288.53	1865.70
288.75	1826.79
288.96	1869.80
289.18	1775.59
289.39	1765.35
289.61	1855.46
289.82	1935.33
290.04	1959.91
290.25	1841.12
290.47	1806.31
290.68	1796.07
290.90	1857.51
291.11	1777.64
291.33	1818.60
291.54	1771.49
291.76	1773.54
291.97	1834.98
292.18	1814.50
292.40	1761.25
292.61	1722.34
292.83	1916.90
293.04	1839.08
293.26	1832.93
293.47	1746.92
293.69	1779.68
293.90	1861.60
294.12	1841.12
294.33	1820.64
294.55	1740.77
294.76	1839.08
294.97	1861.60
295.19	1986.53
295.40	1781.73
295.62	1849.32
295.83	1828.84
296.05	1779.68
296.26	1900.52
296.48	1839.08
296.69	1740.77
296.90	1810.40
297.12	1882.08
297.33	1830.88
297.55	1794.02
297.76	1906.66
297.98	1906.66
298.19	1871.84
298.41	1791.97
298.62	1761.25
298.83	1935.33
299.05	1779.68
299.26	1765.35
299.48	1800.16
299.69	1824.74
299.90	1834.98
300.12	1830.88
300.33	1855.46
300.55	1742.82
300.76	1863.65
300.98	1781.73
301.19	1841.12
301.40	1785.83
301.62	1812.45
301.83	1794.02
302.05	1849.32
302.26	1826.79
302.47	1886.18
302.69	1773.54
302.90	1826.79
303.12	1679.33
303.33	1826.79
303.54	1900.52
303.76	1724.39
303.97	1804.26
304.19	1968.10
304.40	1832.93
304.61	1861.60
304.83	1947.62
305.04	1957.86
305.26	1857.51
305.47	1865.70
305.68	1775.59
305.90	1791.97
306.11	1808.36
306.33	1779.68
306.54	1761.25
306.75	1771.49
306.97	1740.77
307.18	1716.20
307.39	1763.30
307.61	1914.85
307.82	1796.07
308.04	1824.74
308.25	1757.16
308.46	1808.36
308.68	1865.70
308.89	1779.68
309.10	1896.42
309.32	1888.23
309.53	1771.49
309.74	1892.32
309.96	1791.97
310.17	1859.56
310.39	1781.73
310.60	1814.50
310.81	1755.11
311.03	1701.86
311.24	1841.12
311.45	1875.94
311.67	1998.82
311.88	1865.70
312.09	1775.59
312.31	1779.68
312.52	1773.54
312.73	1746.92
312.95	1726.44
313.16	1701.86
313.37	1941.47
313.59	1820.64
313.80	1834.98
314.01	1892.32
314.23	1751.01
314.44	1746.92
314.65	1699.81
314.87	1742.82
315.08	1761.25
315.29	1851.36
315.51	1781.73
315.72	1734.63
315.93	1886.18
316.15	1849.32
316.36	1765.35
316.57	1798.12
316.79	1794.02
317.00	1783.78
317.21	1925.09
317.43	1800.16
317.64	1769.44
317.85	1748.97
318.07	1865.70
318.28	1873.89
318.49	1943.52
318.70	2041.82
318.92	1945.57
319.13	2023.39
319.34	2062.30
319.56	1898.47
319.77	1959.91
319.98	1974.24
320.20	1939.43
320.41	1918.95
320.62	1859.56
320.83	1830.88
321.05	1976.29
321.26	1798.12
321.47	1757.16
321.69	1920.99
321.90	1787.88
322.11	1847.27
322.32	1877.99
322.54	1904.61
322.75	1771.49
322.96	1951.71
323.18	1742.82
323.39	1697.77
323.60	1769.44
323.81	1912.80
324.03	1742.82
324.24	1736.68
324.45	1814.50
324.66	1787.88
324.88	1916.90
325.09	1828.84
325.30	1832.93
325.52	1832.93
325.73	1851.36
325.94	1759.21
326.15	1769.44
326.37	1767.40
326.58	1869.80
326.79	1894.37
327.00	1701.86
327.22	1783.78
327.43	1742.82
327.64	1726.44
327.85	1910.75
328.07	1804.26
328.28	1966.05
328.49	1853.41
328.70	1828.84
328.92	1763.30
329.13	1816.55
329.34	1867.75
329.55	1906.66
329.76	1908.71
329.98	1789.92
330.19	1867.75
330.40	1865.70
330.61	1779.68
330.83	1847.27
331.04	1748.97
331.25	1834.98
331.46	1820.64
331.68	1798.12
331.89	1845.22
332.10	1775.59
332.31	1734.63
332.52	1761.25
332.74	1816.55
332.95	1712.10
333.16	1820.64
333.37	1884.13
333.58	1847.27
333.80	1789.92
334.01	1660.90
334.22	1796.07
334.43	1814.50
334.64	1800.16
334.86	1705.96
335.07	1708.01
335.28	1869.80
335.49	1701.86
335.70	1806.31
335.92	1894.37
336.13	2000.87
336.34	1898.47
336.55	1806.31
336.76	1861.60
336.98	1726.44
337.19	1814.50
337.40	1986.53
337.61	1959.91
337.82	1763.30
338.04	1927.14
338.25	1726.44
338.46	1869.80
338.67	1806.31
338.88	1742.82
339.09	1712.10
339.31	1814.50
339.52	1742.82
339.73	1671.14
339.94	1791.97
340.15	1839.08
340.36	1822.69
340.58	1877.99
340.79	1816.55
341.00	1841.12
341.21	1744.87
341.42	1918.95
341.63	1826.79
341.85	1888.23
342.06	1814.50
342.27	1744.87
342.48	1882.08
342.69	1779.68
342.90	1830.88
343.12	1890.28
343.33	1800.16
343.54	1857.51
343.75	1884.13
343.96	1841.12
344.17	1726.44
344.38	1789.92
344.60	1783.78
344.81	1736.68
345.02	1888.23
345.23	1855.46
345.44	1976.29
345.65	1888.23
345.86	1808.36
346.07	1822.69
346.29	1794.02
346.50	1873.89
346.71	1804.26
346.92	1871.84
347.13	2031.58
347.34	1853.41
347.55	1796.07
347.76	1916.90
347.98	1746.92
348.19	1834.98
348.40	1886.18
348.61	1787.88
348.82	1888.23
349.03	1820.64
349.24	1794.02
349.45	1939.43
349.66	1701.86
349.88	1763.30
350.09	1755.11
350.30	1904.61
350.51	1873.89
350.72	1865.70
350.93	1808.36
351.14	1832.93
351.35	1841.12
351.56	1839.08
351.77	1777.64
351.99	1820.64
352.20	1937.38
352.41	1886.18
352.62	1722.34
352.83	1791.97
353.04	1724.39
353.25	1812.45
353.46	1853.41
353.67	1916.90
353.88	1716.20
354.09	1761.25
354.30	1865.70
354.52	1847.27
354.73	1849.32
354.94	1806.31
355.15	1771.49
355.36	1923.04
355.57	1824.74
355.78	1841.12
355.99	1820.64
356.20	1822.69
356.41	1841.12
356.62	1861.60
356.83	1849.32
357.04	1916.90
357.25	1787.88
357.46	1884.13
357.68	1730.53
357.89	1800.16
358.10	1882.08
358.31	1875.94
358.52	1861.60
358.73	1802.21
358.94	1771.49
359.15	1787.88
359.36	1884.13
359.57	1859.56
359.78	1791.97
359.99	1830.88
360.20	1724.39
360.41	1755.11
360.62	1822.69
360.83	1861.60
361.04	1834.98
361.25	1894.37
361.46	1918.95
361.67	1873.89
361.88	1765.35
362.09	1834.98
362.30	1902.56
362.51	1744.87
362.72	1812.45
362.93	1873.89
363.14	1877.99
363.35	1812.45
363.56	1796.07
363.78	1855.46
363.99	1843.17
364.20	1775.59
364.41	1871.84
364.62	1853.41
364.83	1730.53
365.04	1869.80
365.25	1791.97
365.46	1994.72
365.67	1789.92
365.88	1824.74
366.09	1746.92
366.30	1759.21
366.51	1804.26
366.72	1742.82
366.93	1902.56
367.14	1828.84
367.35	1871.84
367.56	1826.79
367.77	1935.33
367.98	1787.88
368.18	1841.12
368.39	1859.56
368.60	1779.68
368.81	1884.13
369.02	1886.18
369.23	1728.49
369.44	1689.57
369.65	1767.40
369.86	1808.36
370.07	1861.60
370.28	1777.64
370.49	1855.46
370.70	1875.94
370.91	1763.30
371.12	1763.30
371.33	1841.12
371.54	1791.97
371.75	1925.09
371.96	1695.72
372.17	1845.22
372.38	1818.60
372.59	1830.88
372.80	1796.07
373.01	1783.78
373.22	1826.79
373.43	1845.22
373.64	1763.30
373.85	1929.19
374.06	1912.80
374.26	1806.31
374.47	1839.08
374.68	1884.13
374.89	1808.36
375.10	1865.70
375.31	1869.80
375.52	1791.97
375.73	1857.51
375.94	1748.97
376.15	1886.18
376.36	1753.06
376.57	1757.16
376.78	1710.05
376.99	1869.80
377.20	1923.04
377.40	1796.07
377.61	1968.10
377.82	1755.11
378.03	1945.57
378.24	1847.27
378.45	1832.93
378.66	1785.83
378.87	1703.91
379.08	1794.02
379.29	1781.73
379.50	1861.60
379.71	1816.55
379.91	1822.69
380.12	1837.03
380.33	1816.55
380.54	1812.45
380.75	1826.79
380.96	1812.45
381.17	1886.18
381.38	1832.93
381.59	1849.32
381.80	1880.04
382.00	1968.10
382.21	1863.65
382.42	2047.97
382.63	2029.54
382.84	1849.32
383.05	1902.56
383.26	1970.15
383.47	1828.84
383.68	1861.60
383.88	1859.56
384.09	1912.80
384.30	1869.80
384.51	1824.74
384.72	1794.02
384.93	1765.35
385.14	1880.04
385.35	1763.30
385.55	1665.00
385.76	1847.27
385.97	1800.16
386.18	1687.53
386.39	1787.88
386.60	1791.97
386.81	1861.60
387.02	1755.11
387.22	1769.44
387.43	1945.57
387.64	1832.93
387.85	2037.73
388.06	2121.70
388.27	4345.79
388.48	8720.25
388.68	11804.49
388.89	13975.34
389.10	14841.63
389.31	13059.90
389.52	10426.21
389.73	9000.82
389.93	8351.62
390.14	7610.25
390.35	6942.61
390.56	6274.98
390.77	5238.70
390.98	3837.89
391.18	3049.43
391.39	2400.22
391.60	2058.21
391.81	2043.87
392.02	1865.70
392.23	2017.25
392.43	1855.46
392.64	1943.52
392.85	1832.93
393.06	1935.33
393.27	1820.64
393.47	1779.68
393.68	1880.04
393.89	1771.49
394.10	1937.38
394.31	1746.92
394.52	1787.88
394.72	1751.01
394.93	1902.56
395.14	1812.45
395.35	1812.45
395.56	1824.74
395.76	1800.16
395.97	1931.23
396.18	1931.23
396.39	1996.77
396.60	2203.61
396.80	2107.36
397.01	1994.72
397.22	1927.14
397.43	1994.72
397.64	1941.47
397.84	1918.95
398.05	1947.62
398.26	1839.08
398.47	1923.04
398.67	1847.27
398.88	1757.16
399.09	1898.47
399.30	1890.28
399.51	1861.60
399.71	1755.11
399.92	1816.55
400.13	1816.55
400.34	1884.13
400.54	1814.50
400.75	1947.62
400.96	1898.47
401.17	1953.76
401.37	1834.98
401.58	1759.21
401.79	1873.89
402.00	1953.76
402.21	2242.53
402.41	2158.56
402.62	2301.92
402.83	2242.53
403.04	2273.25
403.24	2308.06
403.45	2056.16
403.66	2090.98
403.87	2025.44
404.07	2056.16
404.28	2101.22
404.49	1992.67
404.70	1882.08
404.90	1964.00
405.11	1884.13
405.32	1845.22
405.52	1802.21
405.73	1734.63
405.94	1763.30
406.15	1796.07
406.35	1816.55
406.56	1763.30
406.77	1867.75
406.98	1914.85
407.18	1779.68
407.39	1906.66
407.60	1818.60
407.80	1798.12
408.01	1818.60
408.22	1791.97
408.43	1798.12
408.63	1791.97
408.84	1880.04
409.05	1935.33
409.25	1763.30
409.46	1755.11
409.67	1730.53
409.88	1769.44
410.08	1791.97
410.29	1730.53
410.50	1791.97
410.70	1910.75
410.91	1701.86
411.12	1824.74
411.32	1853.41
411.53	1794.02
411.74	1933.28
411.95	1957.86
412.15	1949.67
412.36	1945.57
412.57	1906.66
412.77	1941.47
412.98	1824.74
413.19	1877.99
413.39	1890.28
413.60	1894.37
413.81	1910.75
414.01	1820.64
414.22	1873.89
414.43	1863.65
414.63	1777.64
414.84	1937.38
415.05	1800.16
415.25	1771.49
415.46	1931.23
415.67	1830.88
415.87	1859.56
416.08	1812.45
416.29	1804.26
416.49	1937.38
416.70	1775.59
416.91	1720.29
417.11	1884.13
417.32	1902.56
417.53	1871.84
417.73	1892.32
417.94	1810.40
418.15	1810.40
418.35	1865.70
418.56	1828.84
418.77	1896.42
418.97	1867.75
419.18	1748.97
419.38	1740.77
419.59	1886.18
419.80	1947.62
420.00	1757.16
420.21	1873.89
420.42	1880.04
420.62	1847.27
420.83	1781.73
421.04	1787.88
421.24	1804.26
421.45	1779.68
421.65	1832.93
421.86	1742.82
422.07	1953.76
422.27	1816.55
422.48	1880.04
422.69	1720.29
422.89	1814.50
423.10	1837.03
423.30	1810.40
423.51	1816.55
423.72	1736.68
423.92	1841.12
424.13	1732.58
424.33	1820.64
424.54	1906.66
424.75	1777.64
424.95	1902.56
425.16	1859.56
425.36	1865.70
425.57	1910.75
425.78	1892.32
425.98	1843.17
426.19	1845.22
426.39	1787.88
426.60	1832.93
426.81	1935.33
427.01	1787.88
427.22	1763.30
427.42	1724.39
427.63	1785.83
427.83	1861.60
428.04	1888.23
428.25	1877.99
428.45	1990.63
428.66	1933.28
428.86	1824.74
429.07	1837.03
429.28	1802.21
429.48	1787.88
429.69	1779.68
429.89	1916.90
430.10	1777.64
430.30	1857.51
430.51	1886.18
430.71	1748.97
430.92	1828.84
431.13	1798.12
431.33	1867.75
431.54	1853.41
431.74	1959.91
431.95	2029.54
432.15	1773.54
432.36	1794.02
432.56	1787.88
432.77	1933.28
432.98	1957.86
433.18	1865.70
433.39	1804.26
433.59	1734.63
433.80	1966.05
434.00	1994.72
434.21	1808.36
434.41	1787.88
434.62	1984.48
434.82	1785.83
435.03	1712.10
435.23	1892.32
435.44	1746.92
435.64	1802.21
435.85	1849.32
436.06	1820.64
436.26	1845.22
436.47	1759.21
436.67	1705.96
436.88	1816.55
437.08	1882.08
437.29	1972.19
437.49	1757.16
437.70	1955.81
437.90	1826.79
438.11	1951.71
438.31	1822.69
438.52	2017.25
438.72	1996.77
438.93	2093.02
439.13	1996.77
439.34	1920.99
439.54	1894.37
439.75	2023.39
439.95	1964.00
440.16	1896.42
440.36	1906.66
440.57	1802.21
440.77	1857.51
440.98	1898.47
441.18	1884.13
441.39	1787.88
441.59	1722.34
441.80	1994.72
442.00	1794.02
442.21	1902.56
442.41	1744.87
442.62	1959.91
442.82	1740.77
443.02	1798.12
443.23	1832.93
443.43	1744.87
443.64	1937.38
443.84	1800.16
444.05	1888.23
444.25	1873.89
444.46	1861.60
444.66	1890.28
444.87	1923.04
445.07	1724.39
445.28	1808.36
445.48	1914.85
445.69	1943.52
445.89	2029.54
446.09	1839.08
446.30	2060.26
446.50	2568.15
446.71	4007.87
446.91	5304.24
447.12	6092.71
447.32	6244.26
447.53	5646.25
447.73	4648.89
447.93	4097.99
448.14	3723.21
448.34	3743.69
448.55	3295.18
448.75	3268.56
448.96	3041.23
449.16	2848.72
449.36	2533.34
449.57	2277.34
449.77	2035.68
449.98	1849.32
450.18	1912.80
450.39	1865.70
450.59	1892.32
450.79	1712.10
451.00	1816.55
451.20	1847.27
451.41	1837.03
451.61	1884.13
451.81	1869.80
452.02	1763.30
452.22	1791.97
452.43	1746.92
452.63	1755.11
