SpectraSuite Data File
++++++++++++++++++++++++++++++++++++
Date: Wed May 04 21:13:03 CEST 2016
User: root
Dark Spectrum Present: No
Reference Spectrum Present: No
Number of Sampled Component Spectra: 1
Spectrometers: USB4C02835
Integration Time (usec): 100000 (USB4C02835)
Spectra Averaged: 1 (USB4C02835)
Boxcar Smoothing: 0 (USB4C02835)
Correct for Electrical Dark: No (USB4C02835)
Strobe/Lamp Enabled: No (USB4C02835)
Correct for Detector Non-linearity: No (USB4C02835)
Correct for Stray Light: No (USB4C02835)
Number of Pixels in Processed Spectrum: 3648
>>>>>Begin Processed Spectral Data<<<<<
177.47	1531.88
177.69	1531.88
177.91	1531.88
178.13	1554.41
178.36	1568.74
178.58	1710.05
178.80	1843.17
179.02	1714.15
179.24	1794.02
179.46	1834.98
179.68	1882.08
179.90	1861.60
180.13	1783.78
180.35	1787.88
180.57	1718.25
180.79	1839.08
181.01	1716.20
181.23	1843.17
181.45	1857.51
181.67	1857.51
181.90	1818.60
182.12	1853.41
182.34	1769.44
182.56	1800.16
182.78	1869.80
183.00	1791.97
183.22	1785.83
183.44	1703.91
183.66	2002.91
183.89	1916.90
184.11	1828.84
184.33	1826.79
184.55	1918.95
184.77	1765.35
184.99	1785.83
185.21	1748.97
185.43	1920.99
185.65	1843.17
185.87	1861.60
186.10	1912.80
186.32	1910.75
186.54	1773.54
186.76	1943.52
186.98	1886.18
187.20	1824.74
187.42	1796.07
187.64	1783.78
187.86	1857.51
188.08	1880.04
188.30	1785.83
188.52	1839.08
188.75	1841.12
188.97	1861.60
189.19	1855.46
189.41	1863.65
189.63	1861.60
189.85	1779.68
190.07	1732.58
190.29	1771.49
190.51	1955.81
190.73	1703.91
190.95	1865.70
191.17	1794.02
191.39	1777.64
191.61	1849.32
191.84	1652.71
192.06	1804.26
192.28	1730.53
192.50	2043.87
192.72	1873.89
192.94	1753.06
193.16	1920.99
193.38	1871.84
193.60	1771.49
193.82	1791.97
194.04	1890.28
194.26	1744.87
194.48	1855.46
194.70	1798.12
194.92	1769.44
195.14	1869.80
195.36	1748.97
195.58	1880.04
195.80	1843.17
196.02	1767.40
196.24	1763.30
196.46	1847.27
196.69	1726.44
196.91	1947.62
197.13	1812.45
197.35	1773.54
197.57	1898.47
197.79	1771.49
198.01	1814.50
198.23	1861.60
198.45	1791.97
198.67	1748.97
198.89	1812.45
199.11	1814.50
199.33	1730.53
199.55	1591.27
199.77	1796.07
199.99	1910.75
200.21	1783.78
200.43	1800.16
200.65	1769.44
200.87	1638.38
201.09	1800.16
201.31	1865.70
201.53	1822.69
201.75	1808.36
201.97	1839.08
202.19	1781.73
202.41	1888.23
202.63	1955.81
202.85	1890.28
203.07	1798.12
203.29	1728.49
203.51	1738.73
203.73	1738.73
203.95	1990.63
204.17	1738.73
204.39	1898.47
204.61	1800.16
204.83	1824.74
205.05	1865.70
205.27	1828.84
205.49	1847.27
205.71	1779.68
205.93	1673.19
206.15	1789.92
206.37	1820.64
206.59	1877.99
206.81	1771.49
207.03	1730.53
207.25	1789.92
207.47	1853.41
207.69	1816.55
207.91	1884.13
208.13	1918.95
208.34	1775.59
208.56	1734.63
208.78	1808.36
209.00	1812.45
209.22	1748.97
209.44	1742.82
209.66	1794.02
209.88	1812.45
210.10	1804.26
210.32	1765.35
210.54	1869.80
210.76	1824.74
210.98	1787.88
211.20	1744.87
211.42	1769.44
211.64	1894.37
211.86	1785.83
212.08	1810.40
212.30	1812.45
212.52	1802.21
212.74	1884.13
212.96	1798.12
213.17	1751.01
213.39	1861.60
213.61	1892.32
213.83	1720.29
214.05	1816.55
214.27	1863.65
214.49	1697.77
214.71	1814.50
214.93	1910.75
215.15	1871.84
215.37	1796.07
215.59	1710.05
215.81	1787.88
216.03	1853.41
216.24	1849.32
216.46	1869.80
216.68	1828.84
216.90	1882.08
217.12	1832.93
217.34	1781.73
217.56	1834.98
217.78	1882.08
218.00	1882.08
218.22	1816.55
218.44	1834.98
218.66	1882.08
218.87	1908.71
219.09	1781.73
219.31	1826.79
219.53	1789.92
219.75	1763.30
219.97	1800.16
220.19	1871.84
220.41	1781.73
220.63	1871.84
220.85	1857.51
221.06	1800.16
221.28	1812.45
221.50	1849.32
221.72	1847.27
221.94	1810.40
222.16	1798.12
222.38	1869.80
222.60	1841.12
222.82	1849.32
223.03	1810.40
223.25	1763.30
223.47	1873.89
223.69	1966.05
223.91	1927.14
224.13	1847.27
224.35	1751.01
224.57	1910.75
224.78	1867.75
225.00	1785.83
225.22	1755.11
225.44	1785.83
225.66	1943.52
225.88	1773.54
226.10	1826.79
226.32	1882.08
226.53	1865.70
226.75	1806.31
226.97	1837.03
227.19	1808.36
227.41	1705.96
227.63	1791.97
227.85	1675.24
228.06	1837.03
228.28	1845.22
228.50	1882.08
228.72	1748.97
228.94	1783.78
229.16	1619.94
229.37	1746.92
229.59	1822.69
229.81	1884.13
230.03	1726.44
230.25	1779.68
230.47	1755.11
230.69	1697.77
230.90	1814.50
231.12	1728.49
231.34	1787.88
231.56	1837.03
231.78	1744.87
232.00	1814.50
232.21	1845.22
232.43	1775.59
232.65	1673.19
232.87	1759.21
233.09	1759.21
233.30	1804.26
233.52	1867.75
233.74	1828.84
233.96	1757.16
234.18	1820.64
234.40	1837.03
234.61	1968.10
234.83	1753.06
235.05	1708.01
235.27	1912.80
235.49	1873.89
235.70	1824.74
235.92	1898.47
236.14	1816.55
236.36	2037.73
236.58	1724.39
236.79	1845.22
237.01	1798.12
237.23	1830.88
237.45	1906.66
237.67	1703.91
237.88	1763.30
238.10	1914.85
238.32	1738.73
238.54	1744.87
238.76	1796.07
238.97	1726.44
239.19	1736.68
239.41	1863.65
239.63	1873.89
239.85	1806.31
240.06	1834.98
240.28	1791.97
240.50	1845.22
240.72	1855.46
240.93	1837.03
241.15	1884.13
241.37	1820.64
241.59	1898.47
241.81	1873.89
242.02	1787.88
242.24	1839.08
242.46	1894.37
242.68	1767.40
242.89	1783.78
243.11	1898.47
243.33	1796.07
243.55	1851.36
243.76	1832.93
243.98	1826.79
244.20	1843.17
244.42	1767.40
244.64	1843.17
244.85	1736.68
245.07	1746.92
245.29	1861.60
245.51	1853.41
245.72	1828.84
245.94	1912.80
246.16	1853.41
246.38	1853.41
246.59	1771.49
246.81	1765.35
247.03	1796.07
247.24	1665.00
247.46	1763.30
247.68	1837.03
247.90	1773.54
248.11	1834.98
248.33	1839.08
248.55	1763.30
248.77	1826.79
248.98	1849.32
249.20	1933.28
249.42	1806.31
249.64	1851.36
249.85	1732.58
250.07	1746.92
250.29	1832.93
250.50	1839.08
250.72	1687.53
250.94	1855.46
251.16	1947.62
251.37	1867.75
251.59	1822.69
251.81	1869.80
252.02	1880.04
252.24	1767.40
252.46	1894.37
252.68	1720.29
252.89	1748.97
253.11	1753.06
253.33	1939.43
253.54	1839.08
253.76	1771.49
253.98	1794.02
254.20	1800.16
254.41	1714.15
254.63	1722.34
254.85	1738.73
255.06	1773.54
255.28	1822.69
255.50	1822.69
255.71	1781.73
255.93	1763.30
256.15	1804.26
256.36	1873.89
256.58	1742.82
256.80	1824.74
257.02	1834.98
257.23	1755.11
257.45	1828.84
257.67	1816.55
257.88	1800.16
258.10	1855.46
258.32	1810.40
258.53	1812.45
258.75	1937.38
258.97	1806.31
259.18	1865.70
259.40	1775.59
259.62	1867.75
259.83	1943.52
260.05	1828.84
260.27	2125.79
260.48	1814.50
260.70	1718.25
260.92	1791.97
261.13	1830.88
261.35	1812.45
261.57	1800.16
261.78	1742.82
262.00	1763.30
262.22	1847.27
262.43	1730.53
262.65	1763.30
262.86	1890.28
263.08	1914.85
263.30	1843.17
263.51	1720.29
263.73	1781.73
263.95	1873.89
264.16	1748.97
264.38	1718.25
264.60	1832.93
264.81	1824.74
265.03	1923.04
265.25	1806.31
265.46	1699.81
265.68	1841.12
265.89	1877.99
266.11	1658.85
266.33	1820.64
266.54	1892.32
266.76	1863.65
266.98	1896.42
267.19	1908.71
267.41	1898.47
267.62	1791.97
267.84	1767.40
268.06	1818.60
268.27	1800.16
268.49	1880.04
268.70	1910.75
268.92	1859.56
269.14	1767.40
269.35	1763.30
269.57	1730.53
269.79	1822.69
270.00	1738.73
270.22	1863.65
270.43	1755.11
270.65	1675.24
270.87	1845.22
271.08	1898.47
271.30	1808.36
271.51	1943.52
271.73	1834.98
271.95	1902.56
272.16	1765.35
272.38	1810.40
272.59	1757.16
272.81	1851.36
273.02	1859.56
273.24	1802.21
273.46	1855.46
273.67	1755.11
273.89	1726.44
274.10	1746.92
274.32	1820.64
274.54	1804.26
274.75	1908.71
274.97	1775.59
275.18	1914.85
275.40	1882.08
275.61	1773.54
275.83	1763.30
276.05	1732.58
276.26	1787.88
276.48	1902.56
276.69	1751.01
276.91	1769.44
277.12	1884.13
277.34	1851.36
277.55	1845.22
277.77	1798.12
277.99	1751.01
278.20	1755.11
278.42	1734.63
278.63	1718.25
278.85	1761.25
279.06	1712.10
279.28	1851.36
279.49	1877.99
279.71	1904.61
279.93	1847.27
280.14	1779.68
280.36	1787.88
280.57	1970.15
280.79	1841.12
281.00	1828.84
281.22	1771.49
281.43	1859.56
281.65	1677.29
281.86	1757.16
282.08	1781.73
282.29	1935.33
282.51	1689.57
282.73	1767.40
282.94	1624.04
283.16	1808.36
283.37	1839.08
283.59	1806.31
283.80	1832.93
284.02	1822.69
284.23	1865.70
284.45	1794.02
284.66	1708.01
284.88	1730.53
285.09	1845.22
285.31	1863.65
285.52	1814.50
285.74	1746.92
285.95	1832.93
286.17	1814.50
286.38	1830.88
286.60	1816.55
286.81	1794.02
287.03	1789.92
287.24	1783.78
287.46	1816.55
287.67	1824.74
287.89	1890.28
288.10	1834.98
288.32	1798.12
288.53	1855.46
288.75	1806.31
288.96	1830.88
289.18	1765.35
289.39	1800.16
289.61	1869.80
289.82	1984.48
290.04	1904.61
290.25	1705.96
290.47	1818.60
290.68	1800.16
290.90	1904.61
291.11	1669.09
291.33	1886.18
291.54	1742.82
291.76	1757.16
291.97	1853.41
292.18	1834.98
292.40	1734.63
292.61	1787.88
292.83	1939.43
293.04	1826.79
293.26	1783.78
293.47	1826.79
293.69	1779.68
293.90	1814.50
294.12	1945.57
294.33	1834.98
294.55	1767.40
294.76	1863.65
294.97	1929.19
295.19	1994.72
295.40	1759.21
295.62	1841.12
295.83	1882.08
296.05	1673.19
296.26	1849.32
296.48	1794.02
296.69	1830.88
296.90	1773.54
297.12	1808.36
297.33	1892.32
297.55	1800.16
297.76	1837.03
297.98	1882.08
298.19	1810.40
298.41	1853.41
298.62	1773.54
298.83	1880.04
299.05	1863.65
299.26	1847.27
299.48	1812.45
299.69	1888.23
299.90	1796.07
300.12	1806.31
300.33	1863.65
300.55	1841.12
300.76	1849.32
300.98	1769.44
301.19	1800.16
301.40	1775.59
301.62	1765.35
301.83	1853.41
302.05	1863.65
302.26	1783.78
302.47	1830.88
302.69	1679.33
302.90	1834.98
303.12	1673.19
303.33	1894.37
303.54	1939.43
303.76	1800.16
303.97	1751.01
304.19	1980.39
304.40	1730.53
304.61	1882.08
304.83	1853.41
305.04	1822.69
305.26	1841.12
305.47	1779.68
305.68	1843.17
305.90	1759.21
306.11	1820.64
306.33	1861.60
306.54	1816.55
306.75	1783.78
306.97	1712.10
307.18	1845.22
307.39	1714.15
307.61	1855.46
307.82	1767.40
308.04	1865.70
308.25	1789.92
308.46	1779.68
308.68	1759.21
308.89	1783.78
309.10	1861.60
309.32	1914.85
309.53	1824.74
309.74	1789.92
309.96	1759.21
310.17	1918.95
310.39	1812.45
310.60	1839.08
310.81	1830.88
311.03	1722.34
311.24	1804.26
311.45	1824.74
311.67	1880.04
311.88	1912.80
312.09	1767.40
312.31	1863.65
312.52	1837.03
312.73	1808.36
312.95	1730.53
313.16	1730.53
313.37	1816.55
313.59	1847.27
313.80	1857.51
314.01	1869.80
314.23	1794.02
314.44	1779.68
314.65	1742.82
314.87	1781.73
315.08	1843.17
315.29	1832.93
315.51	1779.68
315.72	1740.77
315.93	1920.99
316.15	1843.17
316.36	1736.68
316.57	1832.93
316.79	1824.74
317.00	1777.64
317.21	1916.90
317.43	1814.50
317.64	1869.80
317.85	1787.88
318.07	1757.16
318.28	1949.67
318.49	1998.82
318.70	2041.82
318.92	2009.06
319.13	2060.26
319.34	2011.11
319.56	1968.10
319.77	2017.25
319.98	1902.56
320.20	1964.00
320.41	1980.39
320.62	1824.74
320.83	1777.64
321.05	1968.10
321.26	1888.23
321.47	1800.16
321.69	1849.32
321.90	1767.40
322.11	1789.92
322.32	1865.70
322.54	1894.37
322.75	1806.31
322.96	1914.85
323.18	1699.81
323.39	1636.33
323.60	1701.86
323.81	1884.13
324.03	1769.44
324.24	1820.64
324.45	1822.69
324.66	1814.50
324.88	1894.37
325.09	1826.79
325.30	1816.55
325.52	1828.84
325.73	1832.93
325.94	1841.12
326.15	1705.96
326.37	1884.13
326.58	1964.00
326.79	1892.32
327.00	1812.45
327.22	1765.35
327.43	1732.58
327.64	1802.21
327.85	1863.65
328.07	1853.41
328.28	1918.95
328.49	1802.21
328.70	1787.88
328.92	1822.69
329.13	1818.60
329.34	1859.56
329.55	1898.47
329.76	1898.47
329.98	1798.12
330.19	1902.56
330.40	1769.44
330.61	1791.97
330.83	1794.02
331.04	1744.87
331.25	1873.89
331.46	1789.92
331.68	1751.01
331.89	1898.47
332.10	1763.30
332.31	1689.57
332.52	1877.99
332.74	1900.52
332.95	1679.33
333.16	1783.78
333.37	1798.12
333.58	1724.39
333.80	1810.40
334.01	1748.97
334.22	1787.88
334.43	1726.44
334.64	1759.21
334.86	1771.49
335.07	1726.44
335.28	1925.09
335.49	1722.34
335.70	1820.64
335.92	1904.61
336.13	2000.87
336.34	1865.70
336.55	1814.50
336.76	1896.42
336.98	1699.81
337.19	1783.78
337.40	1888.23
337.61	1964.00
337.82	1759.21
338.04	1873.89
338.25	1722.34
338.46	1812.45
338.67	1767.40
338.88	1744.87
339.09	1716.20
339.31	1812.45
339.52	1789.92
339.73	1771.49
339.94	1871.84
340.15	1830.88
340.36	1773.54
340.58	1820.64
340.79	1712.10
341.00	1898.47
341.21	1773.54
341.42	1857.51
341.63	1804.26
341.85	1884.13
342.06	1789.92
342.27	1804.26
342.48	1861.60
342.69	1675.24
342.90	1857.51
343.12	1849.32
343.33	1746.92
343.54	1888.23
343.75	1873.89
343.96	1800.16
344.17	1724.39
344.38	1851.36
344.60	1658.85
344.81	1789.92
345.02	1773.54
345.23	1875.94
345.44	1929.19
345.65	1863.65
345.86	1869.80
346.07	1882.08
346.29	1783.78
346.50	1859.56
346.71	1787.88
346.92	1943.52
347.13	2000.87
347.34	1822.69
347.55	1820.64
347.76	1871.84
347.98	1765.35
348.19	1787.88
348.40	1830.88
348.61	1804.26
348.82	1918.95
349.03	1904.61
349.24	1742.82
349.45	1945.57
349.66	1640.42
349.88	1859.56
350.09	1738.73
350.30	1849.32
350.51	1918.95
350.72	1822.69
350.93	1751.01
351.14	1806.31
351.35	1814.50
351.56	1796.07
351.77	1820.64
351.99	1884.13
352.20	1884.13
352.41	1898.47
352.62	1728.49
352.83	1751.01
353.04	1806.31
353.25	1724.39
353.46	1859.56
353.67	1908.71
353.88	1701.86
354.09	1816.55
354.30	1796.07
354.52	1845.22
354.73	1822.69
354.94	1751.01
355.15	1812.45
355.36	1925.09
355.57	1736.68
355.78	1832.93
355.99	1781.73
356.20	1732.58
356.41	1904.61
356.62	1804.26
356.83	1806.31
357.04	1916.90
357.25	1755.11
357.46	1812.45
357.68	1746.92
357.89	1759.21
358.10	1755.11
358.31	1820.64
358.52	1818.60
358.73	1769.44
358.94	1841.12
359.15	1751.01
359.36	1900.52
359.57	1796.07
359.78	1771.49
359.99	1832.93
360.20	1771.49
360.41	1898.47
360.62	1873.89
360.83	1839.08
361.04	1871.84
361.25	1828.84
361.46	1931.23
361.67	1822.69
361.88	1871.84
362.09	1839.08
362.30	1847.27
362.51	1789.92
362.72	1853.41
362.93	1855.46
363.14	1918.95
363.35	1808.36
363.56	1742.82
363.78	1826.79
363.99	1853.41
364.20	1779.68
364.41	1810.40
364.62	1966.05
364.83	1796.07
365.04	1751.01
365.25	1771.49
365.46	1978.34
365.67	1775.59
365.88	1775.59
366.09	1748.97
366.30	1843.17
366.51	1806.31
366.72	1736.68
366.93	1882.08
367.14	1763.30
367.35	1935.33
367.56	1806.31
367.77	1880.04
367.98	1777.64
368.18	1871.84
368.39	1800.16
368.60	1830.88
368.81	1857.51
369.02	1896.42
369.23	1767.40
369.44	1705.96
369.65	1783.78
369.86	1816.55
370.07	1898.47
370.28	1722.34
370.49	1822.69
370.70	1865.70
370.91	1693.67
371.12	1714.15
371.33	1898.47
371.54	1785.83
371.75	1959.91
371.96	1726.44
372.17	1847.27
372.38	1804.26
372.59	1824.74
372.80	1820.64
373.01	1826.79
373.22	1839.08
373.43	1859.56
373.64	1849.32
373.85	1904.61
374.06	1953.76
374.26	1804.26
374.47	1826.79
374.68	2011.11
374.89	1824.74
375.10	1763.30
375.31	1886.18
375.52	1830.88
375.73	1832.93
375.94	1785.83
376.15	1951.71
376.36	1777.64
376.57	1736.68
376.78	1787.88
376.99	1757.16
377.20	1910.75
377.40	1722.34
377.61	1888.23
377.82	1767.40
378.03	1892.32
378.24	1834.98
378.45	1865.70
378.66	1847.27
378.87	1814.50
379.08	1714.15
379.29	1832.93
379.50	1865.70
379.71	1767.40
379.91	1867.75
380.12	1884.13
380.33	1849.32
380.54	1824.74
380.75	1886.18
380.96	1820.64
381.17	1861.60
381.38	1832.93
381.59	1890.28
381.80	1800.16
382.00	1988.58
382.21	1964.00
382.42	2000.87
382.63	2029.54
382.84	1896.42
383.05	1906.66
383.26	1947.62
383.47	1865.70
383.68	1894.37
383.88	1916.90
384.09	1781.73
384.30	1980.39
384.51	1812.45
384.72	1767.40
384.93	1765.35
385.14	1802.21
385.35	1931.23
385.55	1796.07
385.76	1892.32
385.97	1783.78
386.18	1708.01
386.39	1789.92
386.60	1816.55
386.81	1759.21
387.02	1800.16
387.22	1767.40
387.43	1869.80
387.64	1927.14
387.85	1996.77
388.06	2267.10
388.27	4173.76
388.48	8988.53
388.68	12042.06
388.89	13969.19
389.10	14937.88
389.31	13121.34
389.52	10403.68
389.73	9203.57
389.93	8523.65
390.14	7647.12
390.35	6963.09
390.56	6326.18
390.77	5134.26
390.98	4093.89
391.18	3192.78
391.39	2480.09
391.60	2066.40
391.81	2041.82
392.02	1804.26
392.23	1968.10
392.43	1882.08
392.64	1912.80
392.85	1812.45
393.06	1931.23
393.27	1886.18
393.47	1701.86
393.68	1824.74
393.89	1802.21
394.10	1830.88
394.31	1802.21
394.52	1779.68
394.72	1730.53
394.93	1902.56
395.14	1769.44
395.35	1877.99
395.56	1777.64
395.76	1742.82
395.97	1959.91
396.18	1925.09
396.39	1902.56
396.60	2291.68
396.80	2101.22
397.01	1982.43
397.22	1986.53
397.43	1959.91
397.64	1873.89
397.84	1904.61
398.05	2054.11
398.26	1855.46
398.47	1918.95
398.67	1988.58
398.88	1830.88
399.09	1886.18
399.30	1763.30
399.51	1845.22
399.71	1722.34
399.92	1884.13
400.13	1787.88
400.34	1832.93
400.54	1796.07
400.75	1931.23
400.96	1806.31
401.17	2017.25
401.37	1877.99
401.58	1845.22
401.79	1794.02
402.00	1908.71
402.21	2148.32
402.41	2131.94
402.62	2183.13
402.83	2353.12
403.04	2236.38
403.24	2258.91
403.45	2050.02
403.66	2066.40
403.87	2047.97
404.07	2058.21
404.28	2035.68
404.49	2043.87
404.70	1937.38
404.90	1949.67
405.11	1916.90
405.32	1828.84
405.52	1714.15
405.73	1832.93
405.94	1781.73
406.15	1884.13
406.35	1877.99
406.56	1855.46
406.77	1804.26
406.98	1804.26
407.18	1722.34
407.39	1992.67
407.60	1832.93
407.80	1814.50
408.01	1796.07
408.22	1822.69
408.43	1757.16
408.63	1822.69
408.84	1884.13
409.05	1869.80
409.25	1701.86
409.46	1642.47
409.67	1839.08
409.88	1810.40
410.08	1783.78
410.29	1843.17
410.50	1877.99
410.70	1847.27
410.91	1773.54
411.12	1761.25
411.32	1832.93
411.53	1855.46
411.74	1931.23
411.95	1920.99
412.15	1853.41
412.36	1861.60
412.57	1853.41
412.77	1880.04
412.98	1892.32
413.19	1861.60
413.39	1853.41
413.60	1841.12
413.81	1978.34
414.01	1816.55
414.22	1865.70
414.43	1925.09
414.63	1857.51
414.84	1890.28
415.05	1877.99
415.25	1740.77
415.46	1898.47
415.67	1753.06
415.87	1834.98
416.08	1820.64
416.29	1810.40
416.49	1873.89
416.70	1783.78
416.91	1755.11
417.11	1839.08
417.32	1896.42
417.53	1869.80
417.73	1828.84
417.94	1757.16
418.15	1828.84
418.35	1888.23
418.56	1812.45
418.77	1972.19
418.97	1787.88
419.18	1794.02
419.38	1697.77
419.59	1771.49
419.80	1904.61
420.00	1824.74
420.21	1779.68
420.42	1914.85
420.62	1898.47
420.83	1763.30
421.04	1884.13
421.24	1763.30
421.45	1853.41
421.65	1900.52
421.86	1775.59
422.07	1873.89
422.27	1925.09
422.48	1863.65
422.69	1779.68
422.89	1773.54
423.10	1822.69
423.30	1755.11
423.51	1834.98
423.72	1769.44
423.92	1839.08
424.13	1746.92
424.33	1841.12
424.54	1834.98
424.75	1808.36
424.95	1964.00
425.16	1767.40
425.36	1867.75
425.57	1900.52
425.78	1845.22
425.98	1865.70
426.19	1857.51
426.39	1806.31
426.60	1877.99
426.81	1959.91
427.01	1867.75
427.22	1753.06
427.42	1759.21
427.63	1779.68
427.83	1812.45
428.04	1869.80
428.25	1939.43
428.45	1896.42
428.66	1853.41
428.86	1855.46
429.07	1794.02
429.28	1769.44
429.48	1841.12
429.69	1802.21
429.89	1808.36
430.10	1710.05
430.30	1886.18
430.51	1996.77
430.71	1791.97
430.92	1845.22
431.13	1761.25
431.33	1849.32
431.54	1789.92
431.74	1992.67
431.95	1951.71
432.15	1806.31
432.36	1814.50
432.56	1837.03
432.77	2011.11
432.98	1890.28
433.18	1824.74
433.39	1796.07
433.59	1824.74
433.80	1937.38
434.00	1943.52
434.21	1822.69
434.41	1783.78
434.62	1945.57
434.82	1742.82
435.03	1738.73
435.23	1777.64
435.44	1757.16
435.64	1855.46
435.85	1822.69
436.06	1890.28
436.26	1902.56
436.47	1830.88
436.67	1736.68
436.88	1816.55
437.08	1812.45
437.29	1871.84
437.49	1822.69
437.70	1927.14
437.90	1775.59
438.11	1947.62
438.31	1902.56
438.52	1978.34
438.72	1972.19
438.93	2084.83
439.13	1931.23
439.34	2002.91
439.54	1867.75
439.75	1853.41
439.95	1894.37
440.16	1869.80
440.36	1873.89
440.57	1947.62
440.77	1894.37
440.98	1873.89
441.18	1894.37
441.39	1808.36
441.59	1779.68
441.80	1976.29
442.00	1816.55
442.21	1867.75
442.41	1806.31
442.62	1931.23
442.82	1771.49
443.02	1927.14
443.23	1839.08
443.43	1841.12
443.64	1984.48
443.84	1851.36
444.05	1916.90
444.25	1802.21
444.46	1834.98
444.66	1785.83
444.87	1980.39
445.07	1773.54
445.28	1816.55
445.48	1988.58
445.69	1853.41
445.89	1994.72
446.09	1857.51
446.30	2076.64
446.50	2641.88
446.71	4149.18
446.91	5265.33
447.12	5869.48
447.32	6332.32
447.53	5742.50
447.73	4618.17
447.93	4190.14
448.14	3758.02
448.34	3637.19
448.55	3313.61
448.75	3256.27
448.96	3084.24
449.16	2744.28
449.36	2543.58
449.57	2312.16
449.77	1947.62
449.98	1906.66
450.18	1906.66
450.39	1923.04
450.59	1931.23
450.79	1808.36
451.00	1779.68
451.20	1923.04
451.41	1834.98
451.61	1865.70
451.81	1910.75
452.02	1863.65
452.22	1841.12
452.43	1753.06
452.63	1783.78
