SpectraSuite Data File
++++++++++++++++++++++++++++++++++++
Date: Wed May 04 21:13:36 CEST 2016
User: root
Dark Spectrum Present: No
Reference Spectrum Present: No
Number of Sampled Component Spectra: 1
Spectrometers: USB4C02835
Integration Time (usec): 100000 (USB4C02835)
Spectra Averaged: 1 (USB4C02835)
Boxcar Smoothing: 0 (USB4C02835)
Correct for Electrical Dark: No (USB4C02835)
Strobe/Lamp Enabled: No (USB4C02835)
Correct for Detector Non-linearity: No (USB4C02835)
Correct for Stray Light: No (USB4C02835)
Number of Pixels in Processed Spectrum: 3648
>>>>>Begin Processed Spectral Data<<<<<
177.47	1566.70
177.69	1566.70
177.91	1566.70
178.13	1578.98
178.36	1570.79
178.58	1667.05
178.80	1798.12
179.02	1705.96
179.24	1853.41
179.46	1808.36
179.68	1882.08
179.90	1726.44
180.13	1867.75
180.35	1785.83
180.57	1812.45
180.79	1837.03
181.01	1816.55
181.23	1812.45
181.45	1843.17
181.67	1880.04
181.90	1808.36
182.12	1710.05
182.34	1710.05
182.56	1892.32
182.78	1898.47
183.00	1810.40
183.22	1789.92
183.44	1660.90
183.66	1949.67
183.89	1871.84
184.11	1789.92
184.33	1816.55
184.55	1943.52
184.77	1757.16
184.99	1800.16
185.21	1814.50
185.43	1925.09
185.65	1791.97
185.87	1771.49
186.10	1949.67
186.32	1931.23
186.54	1800.16
186.76	1867.75
186.98	1884.13
187.20	1757.16
187.42	1808.36
187.64	1812.45
187.86	1837.03
188.08	1828.84
188.30	1759.21
188.52	1800.16
188.75	1896.42
188.97	1898.47
189.19	1804.26
189.41	1759.21
189.63	1882.08
189.85	1818.60
190.07	1730.53
190.29	1726.44
190.51	1892.32
190.73	1689.57
190.95	1871.84
191.17	1777.64
191.39	1693.67
191.61	1753.06
191.84	1779.68
192.06	1841.12
192.28	1769.44
192.50	1941.47
192.72	1841.12
192.94	1849.32
193.16	1906.66
193.38	1787.88
193.60	1722.34
193.82	1820.64
194.04	1916.90
194.26	1832.93
194.48	1800.16
194.70	1753.06
194.92	1771.49
195.14	1898.47
195.36	1742.82
195.58	1794.02
195.80	1832.93
196.02	1722.34
196.24	1800.16
196.46	1888.23
196.69	1748.97
196.91	1964.00
197.13	1775.59
197.35	1701.86
197.57	1877.99
197.79	1877.99
198.01	1785.83
198.23	1865.70
198.45	1857.51
198.67	1730.53
198.89	1855.46
199.11	1832.93
199.33	1812.45
199.55	1712.10
199.77	1787.88
199.99	1882.08
200.21	1851.36
200.43	1796.07
200.65	1751.01
200.87	1689.57
201.09	1826.79
201.31	1806.31
201.53	1904.61
201.75	1863.65
201.97	1828.84
202.19	1830.88
202.41	1896.42
202.63	1990.63
202.85	1777.64
203.07	1845.22
203.29	1796.07
203.51	1697.77
203.73	1714.15
203.95	2045.92
204.17	1859.56
204.39	1818.60
204.61	1781.73
204.83	1755.11
205.05	1855.46
205.27	1955.81
205.49	1880.04
205.71	1757.16
205.93	1759.21
206.15	1767.40
206.37	1810.40
206.59	1738.73
206.81	1759.21
207.03	1736.68
207.25	1798.12
207.47	1863.65
207.69	1767.40
207.91	1820.64
208.13	1910.75
208.34	1753.06
208.56	1791.97
208.78	1861.60
209.00	1826.79
209.22	1845.22
209.44	1748.97
209.66	1834.98
209.88	1820.64
210.10	1822.69
210.32	1808.36
210.54	1910.75
210.76	1783.78
210.98	1908.71
211.20	1683.43
211.42	1808.36
211.64	1847.27
211.86	1804.26
212.08	1785.83
212.30	1806.31
212.52	1861.60
212.74	1861.60
212.96	1785.83
213.17	1802.21
213.39	1751.01
213.61	1900.52
213.83	1783.78
214.05	1839.08
214.27	1898.47
214.49	1763.30
214.71	1796.07
214.93	1906.66
215.15	1810.40
215.37	1845.22
215.59	1691.62
215.81	1843.17
216.03	1859.56
216.24	1912.80
216.46	1775.59
216.68	1765.35
216.90	1898.47
217.12	1812.45
217.34	1812.45
217.56	1771.49
217.78	1898.47
218.00	1884.13
218.22	1785.83
218.44	1900.52
218.66	1767.40
218.87	1908.71
219.09	1753.06
219.31	1943.52
219.53	1861.60
219.75	1798.12
219.97	1802.21
220.19	1796.07
220.41	1847.27
220.63	1906.66
220.85	1814.50
221.06	1699.81
221.28	1898.47
221.50	1789.92
221.72	1810.40
221.94	1804.26
222.16	1855.46
222.38	1830.88
222.60	1834.98
222.82	1734.63
223.03	1916.90
223.25	1726.44
223.47	1822.69
223.69	1945.57
223.91	1837.03
224.13	1832.93
224.35	1851.36
224.57	1894.37
224.78	1857.51
225.00	1751.01
225.22	1820.64
225.44	1701.86
225.66	1923.04
225.88	1773.54
226.10	1884.13
226.32	1757.16
226.53	1871.84
226.75	1845.22
226.97	1789.92
227.19	1755.11
227.41	1828.84
227.63	1787.88
227.85	1740.77
228.06	1804.26
228.28	1865.70
228.50	1882.08
228.72	1759.21
228.94	1783.78
229.16	1710.05
229.37	1697.77
229.59	1789.92
229.81	1869.80
230.03	1728.49
230.25	1732.58
230.47	1708.01
230.69	1771.49
230.90	1791.97
231.12	1767.40
231.34	1800.16
231.56	1841.12
231.78	1771.49
232.00	1826.79
232.21	1832.93
232.43	1681.38
232.65	1701.86
232.87	1884.13
233.09	1775.59
233.30	1794.02
233.52	1902.56
233.74	1794.02
233.96	1841.12
234.18	1820.64
234.40	1794.02
234.61	2011.11
234.83	1685.48
235.05	1773.54
235.27	1953.76
235.49	1863.65
235.70	1824.74
235.92	1888.23
236.14	1794.02
236.36	1947.62
236.58	1728.49
236.79	1812.45
237.01	1857.51
237.23	1843.17
237.45	1955.81
237.67	1761.25
237.88	1802.21
238.10	1843.17
238.32	1742.82
238.54	1804.26
238.76	1773.54
238.97	1724.39
239.19	1865.70
239.41	1918.95
239.63	1871.84
239.85	1798.12
240.06	1789.92
240.28	1781.73
240.50	1912.80
240.72	1929.19
240.93	1804.26
241.15	1898.47
241.37	1822.69
241.59	1855.46
241.81	1800.16
242.02	1753.06
242.24	1783.78
242.46	1798.12
242.68	1849.32
242.89	1820.64
243.11	1841.12
243.33	1812.45
243.55	1783.78
243.76	1871.84
243.98	1812.45
244.20	1861.60
244.42	1841.12
244.64	1961.95
244.85	1724.39
245.07	1796.07
245.29	1884.13
245.51	1871.84
245.72	1812.45
245.94	1880.04
246.16	1851.36
246.38	1896.42
246.59	1714.15
246.81	1734.63
247.03	1757.16
247.24	1777.64
247.46	1738.73
247.68	1888.23
247.90	1820.64
248.11	1789.92
248.33	1894.37
248.55	1841.12
248.77	1888.23
248.98	1873.89
249.20	1906.66
249.42	1906.66
249.64	1865.70
249.85	1738.73
250.07	1771.49
250.29	1845.22
250.50	1826.79
250.72	1732.58
250.94	1865.70
251.16	1953.76
251.37	1894.37
251.59	1839.08
251.81	1806.31
252.02	1857.51
252.24	1699.81
252.46	1925.09
252.68	1722.34
252.89	1755.11
253.11	1732.58
253.33	1863.65
253.54	1890.28
253.76	1716.20
253.98	1767.40
254.20	1787.88
254.41	1730.53
254.63	1730.53
254.85	1701.86
255.06	1787.88
255.28	1953.76
255.50	1851.36
255.71	1755.11
255.93	1759.21
256.15	1796.07
256.36	1902.56
256.58	1779.68
256.80	1933.28
257.02	1777.64
257.23	1804.26
257.45	1880.04
257.67	1853.41
257.88	1718.25
258.10	1849.32
258.32	1824.74
258.53	1880.04
258.75	1863.65
258.97	1775.59
259.18	1730.53
259.40	1830.88
259.62	1902.56
259.83	1900.52
260.05	1859.56
260.27	2111.46
260.48	1851.36
260.70	1787.88
260.92	1918.95
261.13	1822.69
261.35	1894.37
261.57	1812.45
261.78	1722.34
262.00	1814.50
262.22	1845.22
262.43	1837.03
262.65	1828.84
262.86	1757.16
263.08	2011.11
263.30	1753.06
263.51	1691.62
263.73	1753.06
263.95	1904.61
264.16	1753.06
264.38	1794.02
264.60	1841.12
264.81	1812.45
265.03	1920.99
265.25	1837.03
265.46	1810.40
265.68	1882.08
265.89	1845.22
266.11	1732.58
266.33	1828.84
266.54	1910.75
266.76	1859.56
266.98	1894.37
267.19	1851.36
267.41	1816.55
267.62	1804.26
267.84	1687.53
268.06	1783.78
268.27	1755.11
268.49	1902.56
268.70	1892.32
268.92	1802.21
269.14	1755.11
269.35	1730.53
269.57	1771.49
269.79	1888.23
270.00	1757.16
270.22	1886.18
270.43	1785.83
270.65	1710.05
270.87	1787.88
271.08	1869.80
271.30	1933.28
271.51	1738.73
271.73	1826.79
271.95	1804.26
272.16	1822.69
272.38	1837.03
272.59	1865.70
272.81	1843.17
273.02	1834.98
273.24	1851.36
273.46	1814.50
273.67	1757.16
273.89	1732.58
274.10	1767.40
274.32	1853.41
274.54	1779.68
274.75	1916.90
274.97	1865.70
275.18	1902.56
275.40	1769.44
275.61	1785.83
275.83	1865.70
276.05	1693.67
276.26	1796.07
276.48	1843.17
276.69	1771.49
276.91	1830.88
277.12	1986.53
277.34	1920.99
277.55	1824.74
277.77	1880.04
277.99	1759.21
278.20	1726.44
278.42	1718.25
278.63	1783.78
278.85	1767.40
279.06	1687.53
279.28	1808.36
279.49	1863.65
279.71	1855.46
279.93	1777.64
280.14	1910.75
280.36	1765.35
280.57	1871.84
280.79	1800.16
281.00	1791.97
281.22	1732.58
281.43	1892.32
281.65	1730.53
281.86	1796.07
282.08	1857.51
282.29	1998.82
282.51	1701.86
282.73	1724.39
282.94	1710.05
283.16	1804.26
283.37	1955.81
283.59	1820.64
283.80	1853.41
284.02	1867.75
284.23	1841.12
284.45	1812.45
284.66	1767.40
284.88	1802.21
285.09	1820.64
285.31	1865.70
285.52	1880.04
285.74	1773.54
285.95	1896.42
286.17	1791.97
286.38	1841.12
286.60	1812.45
286.81	1740.77
287.03	1791.97
287.24	1884.13
287.46	1865.70
287.67	1851.36
287.89	1845.22
288.10	1794.02
288.32	1808.36
288.53	1910.75
288.75	1781.73
288.96	1890.28
289.18	1753.06
289.39	1816.55
289.61	1877.99
289.82	1968.10
290.04	1892.32
290.25	1677.29
290.47	1875.94
290.68	1839.08
290.90	1853.41
291.11	1679.33
291.33	1843.17
291.54	1738.73
291.76	1804.26
291.97	1837.03
292.18	1787.88
292.40	1812.45
292.61	1771.49
292.83	1929.19
293.04	1783.78
293.26	1859.56
293.47	1765.35
293.69	1699.81
293.90	1730.53
294.12	1896.42
294.33	1777.64
294.55	1783.78
294.76	1865.70
294.97	1939.43
295.19	1982.43
295.40	1787.88
295.62	1828.84
295.83	1804.26
296.05	1755.11
296.26	1826.79
296.48	1751.01
296.69	1859.56
296.90	1841.12
297.12	1912.80
297.33	1845.22
297.55	1837.03
297.76	1808.36
297.98	1900.52
298.19	1806.31
298.41	1785.83
298.62	1806.31
298.83	1900.52
299.05	1904.61
299.26	1845.22
299.48	1820.64
299.69	1794.02
299.90	1869.80
300.12	1789.92
300.33	1861.60
300.55	1814.50
300.76	1886.18
300.98	1810.40
301.19	1910.75
301.40	1808.36
301.62	1775.59
301.83	1894.37
302.05	1841.12
302.26	1767.40
302.47	1843.17
302.69	1732.58
302.90	1791.97
303.12	1705.96
303.33	1865.70
303.54	1941.47
303.76	1789.92
303.97	1771.49
304.19	1918.95
304.40	1740.77
304.61	1818.60
304.83	1996.77
305.04	1853.41
305.26	1849.32
305.47	1826.79
305.68	1785.83
305.90	1738.73
306.11	1908.71
306.33	1839.08
306.54	1849.32
306.75	1767.40
306.97	1818.60
307.18	1746.92
307.39	1736.68
307.61	1810.40
307.82	1791.97
308.04	1935.33
308.25	1746.92
308.46	1779.68
308.68	1837.03
308.89	1824.74
309.10	1849.32
309.32	1849.32
309.53	1730.53
309.74	1863.65
309.96	1753.06
310.17	1898.47
310.39	1736.68
310.60	1783.78
310.81	1824.74
311.03	1722.34
311.24	1863.65
311.45	1738.73
311.67	1933.28
311.88	1812.45
312.09	1783.78
312.31	1800.16
312.52	1865.70
312.73	1787.88
312.95	1769.44
313.16	1761.25
313.37	1982.43
313.59	1816.55
313.80	1974.24
314.01	1859.56
314.23	1796.07
314.44	1742.82
314.65	1744.87
314.87	1787.88
315.08	1712.10
315.29	1886.18
315.51	1796.07
315.72	1775.59
315.93	1880.04
316.15	1865.70
316.36	1755.11
316.57	1816.55
316.79	1824.74
317.00	1746.92
317.21	1810.40
317.43	1810.40
317.64	1841.12
317.85	1730.53
318.07	1736.68
318.28	1863.65
318.49	2080.74
318.70	2103.26
318.92	2017.25
319.13	2035.68
319.34	2004.96
319.56	1980.39
319.77	1933.28
319.98	1914.85
320.20	1943.52
320.41	1927.14
320.62	1855.46
320.83	1789.92
321.05	2017.25
321.26	1890.28
321.47	1839.08
321.69	1800.16
321.90	1714.15
322.11	1855.46
322.32	1841.12
322.54	1968.10
322.75	1814.50
322.96	1961.95
323.18	1736.68
323.39	1714.15
323.60	1771.49
323.81	1837.03
324.03	1804.26
324.24	1775.59
324.45	1832.93
324.66	1849.32
324.88	1898.47
325.09	1871.84
325.30	1796.07
325.52	1841.12
325.73	1822.69
325.94	1755.11
326.15	1796.07
326.37	1773.54
326.58	1865.70
326.79	1890.28
327.00	1734.63
327.22	1849.32
327.43	1808.36
327.64	1728.49
327.85	1914.85
328.07	1820.64
328.28	1988.58
328.49	1824.74
328.70	1800.16
328.92	1740.77
329.13	1771.49
329.34	1767.40
329.55	1959.91
329.76	1843.17
329.98	1775.59
330.19	1902.56
330.40	1853.41
330.61	1849.32
330.83	1904.61
331.04	1773.54
331.25	1824.74
331.46	1845.22
331.68	1810.40
331.89	1857.51
332.10	1818.60
332.31	1787.88
332.52	1798.12
332.74	1892.32
332.95	1767.40
333.16	1794.02
333.37	1871.84
333.58	1763.30
333.80	1857.51
334.01	1714.15
334.22	1824.74
334.43	1746.92
334.64	1869.80
334.86	1701.86
335.07	1751.01
335.28	1888.23
335.49	1777.64
335.70	1890.28
335.92	1918.95
336.13	1949.67
336.34	1898.47
336.55	1828.84
336.76	1916.90
336.98	1675.24
337.19	1820.64
337.40	1898.47
337.61	1961.95
337.82	1867.75
338.04	1920.99
338.25	1748.97
338.46	1785.83
338.67	1816.55
338.88	1804.26
339.09	1714.15
339.31	1781.73
339.52	1789.92
339.73	1738.73
339.94	1767.40
340.15	1804.26
340.36	1732.58
340.58	1824.74
340.79	1804.26
341.00	1943.52
341.21	1775.59
341.42	1904.61
341.63	1814.50
341.85	1841.12
342.06	1794.02
342.27	1693.67
342.48	1839.08
342.69	1705.96
342.90	1855.46
343.12	1847.27
343.33	1845.22
343.54	1841.12
343.75	1818.60
343.96	1785.83
344.17	1763.30
344.38	1837.03
344.60	1787.88
344.81	1783.78
345.02	1787.88
345.23	1869.80
345.44	1970.15
345.65	1884.13
345.86	1839.08
346.07	1761.25
346.29	1726.44
346.50	1855.46
346.71	1871.84
346.92	1974.24
347.13	1953.76
347.34	1839.08
347.55	1806.31
347.76	1908.71
347.98	1699.81
348.19	1839.08
348.40	1914.85
348.61	1742.82
348.82	1892.32
349.03	1869.80
349.24	1689.57
349.45	1933.28
349.66	1691.62
349.88	1812.45
350.09	1761.25
350.30	1931.23
350.51	1873.89
350.72	1837.03
350.93	1837.03
351.14	1818.60
351.35	1812.45
351.56	1830.88
351.77	1763.30
351.99	1880.04
352.20	1959.91
352.41	1857.51
352.62	1742.82
352.83	1787.88
353.04	1826.79
353.25	1779.68
353.46	1902.56
353.67	1880.04
353.88	1722.34
354.09	1861.60
354.30	1730.53
354.52	1820.64
354.73	1828.84
354.94	1759.21
355.15	1802.21
355.36	1849.32
355.57	1800.16
355.78	1896.42
355.99	1761.25
356.20	1869.80
356.41	1908.71
356.62	1851.36
356.83	1767.40
357.04	1871.84
357.25	1658.85
357.46	1781.73
357.68	1650.66
357.89	1728.49
358.10	1787.88
358.31	1773.54
358.52	1824.74
358.73	1771.49
358.94	1777.64
359.15	1789.92
359.36	1902.56
359.57	1796.07
359.78	1877.99
359.99	1802.21
360.20	1806.31
360.41	1785.83
360.62	1828.84
360.83	1826.79
361.04	1814.50
361.25	1843.17
361.46	1918.95
361.67	1861.60
361.88	1832.93
362.09	1939.43
362.30	1826.79
362.51	1722.34
362.72	1777.64
362.93	1945.57
363.14	1863.65
363.35	1812.45
363.56	1802.21
363.78	1875.94
363.99	1837.03
364.20	1771.49
364.41	1880.04
364.62	1949.67
364.83	1839.08
365.04	1853.41
365.25	1714.15
365.46	1935.33
365.67	1785.83
365.88	1812.45
366.09	1798.12
366.30	1849.32
366.51	1806.31
366.72	1691.62
366.93	1785.83
367.14	1802.21
367.35	1943.52
367.56	1832.93
367.77	1908.71
367.98	1765.35
368.18	1867.75
368.39	1837.03
368.60	1783.78
368.81	1920.99
369.02	1845.22
369.23	1812.45
369.44	1732.58
369.65	1789.92
369.86	1843.17
370.07	1902.56
370.28	1705.96
370.49	1927.14
370.70	1834.98
370.91	1759.21
371.12	1796.07
371.33	1914.85
371.54	1755.11
371.75	1918.95
371.96	1658.85
372.17	1785.83
372.38	1728.49
372.59	1808.36
372.80	1812.45
373.01	1865.70
373.22	1830.88
373.43	1841.12
373.64	1714.15
373.85	1859.56
374.06	1888.23
374.26	1877.99
374.47	1855.46
374.68	1918.95
374.89	1886.18
375.10	1814.50
375.31	1882.08
375.52	1863.65
375.73	1783.78
375.94	1787.88
376.15	1828.84
376.36	1826.79
376.57	1783.78
376.78	1785.83
376.99	1853.41
377.20	1943.52
377.40	1830.88
377.61	1898.47
377.82	1722.34
378.03	1853.41
378.24	1785.83
378.45	1787.88
378.66	1775.59
378.87	1714.15
379.08	1708.01
379.29	1761.25
379.50	1839.08
379.71	1822.69
379.91	1882.08
380.12	1783.78
380.33	1787.88
380.54	1779.68
380.75	1771.49
380.96	1769.44
381.17	1890.28
381.38	1794.02
381.59	1972.19
381.80	1818.60
382.00	1947.62
382.21	1931.23
382.42	2002.91
382.63	2023.39
382.84	1845.22
383.05	1855.46
383.26	1927.14
383.47	1816.55
383.68	1890.28
383.88	1845.22
384.09	1814.50
384.30	1900.52
384.51	1914.85
384.72	1761.25
384.93	1789.92
385.14	1802.21
385.35	1845.22
385.55	1699.81
385.76	1843.17
385.97	1837.03
386.18	1724.39
386.39	1783.78
386.60	1828.84
386.81	1814.50
387.02	1798.12
387.22	1765.35
387.43	1839.08
387.64	1914.85
387.85	2041.82
388.06	2211.81
388.27	4241.34
388.48	8701.82
388.68	11695.95
388.89	13670.19
389.10	14696.22
389.31	12924.73
389.52	10360.67
389.73	9119.60
389.93	8365.95
390.14	7548.81
390.35	6903.70
390.56	6307.74
390.77	5189.55
390.98	3995.59
391.18	3088.34
391.39	2408.41
391.60	2009.06
391.81	2013.15
392.02	1837.03
392.23	1994.72
392.43	1853.41
392.64	1949.67
392.85	1828.84
393.06	1920.99
393.27	1830.88
393.47	1814.50
393.68	1869.80
393.89	1826.79
394.10	1949.67
394.31	1816.55
394.52	1818.60
394.72	1791.97
394.93	1937.38
395.14	1779.68
395.35	1943.52
395.56	1787.88
395.76	1779.68
395.97	1869.80
396.18	2013.15
396.39	1929.19
396.60	2275.29
396.80	2070.50
397.01	1888.23
397.22	1955.81
397.43	1992.67
397.64	1880.04
397.84	1886.18
398.05	2029.54
398.26	1910.75
398.47	1927.14
398.67	1869.80
398.88	1773.54
399.09	1853.41
399.30	1736.68
399.51	1861.60
399.71	1720.29
399.92	1857.51
400.13	1898.47
400.34	1783.78
400.54	1869.80
400.75	1923.04
400.96	1865.70
401.17	1918.95
401.37	1900.52
401.58	1828.84
401.79	1818.60
402.00	1925.09
402.21	2230.24
402.41	2099.17
402.62	2250.72
402.83	2330.59
403.04	2232.29
403.24	2301.92
403.45	2027.49
403.66	2123.74
403.87	2068.45
404.07	2072.54
404.28	2031.58
404.49	2066.40
404.70	1957.86
404.90	1853.41
405.11	1863.65
405.32	1849.32
405.52	1845.22
405.73	1771.49
405.94	1785.83
406.15	1830.88
406.35	1863.65
406.56	1849.32
406.77	1869.80
406.98	1824.74
407.18	1738.73
407.39	1849.32
407.60	1863.65
407.80	1812.45
408.01	1828.84
408.22	1834.98
408.43	1794.02
408.63	1761.25
408.84	1810.40
409.05	1908.71
409.25	1753.06
409.46	1759.21
409.67	1798.12
409.88	1744.87
410.08	1744.87
410.29	1771.49
410.50	1861.60
410.70	1804.26
410.91	1708.01
411.12	1886.18
411.32	1845.22
411.53	1785.83
411.74	1890.28
411.95	1914.85
412.15	1918.95
412.36	1984.48
412.57	1886.18
412.77	1978.34
412.98	1906.66
413.19	1814.50
413.39	1943.52
413.60	1847.27
413.81	1935.33
414.01	1781.73
414.22	1871.84
414.43	1972.19
414.63	1816.55
414.84	1910.75
415.05	1806.31
415.25	1740.77
415.46	1839.08
415.67	1775.59
415.87	1898.47
416.08	1902.56
416.29	1744.87
416.49	1828.84
416.70	1826.79
416.91	1796.07
417.11	1851.36
417.32	1871.84
417.53	1935.33
417.73	1847.27
417.94	1769.44
418.15	1861.60
418.35	1857.51
418.56	1802.21
418.77	1900.52
418.97	1824.74
419.18	1841.12
419.38	1634.28
419.59	1787.88
419.80	1902.56
420.00	1865.70
420.21	1863.65
420.42	1896.42
420.62	1859.56
420.83	1751.01
421.04	1759.21
421.24	1853.41
421.45	1904.61
421.65	1900.52
421.86	1785.83
422.07	1839.08
422.27	1830.88
422.48	1783.78
422.69	1808.36
422.89	1798.12
423.10	1791.97
423.30	1753.06
423.51	1783.78
423.72	1796.07
423.92	1890.28
424.13	1746.92
424.33	1818.60
424.54	1896.42
424.75	1814.50
424.95	2009.06
425.16	1814.50
425.36	1775.59
425.57	1890.28
425.78	1880.04
425.98	1814.50
426.19	1849.32
426.39	1789.92
426.60	1787.88
426.81	1935.33
427.01	1794.02
427.22	1765.35
427.42	1748.97
427.63	1787.88
427.83	1861.60
428.04	1845.22
428.25	1933.28
428.45	1867.75
428.66	1863.65
428.86	1886.18
429.07	1830.88
429.28	1775.59
429.48	1783.78
429.69	1759.21
429.89	1740.77
430.10	1767.40
430.30	1824.74
430.51	1814.50
430.71	1779.68
430.92	1892.32
431.13	1800.16
431.33	1918.95
431.54	1859.56
431.74	1939.43
431.95	2039.78
432.15	1820.64
432.36	1849.32
432.56	1812.45
432.77	1892.32
432.98	1884.13
433.18	1857.51
433.39	1796.07
433.59	1787.88
433.80	1916.90
434.00	2066.40
434.21	1777.64
434.41	1822.69
434.62	1968.10
434.82	1746.92
435.03	1818.60
435.23	1896.42
435.44	1691.62
435.64	1822.69
435.85	1837.03
436.06	1871.84
436.26	1882.08
436.47	1822.69
436.67	1808.36
436.88	1728.49
437.08	1914.85
437.29	1951.71
437.49	1832.93
437.70	1904.61
437.90	1886.18
438.11	1943.52
438.31	1875.94
438.52	2004.96
438.72	2064.35
438.93	2074.59
439.13	1951.71
439.34	1968.10
439.54	1904.61
439.75	1898.47
439.95	1949.67
440.16	1832.93
440.36	1865.70
440.57	1908.71
440.77	1929.19
440.98	1857.51
441.18	1890.28
441.39	1796.07
441.59	1720.29
441.80	2011.11
442.00	1847.27
442.21	1939.43
442.41	1748.97
442.62	1873.89
442.82	1710.05
443.02	1783.78
443.23	1828.84
443.43	1845.22
443.64	1937.38
443.84	1882.08
444.05	1882.08
444.25	1773.54
444.46	1865.70
444.66	1769.44
444.87	1972.19
445.07	1718.25
445.28	1861.60
445.48	2004.96
445.69	1951.71
445.89	2004.96
446.09	1931.23
446.30	2031.58
446.50	2512.86
446.71	4153.28
446.91	5261.23
447.12	5863.33
447.32	6178.72
447.53	5699.50
447.73	4646.84
447.93	4067.27
448.14	3811.27
448.34	3624.90
448.55	3151.82
448.75	3151.82
448.96	3055.57
449.16	2717.65
449.36	2529.24
449.57	2258.91
449.77	2052.06
449.98	1894.37
450.18	1847.27
450.39	1894.37
450.59	1863.65
450.79	1826.79
451.00	1759.21
451.20	1916.90
451.41	1861.60
451.61	1894.37
451.81	1791.97
452.02	1826.79
452.22	1916.90
452.43	1857.51
452.63	1787.88
