SpectraSuite Data File
++++++++++++++++++++++++++++++++++++
Date: Fri May 06 08:14:06 CEST 2016
User: root
Dark Spectrum Present: No
Reference Spectrum Present: No
Number of Sampled Component Spectra: 1
Spectrometers: USB4C02835
Integration Time (usec): 100000 (USB4C02835)
Spectra Averaged: 1 (USB4C02835)
Boxcar Smoothing: 0 (USB4C02835)
Correct for Electrical Dark: No (USB4C02835)
Strobe/Lamp Enabled: No (USB4C02835)
Correct for Detector Non-linearity: No (USB4C02835)
Correct for Stray Light: No (USB4C02835)
Number of Pixels in Processed Spectrum: 3648
>>>>>Begin Processed Spectral Data<<<<<
177.47	2310.11
177.69	2310.11
177.91	2310.11
178.13	2359.26
178.36	2330.59
178.58	2990.03
178.80	3166.16
179.02	2967.51
179.24	2961.36
179.46	2760.66
179.68	2793.43
179.90	3246.03
180.13	3291.09
180.35	2658.26
180.57	2807.77
180.79	3418.06
181.01	3160.02
181.23	2863.06
181.45	2994.13
181.67	3340.24
181.90	3491.79
182.12	2910.16
182.34	2717.65
182.56	3360.72
182.78	3430.35
183.00	2813.91
183.22	2848.72
183.44	2981.84
183.66	3942.34
183.89	2959.31
184.11	2942.93
184.33	3409.87
184.55	3512.27
184.77	2879.44
184.99	2791.38
185.21	3194.83
185.43	3798.98
185.65	2947.03
185.87	2844.63
186.10	3708.87
186.32	3786.69
186.54	2951.12
186.76	2971.60
186.98	3528.65
187.20	3200.98
187.42	2885.59
187.64	2918.36
187.86	3366.86
188.08	3502.03
188.30	2801.62
188.52	2871.25
188.75	3532.75
188.97	3626.95
189.19	2869.20
189.41	2840.53
189.63	3303.37
189.85	3180.50
190.07	2705.37
190.29	2775.00
190.51	3354.57
190.73	3106.77
190.95	3002.32
191.17	2852.82
191.39	2985.94
191.61	3209.17
191.84	2797.53
192.06	3033.04
192.28	2910.16
192.50	3887.04
192.72	3020.75
192.94	2975.70
193.16	3526.60
193.38	3405.77
193.60	2772.95
193.82	3094.48
194.04	3567.56
194.26	3375.05
194.48	2893.78
194.70	2904.02
194.92	3139.54
195.14	3467.21
195.36	2842.58
195.58	2879.44
195.80	3297.23
196.02	3137.49
196.24	2836.44
196.46	2901.97
196.69	3162.06
196.91	3827.65
197.13	2877.40
197.35	2947.03
197.57	3616.71
197.79	3502.03
198.01	2969.55
198.23	2936.79
198.45	3434.44
198.67	3041.23
198.89	2703.32
199.11	2934.74
199.33	3094.48
199.55	2863.06
199.77	2811.86
199.99	3020.75
200.21	3174.35
200.43	3348.43
200.65	2709.46
200.87	2715.61
201.09	3301.33
201.31	3278.80
201.53	2918.36
201.75	2961.36
201.97	3413.96
202.19	3299.28
202.41	2906.07
202.63	2918.36
202.85	3391.44
203.07	3411.92
203.29	3049.43
203.51	2762.71
203.73	3145.68
203.95	3854.28
204.17	2928.60
204.39	2971.60
204.61	3282.89
204.83	3157.97
205.05	3092.43
205.27	2879.44
205.49	3686.34
205.71	3301.33
205.93	2775.00
206.15	2828.24
206.37	3268.56
206.59	3188.69
206.81	2729.94
207.03	2748.37
207.25	3131.34
207.47	3504.07
207.69	2955.22
207.91	3137.49
208.13	3692.49
208.34	3151.82
208.56	2805.72
208.78	2893.78
209.00	3213.26
209.22	3127.25
209.44	2914.26
209.66	2842.58
209.88	3299.28
210.10	3286.99
210.32	2879.44
210.54	2985.94
210.76	3217.36
210.98	3508.17
211.20	2729.94
211.42	2955.22
211.64	3561.42
211.86	3461.07
212.08	2906.07
212.30	2854.87
212.52	3225.55
212.74	3497.93
212.96	3014.61
213.17	2928.60
213.39	3450.83
213.61	3581.90
213.83	2873.30
214.05	2740.18
214.27	3483.59
214.49	3102.67
214.71	2844.63
214.93	3002.32
215.15	3299.28
215.37	3383.24
215.59	2705.37
215.81	2914.26
216.03	3579.85
216.24	3289.04
216.46	2869.20
216.68	3010.51
216.90	3448.78
217.12	3530.70
217.34	2795.48
217.56	2971.60
217.78	3571.66
218.00	3360.72
218.22	2871.25
218.44	2975.70
218.66	3356.62
218.87	3651.53
219.09	2942.93
219.31	2918.36
219.53	3274.70
219.75	3260.37
219.97	2928.60
220.19	2861.01
220.41	3209.17
220.63	3567.56
220.85	2967.51
221.06	2869.20
221.28	3524.55
221.50	3418.06
221.72	2881.49
221.94	2734.04
222.16	3223.50
222.38	3448.78
222.60	2856.92
222.82	2836.44
223.03	3532.75
223.25	3028.95
223.47	2820.05
223.69	3051.47
223.91	3452.88
224.13	3350.48
224.35	2781.14
224.57	3043.28
224.78	3452.88
225.00	3110.86
225.22	2979.79
225.44	2813.91
225.66	3442.64
225.88	3188.69
226.10	2951.12
226.32	2928.60
226.53	3565.51
226.75	3198.93
226.97	2959.31
227.19	2877.40
227.41	3065.81
227.63	3190.74
227.85	2731.99
228.06	2906.07
228.28	3303.37
228.50	3467.21
228.72	2766.81
228.94	2818.00
229.16	2914.26
229.37	3100.62
229.59	2725.85
229.81	3125.20
230.03	3174.35
230.25	3049.43
230.47	2744.28
230.69	2854.87
230.90	3549.13
231.12	3143.63
231.34	2949.08
231.56	2947.03
231.78	3010.51
232.00	3264.46
232.21	2893.78
232.43	2834.39
232.65	2881.49
232.87	3309.52
233.09	2740.18
233.30	2818.00
233.52	3649.48
233.74	3352.52
233.96	2785.24
234.18	3057.62
234.40	3278.80
234.61	3768.26
234.83	2740.18
235.05	2838.48
235.27	3749.83
235.49	3530.70
235.70	2705.37
235.92	2834.39
236.14	3418.06
236.36	3749.83
236.58	2793.43
236.79	2916.31
237.01	3338.19
237.23	3241.93
237.45	3071.95
237.67	2861.01
237.88	3289.04
238.10	3639.24
238.32	2738.13
238.54	2803.67
238.76	3248.08
238.97	3057.62
239.19	2852.82
239.41	2920.40
239.63	3469.26
239.85	3180.50
240.06	3000.27
240.28	2865.11
240.50	3475.40
240.72	3381.20
240.93	2764.76
241.15	3000.27
241.37	3291.09
241.59	3532.75
241.81	2844.63
242.02	2904.02
242.24	3358.67
242.46	3446.73
242.68	2676.70
242.89	2895.83
243.11	3342.28
243.33	3262.41
243.55	2828.24
243.76	2924.50
243.98	3117.01
244.20	3231.69
244.42	2877.40
244.64	2805.72
244.85	3024.85
245.07	3106.77
245.29	2875.35
245.51	2875.35
245.72	3336.14
245.94	3450.83
246.16	2762.71
246.38	2922.45
246.59	3182.54
246.81	3151.82
247.03	2811.86
247.24	2734.04
247.46	3225.55
247.68	3248.08
247.90	2736.09
248.11	2910.16
248.33	3444.68
248.55	3157.97
248.77	2940.88
248.98	2981.84
249.20	3657.67
249.42	3289.04
249.64	2850.77
249.85	2836.44
250.07	3145.68
250.29	3356.62
250.50	2938.84
250.72	2852.82
250.94	3428.30
251.16	3733.45
251.37	2801.62
251.59	2942.93
251.81	3420.11
252.02	3620.81
252.24	2791.38
252.46	3018.71
252.68	3098.58
252.89	3119.06
253.11	2656.22
253.33	3035.09
253.54	3532.75
253.76	2983.89
253.98	2938.84
254.20	2752.47
254.41	3051.47
254.63	3207.12
254.85	2787.29
255.06	3022.80
255.28	3350.48
255.50	3170.26
255.71	2820.05
255.93	2701.27
256.15	3291.09
256.36	3395.53
256.58	2662.36
256.80	2785.24
257.02	3188.69
257.23	3196.88
257.45	2858.96
257.67	2996.18
257.88	3139.54
258.10	3428.30
258.32	2842.58
258.53	2975.70
258.75	3606.47
258.97	3127.25
259.18	2772.95
259.40	2781.14
259.62	3672.01
259.83	3643.34
260.05	2867.16
260.27	3755.97
260.48	3526.60
260.70	3028.95
260.92	2785.24
261.13	2904.02
261.35	3327.95
261.57	3403.72
261.78	2746.33
262.00	2828.24
262.22	3370.96
262.43	3192.78
262.65	2787.29
262.86	2842.58
263.08	3786.69
263.30	3237.84
263.51	2688.98
263.73	2768.85
263.95	3592.14
264.16	3035.09
264.38	2746.33
264.60	2772.95
264.81	3229.65
265.03	3518.41
265.25	3237.84
265.46	2783.19
265.68	3469.26
265.89	3413.96
266.11	2748.37
266.33	2885.59
266.54	3448.78
266.76	3379.15
266.98	2885.59
267.19	3092.43
267.41	3547.08
267.62	3241.93
267.84	2686.94
268.06	2947.03
268.27	3317.71
268.49	3522.51
268.70	2975.70
268.92	2883.54
269.14	3143.63
269.35	3002.32
269.57	2957.27
269.79	2957.27
270.00	3172.30
270.22	3663.82
270.43	2746.33
270.65	2734.04
270.87	3231.69
271.08	3504.07
271.30	2912.21
271.51	2914.26
271.73	3436.49
271.95	3596.23
272.16	2828.24
272.38	3018.71
272.59	3237.84
272.81	3434.44
273.02	2775.00
273.24	2906.07
273.46	3499.98
273.67	2998.23
273.89	2768.85
274.10	2879.44
274.32	3536.84
274.54	3295.18
274.75	2922.45
274.97	2994.13
275.18	3446.73
275.40	3360.72
275.61	2914.26
275.83	3069.91
276.05	3037.14
276.26	3254.22
276.48	2996.18
276.69	2998.23
276.91	3139.54
277.12	3571.66
277.34	3002.32
277.55	3100.62
277.77	3291.09
277.99	3160.02
278.20	2979.79
278.42	2836.44
278.63	3164.11
278.85	3098.58
279.06	2951.12
279.28	3170.26
279.49	3489.74
279.71	3497.93
279.93	3092.43
280.14	3094.48
280.36	3051.47
280.57	3401.68
280.79	3067.86
281.00	2856.92
281.22	3188.69
281.43	3600.33
281.65	2772.95
281.86	2938.84
282.08	3401.68
282.29	3590.09
282.51	2836.44
282.73	2951.12
282.94	2942.93
283.16	3426.25
283.37	3065.81
283.59	2992.08
283.80	3362.76
284.02	3174.35
284.23	2994.13
284.45	2926.55
284.66	2992.08
284.88	3139.54
285.09	2910.16
285.31	3080.14
285.52	3338.19
285.74	2944.98
285.95	3131.34
286.17	2942.93
286.38	3549.13
286.60	3065.81
286.81	2973.65
287.03	2938.84
287.24	3299.28
287.46	3426.25
287.67	3108.82
287.89	3219.41
288.10	3188.69
288.32	3313.61
288.53	3104.72
288.75	2983.89
288.96	3428.30
289.18	3100.62
289.39	2920.40
289.61	3059.67
289.82	3770.31
290.04	3719.11
290.25	2838.48
290.47	3061.71
290.68	3174.35
290.90	3467.21
291.11	2861.01
291.33	3125.20
291.54	3125.20
291.76	3131.34
291.97	3164.11
292.18	3051.47
292.40	3229.65
292.61	3155.92
292.83	3344.33
293.04	3030.99
293.26	3377.10
293.47	3229.65
293.69	2904.02
293.90	2893.78
294.12	3506.12
294.33	3338.19
294.55	3006.42
294.76	3237.84
294.97	3600.33
295.19	3680.20
295.40	2963.41
295.62	3114.96
295.83	3430.35
296.05	3131.34
296.26	3225.55
296.48	2963.41
296.69	3246.03
296.90	3196.88
297.12	3067.86
297.33	3174.35
297.55	3284.94
297.76	3418.06
297.98	3127.25
298.19	3260.37
298.41	3311.57
298.62	3053.52
298.83	3164.11
299.05	3065.81
299.26	3149.78
299.48	3114.96
299.69	3022.80
299.90	2990.03
300.12	3014.61
300.33	3373.00
300.55	3002.32
300.76	3051.47
300.98	3051.47
301.19	3499.98
301.40	2983.89
301.62	2992.08
301.83	3327.95
302.05	3289.04
302.26	3026.90
302.47	3030.99
302.69	3067.86
302.90	3174.35
303.12	2840.53
303.33	3098.58
303.54	3661.77
303.76	3246.03
303.97	2981.84
304.19	3192.78
304.40	3000.27
304.61	3385.29
304.83	3117.01
305.04	3047.38
305.26	3413.96
305.47	3184.59
305.68	2977.75
305.90	2881.49
306.11	3532.75
306.33	3229.65
306.54	2822.10
306.75	2926.55
306.97	2975.70
307.18	3106.77
307.39	3004.37
307.61	3057.62
307.82	3289.04
308.04	3426.25
308.25	2861.01
308.46	3178.45
308.68	3248.08
308.89	3272.65
309.10	3104.72
309.32	2967.51
309.53	3368.91
309.74	3409.87
309.96	2912.21
310.17	3104.72
310.39	3205.07
310.60	3385.29
310.81	3078.10
311.03	3018.71
311.24	3391.44
311.45	3221.45
311.67	3282.89
311.88	3129.30
312.09	3200.98
312.31	3207.12
312.52	2887.64
312.73	2824.15
312.95	2955.22
313.16	3000.27
313.37	3114.96
313.59	3117.01
313.80	3479.50
314.01	3643.34
314.23	3018.71
314.44	2926.55
314.65	3030.99
314.87	3127.25
315.08	3086.29
315.29	3043.28
315.51	3190.74
315.72	2926.55
315.93	3047.38
316.15	3065.81
316.36	3168.21
316.57	3248.08
316.79	2975.70
317.00	2955.22
317.21	3397.58
317.43	3090.38
317.64	3016.66
317.85	2897.88
318.07	3086.29
318.28	3172.30
318.49	3104.72
318.70	3200.98
318.92	3358.67
319.13	3381.20
319.34	3233.74
319.56	2985.94
319.77	3377.10
319.98	3409.87
320.20	3213.26
320.41	3233.74
320.62	3442.64
320.83	3051.47
321.05	3147.73
321.26	3121.10
321.47	3264.46
321.69	3514.31
321.90	2947.03
322.11	2973.65
322.32	3282.89
322.54	3534.79
322.75	3047.38
322.96	3917.76
323.18	3020.75
323.39	2906.07
323.60	2877.40
323.81	3100.62
324.03	3063.76
324.24	3252.17
324.45	3051.47
324.66	2928.60
324.88	3436.49
325.09	3655.62
325.30	3018.71
325.52	2957.27
325.73	3319.76
325.94	3098.58
326.15	2844.63
326.37	2873.30
326.58	3426.25
326.79	3616.71
327.00	2951.12
327.22	3008.47
327.43	3241.93
327.64	3143.63
327.85	3135.44
328.07	3053.52
328.28	3626.95
328.49	3164.11
328.70	3030.99
328.92	2973.65
329.13	3225.55
329.34	3342.28
329.55	3299.28
329.76	3147.73
329.98	3184.59
330.19	3598.28
330.40	3082.19
330.61	3098.58
330.83	3424.20
331.04	3059.67
331.25	3067.86
331.46	3100.62
331.68	2992.08
331.89	3487.69
332.10	3059.67
332.31	2830.29
332.52	3280.85
332.74	3483.59
332.95	2865.11
333.16	3057.62
333.37	3493.83
333.58	3139.54
333.80	3002.32
334.01	2813.91
334.22	3260.37
334.43	3121.10
334.64	2985.94
334.86	2983.89
335.07	3043.28
335.28	3635.14
335.49	2967.51
335.70	3061.71
335.92	3510.22
336.13	3700.68
336.34	3067.86
336.55	3047.38
336.76	3352.52
336.98	2867.16
337.19	2983.89
337.40	3100.62
337.61	3798.98
337.82	3250.13
338.04	3129.30
338.25	2873.30
338.46	3241.93
338.67	3299.28
338.88	2871.25
339.09	2934.74
339.31	3188.69
339.52	3080.14
339.73	2959.31
339.94	3035.09
340.15	3377.10
340.36	3217.36
340.58	3108.82
340.79	2858.96
341.00	3370.96
341.21	3045.33
341.42	3270.61
341.63	3006.42
341.85	3499.98
342.06	3346.38
342.27	2932.69
342.48	3192.78
342.69	3086.29
342.90	3317.71
343.12	3321.81
343.33	2994.13
343.54	3483.59
343.75	3534.79
343.96	3078.10
344.17	2877.40
344.38	3303.37
344.60	3045.33
344.81	2910.16
345.02	2918.36
345.23	3491.79
345.44	3850.18
345.65	3067.86
345.86	3082.19
346.07	3360.72
346.29	3182.54
346.50	3114.96
346.71	2975.70
346.92	3563.47
347.13	3700.68
347.34	3094.48
347.55	2910.16
347.76	3442.64
347.98	2926.55
348.19	3002.32
348.40	3182.54
348.61	3301.33
348.82	3624.90
349.03	3076.05
349.24	2910.16
349.45	3657.67
349.66	2863.06
349.88	2998.23
350.09	2947.03
350.30	3590.09
350.51	3499.98
350.72	3207.12
350.93	3071.95
351.14	3200.98
351.35	3342.28
351.56	3033.04
351.77	3067.86
351.99	3360.72
352.20	3569.61
352.41	3129.30
352.62	2885.59
352.83	3276.75
353.04	3239.89
353.25	2977.75
353.46	3135.44
353.67	3461.07
353.88	2807.77
354.09	2897.88
354.30	2965.46
354.52	3413.96
354.73	3280.85
354.94	2967.51
355.15	3104.72
355.36	3723.21
355.57	3125.20
355.78	2891.73
355.99	2906.07
356.20	3239.89
356.41	3600.33
356.62	3078.10
356.83	3008.47
357.04	3553.23
357.25	2918.36
357.46	2951.12
357.68	2924.50
357.89	3127.25
358.10	3243.98
358.31	2987.99
358.52	3008.47
358.73	3088.34
358.94	3098.58
359.15	2981.84
359.36	3010.51
359.57	3270.61
359.78	3250.13
359.99	3213.26
360.20	2875.35
360.41	3307.47
360.62	3401.68
360.83	3051.47
361.04	3028.95
361.25	3348.43
361.46	3641.29
361.67	3153.87
361.88	2938.84
362.09	3430.35
362.30	3250.13
362.51	2963.41
362.72	3020.75
362.93	3381.20
363.14	3305.42
363.35	3110.86
363.56	2924.50
363.78	3516.36
363.99	3454.92
364.20	3063.76
364.41	3100.62
364.62	3622.86
364.83	3344.33
365.04	3016.66
365.25	3071.95
365.46	3635.14
365.67	3074.00
365.88	3190.74
366.09	2955.22
366.30	3231.69
366.51	3342.28
366.72	2942.93
366.93	2973.65
367.14	3225.55
367.35	3542.99
367.56	2967.51
367.77	3100.62
367.98	3307.47
368.18	3424.20
368.39	3121.10
368.60	2926.55
368.81	3407.82
369.02	3303.37
369.23	3051.47
369.44	2887.64
369.65	3289.04
369.86	3409.87
370.07	3176.40
370.28	2906.07
370.49	3389.39
370.70	3450.83
370.91	3016.66
371.12	2906.07
371.33	3520.46
371.54	3252.17
371.75	3170.26
371.96	2734.04
372.17	3356.62
372.38	3301.33
372.59	3010.51
372.80	2942.93
373.01	3266.51
373.22	3387.34
373.43	3004.37
373.64	2877.40
373.85	3532.75
374.06	3600.33
374.26	3223.50
374.47	3133.39
374.68	3569.61
374.89	3344.33
375.10	2987.99
375.31	3065.81
375.52	3307.47
375.73	3344.33
375.94	2805.72
376.15	3078.10
376.36	3117.01
376.57	3233.74
376.78	3037.14
376.99	3055.57
377.20	3522.51
377.40	3127.25
377.61	3350.48
377.82	2996.18
378.03	3598.28
378.24	3442.64
378.45	3098.58
378.66	3084.24
378.87	2947.03
379.08	2969.55
379.29	3028.95
379.50	3205.07
379.71	3295.18
379.91	3428.30
380.12	2987.99
380.33	3108.82
380.54	3321.81
380.75	3223.50
380.96	2998.23
381.17	3067.86
381.38	3393.48
381.59	3370.96
381.80	3114.96
382.00	3162.06
382.21	3227.60
382.42	3512.27
382.63	3373.00
382.84	3188.69
383.05	3475.40
383.26	3592.14
383.47	3121.10
383.68	3002.32
383.88	3432.40
384.09	3256.27
384.30	3246.03
384.51	3198.93
384.72	3254.22
384.93	3002.32
385.14	3074.00
385.35	3360.72
385.55	2963.41
385.76	3528.65
385.97	3098.58
386.18	2893.78
386.39	3137.49
386.60	3135.44
386.81	2947.03
387.02	2912.21
387.22	3004.37
387.43	3409.87
387.64	3125.20
387.85	3223.50
388.06	3276.75
388.27	4394.94
388.48	7849.86
388.68	12076.87
388.89	14804.77
389.10	16488.20
389.31	16160.52
389.52	13084.47
389.73	11327.32
389.93	10362.72
390.14	9146.23
390.35	8449.92
390.56	8017.80
390.77	6557.60
390.98	5013.43
391.18	4145.09
391.39	3944.39
391.60	3299.28
391.81	3379.15
392.02	3016.66
392.23	3823.56
392.43	3323.85
392.64	3127.25
392.85	3133.39
393.06	3637.19
393.27	3272.65
393.47	3053.52
393.68	3164.11
393.89	3196.88
394.10	3545.03
394.31	3022.80
394.52	3041.23
394.72	3098.58
394.93	3557.32
395.14	2967.51
395.35	3084.24
395.56	3155.92
395.76	3192.78
395.97	3033.04
396.18	3180.50
396.39	3342.28
396.60	3944.39
396.80	3393.48
397.01	3270.61
397.22	3456.97
397.43	3426.25
397.64	3041.23
397.84	3143.63
398.05	3723.21
398.26	3342.28
398.47	3186.64
398.67	3280.85
398.88	3289.04
399.09	3411.92
399.30	2987.99
399.51	3074.00
399.71	3135.44
399.92	3147.73
400.13	3131.34
400.34	3098.58
400.54	3262.41
400.75	3581.90
400.96	3145.68
401.17	3338.19
401.37	3397.58
401.58	3270.61
401.79	3102.67
402.00	3131.34
402.21	3909.57
402.41	3420.11
402.62	3344.33
402.83	3483.59
403.04	3725.26
403.24	4122.56
403.45	3192.78
403.66	3330.00
403.87	3454.92
404.07	3596.23
404.28	3327.95
404.49	3430.35
404.70	3373.00
404.90	3444.68
405.11	3006.42
405.32	3157.97
405.52	3184.59
405.73	3180.50
405.94	2994.13
406.15	3157.97
406.35	3440.59
406.56	3452.88
406.77	3078.10
406.98	3074.00
407.18	3190.74
407.39	3491.79
407.60	3074.00
407.80	3096.53
408.01	3145.68
408.22	3350.48
408.43	2914.26
408.63	3176.40
408.84	3477.45
409.05	3510.22
409.25	3018.71
409.46	3084.24
409.67	3217.36
409.88	3127.25
410.08	3094.48
410.29	3045.33
410.50	3405.77
410.70	3399.63
410.91	2951.12
411.12	3084.24
411.32	3323.85
411.53	3153.87
411.74	3086.29
411.95	3117.01
412.15	3297.23
412.36	3391.44
412.57	3311.57
412.77	3203.02
412.98	3231.69
413.19	3272.65
413.39	3082.19
413.60	3174.35
413.81	3614.66
414.01	3041.23
414.22	3102.67
414.43	3217.36
414.63	3248.08
414.84	3497.93
415.05	3094.48
415.25	2887.64
415.46	3416.01
415.67	3094.48
415.87	3082.19
416.08	3010.51
416.29	3225.55
416.49	3348.43
416.70	3125.20
416.91	3067.86
417.11	3192.78
417.32	3467.21
417.53	3094.48
417.73	3104.72
417.94	3311.57
418.15	3340.24
418.35	3119.06
418.56	3049.43
418.77	3801.03
418.97	3305.42
419.18	3041.23
419.38	2760.66
419.59	3258.32
419.80	3583.95
420.00	3004.37
420.21	3069.91
420.42	3559.37
420.62	3368.91
420.83	2979.79
421.04	3041.23
421.24	3235.79
421.45	3438.54
421.65	3063.76
421.86	3125.20
422.07	3362.76
422.27	3348.43
422.48	2918.36
422.69	2904.02
422.89	3393.48
423.10	3278.80
423.30	3026.90
423.51	3086.29
423.72	3399.63
423.92	3360.72
424.13	2996.18
424.33	3102.67
424.54	3497.93
424.75	3276.75
424.95	3286.99
425.16	2973.65
425.36	3250.13
425.57	3442.64
425.78	3225.55
425.98	3145.68
426.19	3170.26
426.39	3110.86
426.60	3127.25
426.81	3164.11
427.01	3368.91
427.22	3147.73
427.42	2889.68
427.63	2983.89
427.83	3456.97
428.04	3571.66
428.25	3094.48
428.45	3166.16
428.66	3524.55
428.86	3286.99
429.07	3131.34
429.28	3026.90
429.48	3192.78
429.69	3149.78
429.89	3131.34
430.10	2955.22
430.30	3446.73
430.51	3461.07
430.71	2987.99
430.92	3205.07
431.13	3213.26
431.33	3344.33
431.54	3192.78
431.74	3215.31
431.95	3741.64
432.15	3059.67
432.36	3037.14
432.56	3123.15
432.77	3680.20
432.98	3674.06
433.18	3153.87
433.39	2918.36
433.59	3270.61
433.80	3766.21
434.00	3254.22
434.21	3117.01
434.41	3180.50
434.62	3747.78
434.82	2947.03
435.03	2983.89
435.23	3319.76
435.44	2985.94
435.64	3092.43
435.85	3114.96
436.06	3409.87
436.26	3399.63
436.47	3041.23
436.67	2992.08
436.88	3260.37
437.08	3495.88
437.29	3205.07
437.49	3123.15
437.70	3524.55
437.90	3178.45
438.11	3295.18
438.31	3209.17
438.52	3540.94
438.72	3461.07
438.93	3456.97
439.13	3143.63
439.34	3428.30
439.54	3137.49
439.75	3162.06
439.95	3102.67
440.16	3184.59
440.36	3248.08
440.57	3076.05
440.77	3041.23
440.98	3301.33
441.18	3338.19
441.39	2985.94
441.59	2904.02
441.80	3760.07
442.00	3291.09
442.21	3168.21
442.41	2920.40
442.62	3508.17
442.82	3231.69
443.02	3123.15
443.23	3076.05
443.43	3239.89
443.64	3602.38
443.84	2953.17
444.05	3147.73
444.25	3270.61
444.46	3157.97
444.66	3026.90
444.87	3217.36
445.07	2981.84
445.28	3223.50
445.48	3342.28
445.69	3110.86
445.89	3829.70
446.09	3211.22
446.30	3364.81
446.50	3420.11
446.71	5048.24
446.91	6389.66
447.12	7239.57
447.32	7700.36
447.53	7780.23
447.73	6514.59
447.93	5506.99
448.14	5296.05
448.34	5506.99
448.55	4534.20
448.75	4521.92
448.96	4204.48
449.16	4075.46
449.36	3954.63
449.57	3385.29
449.77	3196.88
449.98	3178.45
450.18	3299.28
450.39	2979.79
450.59	3297.23
450.79	3252.17
451.00	3110.86
451.20	3319.76
451.41	3030.99
451.61	3385.29
451.81	3207.12
452.02	2928.60
452.22	3063.76
452.43	3155.92
