SpectraSuite Data File
++++++++++++++++++++++++++++++++++++
Date: Fri May 06 08:14:09 CEST 2016
User: root
Dark Spectrum Present: No
Reference Spectrum Present: No
Number of Sampled Component Spectra: 1
Spectrometers: USB4C02835
Integration Time (usec): 100000 (USB4C02835)
Spectra Averaged: 1 (USB4C02835)
Boxcar Smoothing: 0 (USB4C02835)
Correct for Electrical Dark: No (USB4C02835)
Strobe/Lamp Enabled: No (USB4C02835)
Correct for Detector Non-linearity: No (USB4C02835)
Correct for Stray Light: No (USB4C02835)
Number of Pixels in Processed Spectrum: 3648
>>>>>Begin Processed Spectral Data<<<<<
177.47	2246.62
177.69	2246.62
177.91	2246.62
178.13	2267.10
178.36	2238.43
178.58	3026.90
178.80	3147.73
179.02	2990.03
179.24	3016.66
179.46	2783.19
179.68	2852.82
179.90	3286.99
180.13	3270.61
180.35	2635.74
180.57	2865.11
180.79	3516.36
181.01	3246.03
181.23	2930.64
181.45	3012.56
181.67	3411.92
181.90	3397.58
182.12	2920.40
182.34	2729.94
182.56	3385.29
182.78	3405.77
183.00	2844.63
183.22	2957.27
183.44	2910.16
183.66	3874.76
183.89	2967.51
184.11	2869.20
184.33	3360.72
184.55	3510.22
184.77	2820.05
184.99	2938.84
185.21	3135.44
185.43	3870.66
185.65	2856.92
185.87	2791.38
186.10	3741.64
186.32	3889.09
186.54	3033.04
186.76	3000.27
186.98	3571.66
187.20	3299.28
187.42	2938.84
187.64	2797.53
187.86	3344.33
188.08	3530.70
188.30	2770.90
188.52	2832.34
188.75	3545.03
188.97	3512.27
189.19	2891.73
189.41	2869.20
189.63	3366.86
189.85	3239.89
190.07	2719.70
190.29	2805.72
190.51	3395.53
190.73	2926.55
190.95	2983.89
191.17	2914.26
191.39	3020.75
191.61	3221.45
191.84	2875.35
192.06	2983.89
192.28	3033.04
192.50	3950.53
192.72	3039.19
192.94	2951.12
193.16	3499.98
193.38	3346.38
193.60	2840.53
193.82	3096.53
194.04	3545.03
194.26	3299.28
194.48	2910.16
194.70	2813.91
194.92	3274.70
195.14	3485.64
195.36	2865.11
195.58	2912.21
195.80	3280.85
196.02	3231.69
196.24	2852.82
196.46	2852.82
196.69	3125.20
196.91	3786.69
197.13	2881.49
197.35	3026.90
197.57	3616.71
197.79	3471.31
198.01	2938.84
198.23	2967.51
198.45	3393.48
198.67	3057.62
198.89	2740.18
199.11	2969.55
199.33	3129.30
199.55	2789.33
199.77	2838.48
199.99	3035.09
200.21	3207.12
200.43	3387.34
200.65	2779.09
200.87	2723.80
201.09	3264.46
201.31	3207.12
201.53	2848.72
201.75	2961.36
201.97	3274.70
202.19	3286.99
202.41	2910.16
202.63	2969.55
202.85	3364.81
203.07	3346.38
203.29	2891.73
203.51	2781.14
203.73	3209.17
203.95	3805.13
204.17	2901.97
204.39	3037.14
204.61	3313.61
204.83	3094.48
205.05	3078.10
205.27	2940.88
205.49	3708.87
205.71	3295.18
205.93	2725.85
206.15	2723.80
206.37	3309.52
206.59	3217.36
206.81	2697.17
207.03	2791.38
207.25	3100.62
207.47	3344.33
207.69	2867.16
207.91	3010.51
208.13	3590.09
208.34	3188.69
208.56	2871.25
208.78	2883.54
209.00	3114.96
209.22	3176.40
209.44	2881.49
209.66	2834.39
209.88	3362.76
210.10	3272.65
210.32	2820.05
210.54	2910.16
210.76	3166.16
210.98	3491.79
211.20	2664.41
211.42	2969.55
211.64	3528.65
211.86	3393.48
212.08	2942.93
212.30	2795.48
212.52	3225.55
212.74	3368.91
212.96	2963.41
213.17	2992.08
213.39	3477.45
213.61	3626.95
213.83	2883.54
214.05	2699.22
214.27	3598.28
214.49	3123.15
214.71	2838.48
214.93	2967.51
215.15	3295.18
215.37	3495.88
215.59	2777.05
215.81	2873.30
216.03	3606.47
216.24	3231.69
216.46	2852.82
216.68	2961.36
216.90	3381.20
217.12	3512.27
217.34	2826.20
217.56	3051.47
217.78	3651.53
218.00	3364.81
218.22	2949.08
218.44	2918.36
218.66	3321.81
218.87	3665.86
219.09	2879.44
219.31	2863.06
219.53	3313.61
219.75	3147.73
219.97	2848.72
220.19	2887.64
220.41	3262.41
220.63	3516.36
220.85	2891.73
221.06	2934.74
221.28	3528.65
221.50	3350.48
221.72	2949.08
221.94	2770.90
222.16	3346.38
222.38	3479.50
222.60	2861.01
222.82	2897.88
223.03	3448.78
223.25	3045.33
223.47	2813.91
223.69	3092.43
223.91	3506.12
224.13	3229.65
224.35	2852.82
224.57	3033.04
224.78	3459.02
225.00	3092.43
225.22	3037.14
225.44	2867.16
225.66	3385.29
225.88	3221.45
226.10	3024.85
226.32	2807.77
226.53	3612.62
226.75	3151.82
226.97	2934.74
227.19	2875.35
227.41	3190.74
227.63	3114.96
227.85	2631.64
228.06	2957.27
228.28	3395.53
228.50	3583.95
228.72	2719.70
228.94	2830.29
229.16	2922.45
229.37	2967.51
229.59	2789.33
229.81	3143.63
230.03	3172.30
230.25	2963.41
230.47	2752.47
230.69	2879.44
230.90	3454.92
231.12	3106.77
231.34	2979.79
231.56	2916.31
231.78	3000.27
232.00	3297.23
232.21	2844.63
232.43	2840.53
232.65	2891.73
232.87	3272.65
233.09	2711.51
233.30	2869.20
233.52	3506.12
233.74	3196.88
233.96	2834.39
234.18	3067.86
234.40	3289.04
234.61	3741.64
234.83	2744.28
235.05	2848.72
235.27	3753.93
235.49	3557.32
235.70	2754.52
235.92	2904.02
236.14	3387.34
236.36	3792.84
236.58	2766.81
236.79	2983.89
237.01	3239.89
237.23	3198.93
237.45	3061.71
237.67	2893.78
237.88	3319.76
238.10	3618.76
238.32	2797.53
238.54	2867.16
238.76	3299.28
238.97	3084.24
239.19	2764.76
239.41	2899.92
239.63	3604.42
239.85	3117.01
240.06	2914.26
240.28	2807.77
240.50	3463.12
240.72	3293.13
240.93	2756.57
241.15	2928.60
241.37	3219.41
241.59	3573.71
241.81	2787.29
242.02	2971.60
242.24	3307.47
242.46	3385.29
242.68	2676.70
242.89	2795.48
243.11	3479.50
243.33	3207.12
243.55	2930.64
243.76	2766.81
243.98	3164.11
244.20	3336.14
244.42	2852.82
244.64	2746.33
244.85	3039.19
245.07	3108.82
245.29	2871.25
245.51	2934.74
245.72	3332.05
245.94	3508.17
246.16	2820.05
246.38	2887.64
246.59	3200.98
246.81	3147.73
247.03	2762.71
247.24	2766.81
247.46	3194.83
247.68	3368.91
247.90	2772.95
248.11	2852.82
248.33	3370.96
248.55	3225.55
248.77	2856.92
248.98	2901.97
249.20	3545.03
249.42	3383.24
249.64	2832.34
249.85	2809.81
250.07	3061.71
250.29	3518.41
250.50	2867.16
250.72	2799.57
250.94	3389.39
251.16	3676.10
251.37	2811.86
251.59	2930.64
251.81	3362.76
252.02	3577.80
252.24	2766.81
252.46	3022.80
252.68	3114.96
252.89	3143.63
253.11	2713.56
253.33	3033.04
253.54	3545.03
253.76	3039.19
253.98	2885.59
254.20	2953.17
254.41	3114.96
254.63	3235.79
254.85	2699.22
255.06	3041.23
255.28	3344.33
255.50	3188.69
255.71	2834.39
255.93	2725.85
256.15	3317.71
256.36	3479.50
256.58	2729.94
256.80	2815.96
257.02	3309.52
257.23	3098.58
257.45	2942.93
257.67	2977.75
257.88	3176.40
258.10	3348.43
258.32	2856.92
258.53	2965.46
258.75	3610.57
258.97	3170.26
259.18	2756.57
259.40	2789.33
259.62	3567.56
259.83	3647.43
260.05	2879.44
260.27	3758.02
260.48	3485.64
260.70	3026.90
260.92	2811.86
261.13	2846.68
261.35	3303.37
261.57	3311.57
261.78	2772.95
262.00	2731.99
262.22	3440.59
262.43	3086.29
262.65	2861.01
262.86	2850.77
263.08	3823.56
263.30	3280.85
263.51	2725.85
263.73	2820.05
263.95	3661.77
264.16	3022.80
264.38	2738.13
264.60	2783.19
264.81	3272.65
265.03	3497.93
265.25	3282.89
265.46	2838.48
265.68	3565.51
265.89	3444.68
266.11	2688.98
266.33	2805.72
266.54	3577.80
266.76	3352.52
266.98	2959.31
267.19	3043.28
267.41	3502.03
267.62	3184.59
267.84	2693.08
268.06	2987.99
268.27	3444.68
268.49	3479.50
268.70	2947.03
268.92	2895.83
269.14	3059.67
269.35	3018.71
269.57	3008.47
269.79	2930.64
270.00	3182.54
270.22	3622.86
270.43	2805.72
270.65	2715.61
270.87	3379.15
271.08	3520.46
271.30	2920.40
271.51	2949.08
271.73	3438.54
271.95	3583.95
272.16	2828.24
272.38	3055.57
272.59	3172.30
272.81	3303.37
273.02	2789.33
273.24	2846.68
273.46	3448.78
273.67	3018.71
273.89	2723.80
274.10	2850.77
274.32	3536.84
274.54	3340.24
274.75	2959.31
274.97	2926.55
275.18	3448.78
275.40	3344.33
275.61	2840.53
275.83	3078.10
276.05	3121.10
276.26	3225.55
276.48	2957.27
276.69	2975.70
276.91	3139.54
277.12	3645.38
277.34	3125.20
277.55	3141.58
277.77	3377.10
277.99	3188.69
278.20	2957.27
278.42	2893.78
278.63	3178.45
278.85	3196.88
279.06	2975.70
279.28	3045.33
279.49	3483.59
279.71	3348.43
279.93	3010.51
280.14	2973.65
280.36	3117.01
280.57	3440.59
280.79	3090.38
281.00	2975.70
281.22	3172.30
281.43	3459.02
281.65	2783.19
281.86	2916.31
282.08	3368.91
282.29	3741.64
282.51	2918.36
282.73	2869.20
282.94	2944.98
283.16	3475.40
283.37	3074.00
283.59	3000.27
283.80	3323.85
284.02	3250.13
284.23	3049.43
284.45	3071.95
284.66	3090.38
284.88	3127.25
285.09	2836.44
285.31	3114.96
285.52	3270.61
285.74	2955.22
285.95	3160.02
286.17	3057.62
286.38	3344.33
286.60	3178.45
286.81	2928.60
287.03	2897.88
287.24	3286.99
287.46	3389.39
287.67	3112.91
287.89	3170.26
288.10	3262.41
288.32	3297.23
288.53	3125.20
288.75	3049.43
288.96	3471.31
289.18	3090.38
289.39	2990.03
289.61	3078.10
289.82	3741.64
290.04	3678.15
290.25	2840.53
290.47	3053.52
290.68	3192.78
290.90	3424.20
291.11	2801.62
291.33	3145.68
291.54	3106.77
291.76	3176.40
291.97	3164.11
292.18	3129.30
292.40	3139.54
292.61	3147.73
292.83	3213.26
293.04	2963.41
293.26	3256.27
293.47	3205.07
293.69	2873.30
293.90	2910.16
294.12	3581.90
294.33	3405.77
294.55	3041.23
294.76	3196.88
294.97	3569.61
295.19	3614.66
295.40	2975.70
295.62	3059.67
295.83	3471.31
296.05	3121.10
296.26	3114.96
296.48	2998.23
296.69	3243.98
296.90	3241.93
297.12	3117.01
297.33	3176.40
297.55	3313.61
297.76	3383.24
297.98	3008.47
298.19	3119.06
298.41	3264.46
298.62	3061.71
298.83	3229.65
299.05	3131.34
299.26	3260.37
299.48	3041.23
299.69	3069.91
299.90	2969.55
300.12	3061.71
300.33	3444.68
300.55	3102.67
300.76	2975.70
300.98	3160.02
301.19	3358.67
301.40	3016.66
301.62	3002.32
301.83	3413.96
302.05	3280.85
302.26	2932.69
302.47	3123.15
302.69	3051.47
302.90	3297.23
303.12	2779.09
303.33	2985.94
303.54	3721.16
303.76	3241.93
303.97	2912.21
304.19	3174.35
304.40	3164.11
304.61	3358.67
304.83	3057.62
305.04	2996.18
305.26	3407.82
305.47	3160.02
305.68	3004.37
305.90	2914.26
306.11	3594.19
306.33	3119.06
306.54	2844.63
306.75	2975.70
306.97	2983.89
307.18	3110.86
307.39	3024.85
307.61	3074.00
307.82	3198.93
308.04	3395.53
308.25	2901.97
308.46	3131.34
308.68	3266.51
308.89	3282.89
309.10	3104.72
309.32	3030.99
309.53	3286.99
309.74	3399.63
309.96	2920.40
310.17	3098.58
310.39	3170.26
310.60	3416.01
310.81	3047.38
311.03	2904.02
311.24	3422.16
311.45	3280.85
311.67	3364.81
311.88	3117.01
312.09	3200.98
312.31	3164.11
312.52	2901.97
312.73	2928.60
312.95	2983.89
313.16	3037.14
313.37	3196.88
313.59	3155.92
313.80	3401.68
314.01	3534.79
314.23	3039.19
314.44	2877.40
314.65	3014.61
314.87	3028.95
315.08	2981.84
315.29	2994.13
315.51	3016.66
315.72	2967.51
315.93	3069.91
316.15	3016.66
316.36	3213.26
316.57	3311.57
316.79	3008.47
317.00	2885.59
317.21	3389.39
317.43	3131.34
317.64	3004.37
317.85	2893.78
318.07	3145.68
318.28	3229.65
318.49	3207.12
318.70	3243.98
318.92	3389.39
319.13	3284.94
319.34	3196.88
319.56	2979.79
319.77	3418.06
319.98	3497.93
320.20	3260.37
320.41	3114.96
320.62	3368.91
320.83	3047.38
321.05	3225.55
321.26	2983.89
321.47	3313.61
321.69	3502.03
321.90	2918.36
322.11	2985.94
322.32	3301.33
322.54	3540.94
322.75	2992.08
322.96	3987.40
323.18	3030.99
323.39	2912.21
323.60	2897.88
323.81	3057.62
324.03	3188.69
324.24	3321.81
324.45	3051.47
324.66	2856.92
324.88	3563.47
325.09	3643.34
325.30	2926.55
325.52	2985.94
325.73	3422.16
325.94	3198.93
326.15	2934.74
326.37	2875.35
326.58	3438.54
326.79	3567.56
327.00	2971.60
327.22	2936.79
327.43	3209.17
327.64	2975.70
327.85	3123.15
328.07	3055.57
328.28	3583.95
328.49	3067.86
328.70	3043.28
328.92	2977.75
329.13	3227.60
329.34	3401.68
329.55	3200.98
329.76	3123.15
329.98	3225.55
330.19	3471.31
330.40	3065.81
330.61	3078.10
330.83	3477.45
331.04	3133.39
331.25	3112.91
331.46	3026.90
331.68	3129.30
331.89	3504.07
332.10	3090.38
332.31	2951.12
332.52	3352.52
332.74	3467.21
332.95	2801.62
333.16	3006.42
333.37	3461.07
333.58	3194.83
333.80	3137.49
334.01	2820.05
334.22	3196.88
334.43	3243.98
334.64	3006.42
334.86	2951.12
335.07	2987.99
335.28	3565.51
335.49	2877.40
335.70	3067.86
335.92	3557.32
336.13	3698.63
336.34	3039.19
336.55	2961.36
336.76	3352.52
336.98	2877.40
337.19	2965.46
337.40	3071.95
337.61	3796.93
337.82	3248.08
338.04	3166.16
338.25	2877.40
338.46	3246.03
338.67	3215.31
338.88	2869.20
339.09	2828.24
339.31	3157.97
339.52	3018.71
339.73	2924.50
339.94	3010.51
340.15	3319.76
340.36	3174.35
340.58	3098.58
340.79	2885.59
341.00	3424.20
341.21	3041.23
341.42	3272.65
341.63	3000.27
341.85	3434.44
342.06	3325.90
342.27	2883.54
342.48	3209.17
342.69	2967.51
342.90	3344.33
343.12	3379.15
343.33	2910.16
343.54	3434.44
343.75	3583.95
343.96	3086.29
344.17	2901.97
344.38	3180.50
344.60	3055.57
344.81	2965.46
345.02	3016.66
345.23	3528.65
345.44	3690.44
345.65	3000.27
345.86	3053.52
346.07	3286.99
346.29	3145.68
346.50	3155.92
346.71	3123.15
346.92	3524.55
347.13	3770.31
347.34	3049.43
347.55	2815.96
347.76	3456.97
347.98	3026.90
348.19	3049.43
348.40	3123.15
348.61	3207.12
348.82	3598.28
349.03	3065.81
349.24	2871.25
349.45	3606.47
349.66	2873.30
349.88	2938.84
350.09	2897.88
350.30	3542.99
350.51	3534.79
350.72	3131.34
350.93	3020.75
351.14	3221.45
351.35	3325.90
351.56	3004.37
351.77	3043.28
351.99	3364.81
352.20	3557.32
352.41	3123.15
352.62	2785.24
352.83	3315.66
353.04	3209.17
353.25	3041.23
353.46	3039.19
353.67	3502.03
353.88	2910.16
354.09	2957.27
354.30	3000.27
354.52	3444.68
354.73	3243.98
354.94	2932.69
355.15	3078.10
355.36	3649.48
355.57	3139.54
355.78	2963.41
355.99	3008.47
356.20	3241.93
356.41	3491.79
356.62	3090.38
356.83	3114.96
357.04	3491.79
357.25	2918.36
357.46	2951.12
357.68	2842.58
357.89	3117.01
358.10	3188.69
358.31	3020.75
358.52	3094.48
358.73	3059.67
358.94	3102.67
359.15	2975.70
359.36	3045.33
359.57	3354.57
359.78	3295.18
359.99	3217.36
360.20	2934.74
360.41	3274.70
360.62	3459.02
360.83	3160.02
361.04	3016.66
361.25	3338.19
361.46	3575.75
361.67	3106.77
361.88	3002.32
362.09	3430.35
362.30	3352.52
362.51	2897.88
362.72	3082.19
362.93	3395.53
363.14	3430.35
363.35	3114.96
363.56	2949.08
363.78	3493.83
363.99	3448.78
364.20	3010.51
364.41	3055.57
364.62	3723.21
364.83	3434.44
365.04	3020.75
365.25	3065.81
365.46	3614.66
365.67	3166.16
365.88	3123.15
366.09	2963.41
366.30	3250.13
366.51	3274.70
366.72	2918.36
366.93	3026.90
367.14	3297.23
367.35	3590.09
367.56	2936.79
367.77	3133.39
367.98	3225.55
368.18	3409.87
368.39	3203.02
368.60	2930.64
368.81	3383.24
369.02	3340.24
369.23	2994.13
369.44	2904.02
369.65	3196.88
369.86	3348.43
370.07	3141.58
370.28	2846.68
370.49	3397.58
370.70	3385.29
370.91	2942.93
371.12	2961.36
371.33	3555.27
371.54	3174.35
371.75	3123.15
371.96	2795.48
372.17	3311.57
372.38	3319.76
372.59	3024.85
372.80	2955.22
373.01	3258.32
373.22	3348.43
373.43	3026.90
373.64	2867.16
373.85	3573.71
374.06	3631.05
374.26	3178.45
374.47	3114.96
374.68	3610.57
374.89	3305.42
375.10	2949.08
375.31	3047.38
375.52	3311.57
375.73	3323.85
375.94	2889.68
376.15	3092.43
376.36	3139.54
376.57	3188.69
376.78	3069.91
376.99	3092.43
377.20	3542.99
377.40	3274.70
377.61	3286.99
377.82	2912.21
378.03	3502.03
378.24	3364.81
378.45	3004.37
378.66	3100.62
378.87	2914.26
379.08	3057.62
379.29	2998.23
379.50	3139.54
379.71	3297.23
379.91	3332.05
380.12	2959.31
380.33	3067.86
380.54	3196.88
380.75	3276.75
380.96	2977.75
381.17	3131.34
381.38	3260.37
381.59	3293.13
381.80	3098.58
382.00	3147.73
382.21	3264.46
382.42	3583.95
382.63	3319.76
382.84	3125.20
383.05	3502.03
383.26	3489.74
383.47	3192.78
383.68	2926.55
383.88	3416.01
384.09	3262.41
384.30	3241.93
384.51	3114.96
384.72	3172.30
384.93	3045.33
385.14	3082.19
385.35	3313.61
385.55	2985.94
385.76	3446.73
385.97	3041.23
386.18	2895.83
386.39	3092.43
386.60	3196.88
386.81	2977.75
387.02	2953.17
387.22	3022.80
387.43	3401.68
387.64	3082.19
387.85	3319.76
388.06	3379.15
388.27	4403.13
388.48	7917.45
388.68	12099.40
388.89	15025.95
389.10	16615.17
389.31	16228.10
389.52	13305.65
389.73	11372.37
389.93	10504.03
390.14	9144.18
390.35	8642.43
390.56	7894.92
390.77	6629.27
390.98	5025.72
391.18	4159.42
391.39	3909.57
391.60	3313.61
391.81	3254.22
392.02	3010.51
392.23	3749.83
392.43	3391.44
392.64	3164.11
392.85	3100.62
393.06	3622.86
393.27	3252.17
393.47	2998.23
393.68	3082.19
393.89	3080.14
394.10	3540.94
394.31	3059.67
394.52	3037.14
394.72	3119.06
394.93	3583.95
395.14	2922.45
395.35	3153.87
395.56	3176.40
395.76	3227.60
395.97	3059.67
396.18	3141.58
396.39	3327.95
396.60	3889.09
396.80	3426.25
397.01	3254.22
397.22	3442.64
397.43	3502.03
397.64	3041.23
397.84	3117.01
398.05	3715.02
398.26	3221.45
398.47	3139.54
398.67	3280.85
398.88	3286.99
399.09	3448.78
399.30	3100.62
399.51	3043.28
399.71	3139.54
399.92	3266.51
400.13	3149.78
400.34	3045.33
400.54	3340.24
400.75	3528.65
400.96	3176.40
401.17	3332.05
401.37	3401.68
401.58	3203.02
401.79	3020.75
402.00	3180.50
402.21	3807.17
402.41	3418.06
402.62	3309.52
402.83	3442.64
403.04	3774.41
403.24	4114.37
403.45	3225.55
403.66	3336.14
403.87	3504.07
404.07	3692.49
404.28	3366.86
404.49	3393.48
404.70	3393.48
404.90	3401.68
405.11	3078.10
405.32	3213.26
405.52	3205.07
405.73	3090.38
405.94	2926.55
406.15	3049.43
406.35	3434.44
406.56	3450.83
406.77	3028.95
406.98	3086.29
407.18	3114.96
407.39	3579.85
407.60	3026.90
407.80	3110.86
408.01	3229.65
408.22	3413.96
408.43	2957.27
408.63	3110.86
408.84	3477.45
409.05	3416.01
409.25	2969.55
409.46	3096.53
409.67	3237.84
409.88	3141.58
410.08	3061.71
410.29	2920.40
410.50	3481.55
410.70	3418.06
410.91	3008.47
411.12	3098.58
411.32	3295.18
411.53	3143.63
411.74	3043.28
411.95	3139.54
412.15	3383.24
412.36	3418.06
412.57	3241.93
412.77	3221.45
412.98	3178.45
413.19	3180.50
413.39	3090.38
413.60	3065.81
413.81	3534.79
414.01	3104.72
414.22	3018.71
414.43	3207.12
414.63	3137.49
414.84	3477.45
415.05	3028.95
415.25	2899.92
415.46	3413.96
415.67	3190.74
415.87	3024.85
416.08	3020.75
416.29	3190.74
416.49	3336.14
416.70	3076.05
416.91	3098.58
417.11	3340.24
417.32	3567.56
417.53	3123.15
417.73	3157.97
417.94	3262.41
418.15	3360.72
418.35	3104.72
418.56	3069.91
418.77	3798.98
418.97	3305.42
419.18	3194.83
419.38	2805.72
419.59	3260.37
419.80	3532.75
420.00	2906.07
420.21	2992.08
420.42	3477.45
420.62	3356.62
420.83	3057.62
421.04	3082.19
421.24	3315.66
421.45	3395.53
421.65	3090.38
421.86	2985.94
422.07	3526.60
422.27	3364.81
422.48	2985.94
422.69	2904.02
422.89	3254.22
423.10	3235.79
423.30	3033.04
423.51	3065.81
423.72	3305.42
423.92	3366.86
424.13	2885.59
424.33	3065.81
424.54	3416.01
424.75	3321.81
424.95	3280.85
425.16	3020.75
425.36	3190.74
425.57	3504.07
425.78	3211.22
425.98	3121.10
426.19	3194.83
426.39	3098.58
426.60	3074.00
426.81	3182.54
427.01	3403.72
427.22	3080.14
427.42	2906.07
427.63	3057.62
427.83	3469.26
428.04	3729.35
428.25	3051.47
428.45	3205.07
428.66	3540.94
428.86	3188.69
429.07	3090.38
429.28	3026.90
429.48	3213.26
429.69	3188.69
429.89	3127.25
430.10	2977.75
430.30	3450.83
430.51	3407.82
430.71	2959.31
430.92	3086.29
431.13	3153.87
431.33	3301.33
431.54	3215.31
431.74	3262.41
431.95	3694.54
432.15	3063.76
432.36	2955.22
432.56	3139.54
432.77	3669.96
432.98	3637.19
433.18	3176.40
433.39	2887.64
433.59	3270.61
433.80	3749.83
434.00	3246.03
434.21	3086.29
434.41	3145.68
434.62	3696.58
434.82	2901.97
435.03	3053.52
435.23	3401.68
435.44	3057.62
435.64	2961.36
435.85	3114.96
436.06	3434.44
436.26	3473.36
436.47	3063.76
436.67	2998.23
436.88	3192.78
437.08	3450.83
437.29	3168.21
437.49	3207.12
437.70	3528.65
437.90	3309.52
438.11	3307.47
438.31	3094.48
438.52	3522.51
438.72	3456.97
438.93	3346.38
439.13	3227.60
439.34	3514.31
439.54	3192.78
439.75	3184.59
439.95	3135.44
440.16	3178.45
440.36	3317.71
440.57	3071.95
440.77	3094.48
440.98	3307.47
441.18	3430.35
441.39	2985.94
441.59	2840.53
441.80	3649.48
442.00	3319.76
442.21	3178.45
442.41	2899.92
442.62	3540.94
442.82	3127.25
443.02	3059.67
443.23	3114.96
443.43	3233.74
443.64	3454.92
443.84	2953.17
444.05	3133.39
444.25	3309.52
444.46	3254.22
444.66	3037.14
444.87	3305.42
445.07	2963.41
445.28	3229.65
445.48	3268.56
445.69	3117.01
445.89	3819.46
446.09	3207.12
446.30	3330.00
446.50	3434.44
446.71	5023.67
446.91	6270.88
447.12	7180.18
447.32	7622.54
447.53	7649.16
447.73	6418.33
447.93	5552.04
448.14	5285.81
448.34	5558.19
448.55	4544.44
448.75	4499.39
448.96	4302.78
449.16	4095.94
449.36	3938.24
449.57	3409.87
449.77	3117.01
449.98	3330.00
450.18	3426.25
450.39	2936.79
450.59	3258.32
450.79	3284.94
451.00	3139.54
451.20	3246.03
451.41	3112.91
451.61	3405.77
451.81	3274.70
452.02	3033.04
452.22	3063.76
452.43	3239.89
