SpectraSuite Data File
++++++++++++++++++++++++++++++++++++
Date: Fri May 06 08:14:26 CEST 2016
User: root
Dark Spectrum Present: No
Reference Spectrum Present: No
Number of Sampled Component Spectra: 1
Spectrometers: USB4C02835
Integration Time (usec): 100000 (USB4C02835)
Spectra Averaged: 1 (USB4C02835)
Boxcar Smoothing: 0 (USB4C02835)
Correct for Electrical Dark: No (USB4C02835)
Strobe/Lamp Enabled: No (USB4C02835)
Correct for Detector Non-linearity: No (USB4C02835)
Correct for Stray Light: No (USB4C02835)
Number of Pixels in Processed Spectrum: 3648
>>>>>Begin Processed Spectral Data<<<<<
177.47	2236.38
177.69	2236.38
177.91	2236.38
178.13	2267.10
178.36	2265.05
178.58	3008.47
178.80	3129.30
179.02	2957.27
179.24	3067.86
179.46	2785.24
179.68	2867.16
179.90	3237.84
180.13	3256.27
180.35	2652.12
180.57	2861.01
180.79	3401.68
181.01	3299.28
181.23	2955.22
181.45	2932.69
181.67	3442.64
181.90	3450.83
182.12	2961.36
182.34	2705.37
182.56	3383.24
182.78	3321.81
183.00	2791.38
183.22	2918.36
183.44	2883.54
183.66	3864.52
183.89	2949.08
184.11	2899.92
184.33	3434.44
184.55	3622.86
184.77	2801.62
184.99	2928.60
185.21	3151.82
185.43	3796.93
185.65	2854.87
185.87	2854.87
186.10	3753.93
186.32	3712.97
186.54	2967.51
186.76	2930.64
186.98	3567.56
187.20	3231.69
187.42	2820.05
187.64	2867.16
187.86	3383.24
188.08	3499.98
188.30	2752.47
188.52	2881.49
188.75	3545.03
188.97	3545.03
189.19	2830.29
189.41	2844.63
189.63	3409.87
189.85	3192.78
190.07	2709.46
190.29	2734.04
190.51	3368.91
190.73	3004.37
190.95	3053.52
191.17	2918.36
191.39	2967.51
191.61	3225.55
191.84	2906.07
192.06	3049.43
192.28	2992.08
192.50	3872.71
192.72	2938.84
192.94	2977.75
193.16	3518.41
193.38	3428.30
193.60	2803.67
193.82	3078.10
194.04	3526.60
194.26	3348.43
194.48	2897.88
194.70	2824.15
194.92	3200.98
195.14	3385.29
195.36	2766.81
195.58	2889.68
195.80	3241.93
196.02	3139.54
196.24	2809.81
196.46	3000.27
196.69	3203.02
196.91	3760.07
197.13	3016.66
197.35	2910.16
197.57	3631.05
197.79	3436.49
198.01	2926.55
198.23	2957.27
198.45	3383.24
198.67	3051.47
198.89	2779.09
199.11	2963.41
199.33	3180.50
199.55	2856.92
199.77	2779.09
199.99	3049.43
200.21	3180.50
200.43	3409.87
200.65	2721.75
200.87	2650.07
201.09	3270.61
201.31	3147.73
201.53	2891.73
201.75	2973.65
201.97	3284.94
202.19	3309.52
202.41	2922.45
202.63	2987.99
202.85	3383.24
203.07	3428.30
203.29	2885.59
203.51	2688.98
203.73	3151.82
203.95	3880.90
204.17	2766.81
204.39	3012.56
204.61	3180.50
204.83	3250.13
205.05	3028.95
205.27	2828.24
205.49	3803.08
205.71	3338.19
205.93	2731.99
206.15	2779.09
206.37	3336.14
206.59	3229.65
206.81	2713.56
207.03	2725.85
207.25	3092.43
207.47	3418.06
207.69	2922.45
207.91	3098.58
208.13	3604.42
208.34	3065.81
208.56	2805.72
208.78	2889.68
209.00	3239.89
209.22	3209.17
209.44	2779.09
209.66	2811.86
209.88	3319.76
210.10	3213.26
210.32	2783.19
210.54	2983.89
210.76	3221.45
210.98	3504.07
211.20	2715.61
211.42	2977.75
211.64	3532.75
211.86	3473.36
212.08	2955.22
212.30	2885.59
212.52	3215.31
212.74	3381.20
212.96	2932.69
213.17	3020.75
213.39	3499.98
213.61	3710.92
213.83	2842.58
214.05	2754.52
214.27	3440.59
214.49	3076.05
214.71	2869.20
214.93	2949.08
215.15	3284.94
215.37	3397.58
215.59	2725.85
215.81	2914.26
216.03	3557.32
216.24	3334.09
216.46	2838.48
216.68	2906.07
216.90	3420.11
217.12	3471.31
217.34	2766.81
217.56	3071.95
217.78	3645.38
218.00	3332.05
218.22	2983.89
218.44	2951.12
218.66	3358.67
218.87	3717.06
219.09	2805.72
219.31	2867.16
219.53	3313.61
219.75	3180.50
219.97	2889.68
220.19	2891.73
220.41	3299.28
220.63	3530.70
220.85	2863.06
221.06	2887.64
221.28	3520.46
221.50	3397.58
221.72	2807.77
221.94	2813.91
222.16	3291.09
222.38	3469.26
222.60	2844.63
222.82	2942.93
223.03	3540.94
223.25	3096.53
223.47	2758.61
223.69	3092.43
223.91	3401.68
224.13	3336.14
224.35	2754.52
224.57	3037.14
224.78	3436.49
225.00	3106.77
225.22	2910.16
225.44	2795.48
225.66	3516.36
225.88	3172.30
226.10	3018.71
226.32	2746.33
226.53	3422.16
226.75	3180.50
226.97	2895.83
227.19	2813.91
227.41	3131.34
227.63	3108.82
227.85	2729.94
228.06	2879.44
228.28	3211.22
228.50	3459.02
228.72	2711.51
228.94	2854.87
229.16	2863.06
229.37	3074.00
229.59	2766.81
229.81	3076.05
230.03	3190.74
230.25	3049.43
230.47	2680.79
230.69	2901.97
230.90	3487.69
231.12	3213.26
231.34	2916.31
231.56	2920.40
231.78	3000.27
232.00	3303.37
232.21	2883.54
232.43	2879.44
232.65	2820.05
232.87	3356.62
233.09	2764.76
233.30	2858.96
233.52	3567.56
233.74	3192.78
233.96	2867.16
234.18	3123.15
234.40	3313.61
234.61	3672.01
234.83	2803.67
235.05	2809.81
235.27	3735.50
235.49	3465.16
235.70	2795.48
235.92	2924.50
236.14	3428.30
236.36	3798.98
236.58	2766.81
236.79	2951.12
237.01	3268.56
237.23	3248.08
237.45	3090.38
237.67	2934.74
237.88	3368.91
238.10	3631.05
238.32	2742.23
238.54	2838.48
238.76	3297.23
238.97	3121.10
239.19	2777.05
239.41	2904.02
239.63	3518.41
239.85	3334.09
240.06	2944.98
240.28	2717.65
240.50	3499.98
240.72	3311.57
240.93	2764.76
241.15	2996.18
241.37	3352.52
241.59	3579.85
241.81	2926.55
242.02	2820.05
242.24	3373.00
242.46	3454.92
242.68	2686.94
242.89	2805.72
243.11	3553.23
243.33	3258.32
243.55	2904.02
243.76	2889.68
243.98	3160.02
244.20	3180.50
244.42	2936.79
244.64	2775.00
244.85	3026.90
245.07	3082.19
245.29	2807.77
245.51	2885.59
245.72	3358.67
245.94	3459.02
246.16	2904.02
246.38	2922.45
246.59	3137.49
246.81	3098.58
247.03	2721.75
247.24	2719.70
247.46	3241.93
247.68	3303.37
247.90	2729.94
248.11	2828.24
248.33	3383.24
248.55	3231.69
248.77	2916.31
248.98	2928.60
249.20	3631.05
249.42	3344.33
249.64	2785.24
249.85	2852.82
250.07	3207.12
250.29	3426.25
250.50	2934.74
250.72	2781.14
250.94	3413.96
251.16	3733.45
251.37	2856.92
251.59	2967.51
251.81	3385.29
252.02	3639.24
252.24	2770.90
252.46	3016.66
252.68	3174.35
252.89	3176.40
253.11	2781.14
253.33	3102.67
253.54	3581.90
253.76	3088.34
253.98	2877.40
254.20	2844.63
254.41	2996.18
254.63	3258.32
254.85	2731.99
255.06	2955.22
255.28	3395.53
255.50	3119.06
255.71	2789.33
255.93	2715.61
256.15	3203.02
256.36	3434.44
256.58	2750.42
256.80	2805.72
257.02	3143.63
257.23	3209.17
257.45	2930.64
257.67	2959.31
257.88	3176.40
258.10	3334.09
258.32	2752.47
258.53	2967.51
258.75	3655.62
258.97	3129.30
259.18	2783.19
259.40	2844.63
259.62	3622.86
259.83	3520.46
260.05	2887.64
260.27	3770.31
260.48	3514.31
260.70	3098.58
260.92	2748.37
261.13	2873.30
261.35	3407.82
261.57	3264.46
261.78	2740.18
262.00	2826.20
262.22	3405.77
262.43	3147.73
262.65	2807.77
262.86	2901.97
263.08	3737.54
263.30	3338.19
263.51	2707.41
263.73	2842.58
263.95	3579.85
264.16	3125.20
264.38	2678.74
264.60	2715.61
264.81	3280.85
265.03	3499.98
265.25	3266.51
265.46	2803.67
265.68	3569.61
265.89	3405.77
266.11	2678.74
266.33	2809.81
266.54	3516.36
266.76	3297.23
266.98	3004.37
267.19	3053.52
267.41	3485.64
267.62	3149.78
267.84	2660.31
268.06	2904.02
268.27	3284.94
268.49	3493.83
268.70	2951.12
268.92	2858.96
269.14	3110.86
269.35	3004.37
269.57	2996.18
269.79	2910.16
270.00	3149.78
270.22	3629.00
270.43	2779.09
270.65	2740.18
270.87	3278.80
271.08	3528.65
271.30	2969.55
271.51	2871.25
271.73	3479.50
271.95	3631.05
272.16	2848.72
272.38	3030.99
272.59	3121.10
272.81	3336.14
273.02	2783.19
273.24	2920.40
273.46	3459.02
273.67	3012.56
273.89	2729.94
274.10	2811.86
274.32	3495.88
274.54	3266.51
274.75	2967.51
274.97	2981.84
275.18	3418.06
275.40	3358.67
275.61	2906.07
275.83	3049.43
276.05	3030.99
276.26	3252.17
276.48	2977.75
276.69	2994.13
276.91	3170.26
277.12	3524.55
277.34	2992.08
277.55	3145.68
277.77	3346.38
277.99	3186.64
278.20	2942.93
278.42	2861.01
278.63	3164.11
278.85	3102.67
279.06	2967.51
279.28	3133.39
279.49	3463.12
279.71	3366.86
279.93	3071.95
280.14	3135.44
280.36	3082.19
280.57	3456.97
280.79	3063.76
281.00	2879.44
281.22	3229.65
281.43	3504.07
281.65	2746.33
281.86	2832.34
282.08	3405.77
282.29	3667.91
282.51	2932.69
282.73	2906.07
282.94	2895.83
283.16	3444.68
283.37	3164.11
283.59	3020.75
283.80	3440.59
284.02	3297.23
284.23	3039.19
284.45	3016.66
284.66	3125.20
284.88	3106.77
285.09	2947.03
285.31	3119.06
285.52	3401.68
285.74	2885.59
285.95	3313.61
286.17	3026.90
286.38	3516.36
286.60	3268.56
286.81	2930.64
287.03	2977.75
287.24	3248.08
287.46	3413.96
287.67	3182.54
287.89	3225.55
288.10	3233.74
288.32	3246.03
288.53	3108.82
288.75	3012.56
288.96	3401.68
289.18	3200.98
289.39	2881.49
289.61	3104.72
289.82	3643.34
290.04	3715.02
290.25	2834.39
290.47	3067.86
290.68	3258.32
290.90	3524.55
291.11	2748.37
291.33	3098.58
291.54	3155.92
291.76	3139.54
291.97	3151.82
292.18	3133.39
292.40	3223.50
292.61	3092.43
292.83	3311.57
293.04	2947.03
293.26	3379.15
293.47	3274.70
293.69	2959.31
293.90	2918.36
294.12	3583.95
294.33	3358.67
294.55	3129.30
294.76	3246.03
294.97	3540.94
295.19	3774.41
295.40	2951.12
295.62	3055.57
295.83	3473.36
296.05	3123.15
296.26	3153.87
296.48	3012.56
296.69	3223.50
296.90	3237.84
297.12	3133.39
297.33	3123.15
297.55	3248.08
297.76	3360.72
297.98	3100.62
298.19	3110.86
298.41	3213.26
298.62	3149.78
298.83	3266.51
299.05	3037.14
299.26	3147.73
299.48	3086.29
299.69	2987.99
299.90	3004.37
300.12	3104.72
300.33	3436.49
300.55	3049.43
300.76	2971.60
300.98	3135.44
301.19	3409.87
301.40	3010.51
301.62	3035.09
301.83	3436.49
302.05	3270.61
302.26	3026.90
302.47	2994.13
302.69	3076.05
302.90	3293.13
303.12	2799.57
303.33	3131.34
303.54	3772.36
303.76	3164.11
303.97	2955.22
304.19	3246.03
304.40	3074.00
304.61	3370.96
304.83	3157.97
305.04	3074.00
305.26	3467.21
305.47	3153.87
305.68	3055.57
305.90	2904.02
306.11	3585.99
306.33	3264.46
306.54	2912.21
306.75	2959.31
306.97	3053.52
307.18	3045.33
307.39	3010.51
307.61	3123.15
307.82	3274.70
308.04	3360.72
308.25	2846.68
308.46	3133.39
308.68	3276.75
308.89	3309.52
309.10	3071.95
309.32	3012.56
309.53	3254.22
309.74	3407.82
309.96	2901.97
310.17	3125.20
310.39	3192.78
310.60	3401.68
310.81	3155.92
311.03	2965.46
311.24	3330.00
311.45	3286.99
311.67	3205.07
311.88	3133.39
312.09	3258.32
312.31	3100.62
312.52	2924.50
312.73	2916.31
312.95	3041.23
313.16	3088.34
313.37	3119.06
313.59	3123.15
313.80	3459.02
314.01	3569.61
314.23	3020.75
314.44	2918.36
314.65	2969.55
314.87	3100.62
315.08	3063.76
315.29	2994.13
315.51	3020.75
315.72	2865.11
315.93	3045.33
316.15	3020.75
316.36	3237.84
316.57	3379.15
316.79	2916.31
317.00	2967.51
317.21	3440.59
317.43	3176.40
317.64	3018.71
317.85	2918.36
318.07	3082.19
318.28	3180.50
318.49	3100.62
318.70	3307.47
318.92	3319.76
319.13	3352.52
319.34	3174.35
319.56	3026.90
319.77	3385.29
319.98	3420.11
320.20	3219.41
320.41	3147.73
320.62	3403.72
320.83	3045.33
321.05	3180.50
321.26	2971.60
321.47	3313.61
321.69	3526.60
321.90	2858.96
322.11	2934.74
322.32	3280.85
322.54	3588.04
322.75	3076.05
322.96	4036.55
323.18	2983.89
323.39	2885.59
323.60	2779.09
323.81	3172.30
324.03	3194.83
324.24	3268.56
324.45	3127.25
324.66	2916.31
324.88	3463.12
325.09	3530.70
325.30	3018.71
325.52	2869.20
325.73	3354.57
325.94	3100.62
326.15	2895.83
326.37	2811.86
326.58	3459.02
326.79	3688.39
327.00	2953.17
327.22	2977.75
327.43	3282.89
327.64	2987.99
327.85	3110.86
328.07	3092.43
328.28	3651.53
328.49	3145.68
328.70	3039.19
328.92	3026.90
329.13	3209.17
329.34	3418.06
329.55	3262.41
329.76	3076.05
329.98	3190.74
330.19	3450.83
330.40	3053.52
330.61	3104.72
330.83	3418.06
331.04	3080.14
331.25	3135.44
331.46	3076.05
331.68	3069.91
331.89	3481.55
332.10	2998.23
332.31	2918.36
332.52	3241.93
332.74	3522.51
332.95	2828.24
333.16	2959.31
333.37	3395.53
333.58	3180.50
333.80	3024.85
334.01	2844.63
334.22	3272.65
334.43	3170.26
334.64	2906.07
334.86	2947.03
335.07	3108.82
335.28	3499.98
335.49	2914.26
335.70	3117.01
335.92	3612.62
336.13	3696.58
336.34	2996.18
336.55	2996.18
336.76	3401.68
336.98	2932.69
337.19	2985.94
337.40	3084.24
337.61	3790.79
337.82	3190.74
338.04	3102.67
338.25	2914.26
338.46	3311.57
338.67	3147.73
338.88	2916.31
339.09	2914.26
339.31	3162.06
339.52	3035.09
339.73	2992.08
339.94	3074.00
340.15	3452.88
340.36	3229.65
340.58	3055.57
340.79	2912.21
341.00	3428.30
341.21	3098.58
341.42	3315.66
341.63	2981.84
341.85	3485.64
342.06	3327.95
342.27	2947.03
342.48	3149.78
342.69	3028.95
342.90	3352.52
343.12	3360.72
343.33	2949.08
343.54	3471.31
343.75	3585.99
343.96	3071.95
344.17	2893.78
344.38	3284.94
344.60	3047.38
344.81	2983.89
345.02	3016.66
345.23	3452.88
345.44	3809.22
345.65	3020.75
345.86	3121.10
346.07	3254.22
346.29	3147.73
346.50	3139.54
346.71	3133.39
346.92	3428.30
347.13	3766.21
347.34	3047.38
347.55	2863.06
347.76	3348.43
347.98	3016.66
348.19	3074.00
348.40	3155.92
348.61	3215.31
348.82	3575.75
349.03	3174.35
349.24	2887.64
349.45	3655.62
349.66	2844.63
349.88	2953.17
350.09	2996.18
350.30	3600.33
350.51	3504.07
350.72	3196.88
350.93	2920.40
351.14	3246.03
351.35	3295.18
351.56	3063.76
351.77	3123.15
351.99	3393.48
352.20	3504.07
352.41	3074.00
352.62	2807.77
352.83	3278.80
353.04	3205.07
353.25	2959.31
353.46	3024.85
353.67	3465.16
353.88	2897.88
354.09	2965.46
354.30	2990.03
354.52	3532.75
354.73	3246.03
354.94	2944.98
355.15	2981.84
355.36	3778.50
355.57	3151.82
355.78	2975.70
355.99	2969.55
356.20	3182.54
356.41	3559.37
356.62	3053.52
356.83	3145.68
357.04	3598.28
357.25	2938.84
357.46	2961.36
357.68	2918.36
357.89	3071.95
358.10	3303.37
358.31	3012.56
358.52	3051.47
358.73	3008.47
358.94	3098.58
359.15	3082.19
359.36	3090.38
359.57	3340.24
359.78	3157.97
359.99	3162.06
360.20	2920.40
360.41	3248.08
360.62	3387.34
360.83	3086.29
361.04	3045.33
361.25	3356.62
361.46	3585.99
361.67	3102.67
361.88	3053.52
362.09	3373.00
362.30	3389.39
362.51	2992.08
362.72	3010.51
362.93	3403.72
363.14	3452.88
363.35	3051.47
363.56	2979.79
363.78	3459.02
363.99	3553.23
364.20	3004.37
364.41	2979.79
364.62	3723.21
364.83	3315.66
365.04	3022.80
365.25	3006.42
365.46	3559.37
365.67	3155.92
365.88	3125.20
366.09	2981.84
366.30	3221.45
366.51	3282.89
366.72	2936.79
366.93	2979.79
367.14	3231.69
367.35	3518.41
367.56	3024.85
367.77	3174.35
367.98	3243.98
368.18	3327.95
368.39	3164.11
368.60	2951.12
368.81	3346.38
369.02	3346.38
369.23	2944.98
369.44	2889.68
369.65	3278.80
369.86	3336.14
370.07	3092.43
370.28	2994.13
370.49	3385.29
370.70	3291.09
370.91	2934.74
371.12	2934.74
371.33	3524.55
371.54	3172.30
371.75	3174.35
371.96	2752.47
372.17	3346.38
372.38	3289.04
372.59	2961.36
372.80	2918.36
373.01	3205.07
373.22	3282.89
373.43	2934.74
373.64	2944.98
373.85	3559.37
374.06	3583.95
374.26	3211.22
374.47	3114.96
374.68	3614.66
374.89	3358.67
375.10	2934.74
375.31	3141.58
375.52	3315.66
375.73	3315.66
375.94	2828.24
376.15	3141.58
376.36	3157.97
376.57	3194.83
376.78	3022.80
376.99	3049.43
377.20	3532.75
377.40	3299.28
377.61	3375.05
377.82	3008.47
378.03	3624.90
378.24	3327.95
378.45	3051.47
378.66	3057.62
378.87	2969.55
379.08	2981.84
379.29	2992.08
379.50	3147.73
379.71	3303.37
379.91	3385.29
380.12	2975.70
380.33	3131.34
380.54	3241.93
380.75	3276.75
380.96	2926.55
381.17	2916.31
381.38	3330.00
381.59	3262.41
381.80	3110.86
382.00	3196.88
382.21	3385.29
382.42	3581.90
382.63	3387.34
382.84	3106.77
383.05	3461.07
383.26	3573.71
383.47	3147.73
383.68	3043.28
383.88	3340.24
384.09	3301.33
384.30	3198.93
384.51	3086.29
384.72	3235.79
384.93	3127.25
385.14	3143.63
385.35	3266.51
385.55	3045.33
385.76	3467.21
385.97	3018.71
386.18	2895.83
386.39	3047.38
386.60	3207.12
386.81	2998.23
387.02	2901.97
387.22	2977.75
387.43	3461.07
387.64	3164.11
387.85	3217.36
388.06	3346.38
388.27	4329.41
388.48	7737.23
388.68	11884.36
388.89	14896.92
389.10	16385.80
389.31	15918.86
389.52	12924.73
389.73	10964.82
389.93	10327.91
390.14	9095.03
390.35	8501.12
390.56	7815.05
390.77	6655.90
390.98	5040.05
391.18	4198.34
391.39	3835.85
391.60	3327.95
391.81	3346.38
392.02	3082.19
392.23	3758.02
392.43	3368.91
392.64	3207.12
392.85	3086.29
393.06	3612.62
393.27	3336.14
393.47	3057.62
393.68	3069.91
393.89	3243.98
394.10	3571.66
394.31	3047.38
394.52	2979.79
394.72	3180.50
394.93	3608.52
395.14	2889.68
395.35	3143.63
395.56	3155.92
395.76	3264.46
395.97	3057.62
396.18	3180.50
396.39	3229.65
396.60	3928.00
396.80	3495.88
397.01	3237.84
397.22	3514.31
397.43	3516.36
397.64	2977.75
397.84	3082.19
398.05	3674.06
398.26	3229.65
398.47	3237.84
398.67	3235.79
398.88	3346.38
399.09	3375.05
399.30	3076.05
399.51	3012.56
399.71	3082.19
399.92	3252.17
400.13	3164.11
400.34	3004.37
400.54	3264.46
400.75	3542.99
400.96	3235.79
401.17	3413.96
401.37	3418.06
401.58	3217.36
401.79	2971.60
402.00	3190.74
402.21	3690.44
402.41	3459.02
402.62	3354.57
402.83	3524.55
403.04	3758.02
403.24	4018.11
403.45	3131.34
403.66	3344.33
403.87	3538.89
404.07	3616.71
404.28	3293.13
404.49	3383.24
404.70	3499.98
404.90	3391.44
405.11	3049.43
405.32	3082.19
405.52	3055.57
405.73	3108.82
405.94	2908.12
406.15	3123.15
406.35	3356.62
406.56	3411.92
406.77	3028.95
406.98	3114.96
407.18	3133.39
407.39	3573.71
407.60	3043.28
407.80	3180.50
408.01	3211.22
408.22	3401.68
408.43	2934.74
408.63	3188.69
408.84	3473.36
409.05	3370.96
409.25	3008.47
409.46	3024.85
409.67	3125.20
409.88	3188.69
410.08	3084.24
410.29	3035.09
410.50	3483.59
410.70	3334.09
410.91	3006.42
411.12	3065.81
411.32	3377.10
411.53	3151.82
411.74	3002.32
411.95	3162.06
412.15	3295.18
412.36	3426.25
412.57	3188.69
412.77	3313.61
412.98	3299.28
413.19	3254.22
413.39	3141.58
413.60	3110.86
413.81	3635.14
414.01	3045.33
414.22	3037.14
414.43	3264.46
414.63	3147.73
414.84	3397.58
415.05	3057.62
415.25	2912.21
415.46	3430.35
415.67	3196.88
415.87	2957.27
416.08	2998.23
416.29	3254.22
416.49	3344.33
416.70	3147.73
416.91	3043.28
417.11	3168.21
417.32	3508.17
417.53	3065.81
417.73	3131.34
417.94	3305.42
418.15	3360.72
418.35	2985.94
418.56	3047.38
418.77	3819.46
418.97	3272.65
419.18	3176.40
419.38	2736.09
419.59	3295.18
419.80	3633.10
420.00	2994.13
420.21	3119.06
420.42	3538.89
420.62	3401.68
420.83	3016.66
421.04	3074.00
421.24	3282.89
421.45	3428.30
421.65	3049.43
421.86	3117.01
422.07	3456.97
422.27	3309.52
422.48	2963.41
422.69	2918.36
422.89	3229.65
423.10	3178.45
423.30	3016.66
423.51	3076.05
423.72	3356.62
423.92	3411.92
424.13	2957.27
424.33	3139.54
424.54	3459.02
424.75	3319.76
424.95	3284.94
425.16	3026.90
425.36	3260.37
425.57	3506.12
425.78	3205.07
425.98	3172.30
426.19	3246.03
426.39	3153.87
426.60	3110.86
426.81	3200.98
427.01	3366.86
427.22	3061.71
427.42	2865.11
427.63	2961.36
427.83	3436.49
428.04	3688.39
428.25	3110.86
428.45	3211.22
428.66	3459.02
428.86	3258.32
429.07	3131.34
429.28	3053.52
429.48	3254.22
429.69	3090.38
429.89	3110.86
430.10	2922.45
430.30	3364.81
430.51	3452.88
430.71	2998.23
430.92	3102.67
431.13	3256.27
431.33	3342.28
431.54	3135.44
431.74	3260.37
431.95	3758.02
432.15	3182.54
432.36	3033.04
432.56	3131.34
432.77	3655.62
432.98	3643.34
433.18	3151.82
433.39	2924.50
433.59	3207.12
433.80	3758.02
434.00	3188.69
434.21	3205.07
434.41	3071.95
434.62	3815.37
434.82	2895.83
435.03	3033.04
435.23	3317.71
435.44	2953.17
435.64	3033.04
435.85	3123.15
436.06	3430.35
436.26	3465.16
436.47	3131.34
436.67	2951.12
436.88	3168.21
437.08	3448.78
437.29	3174.35
437.49	3131.34
437.70	3590.09
437.90	3274.70
438.11	3276.75
438.31	3076.05
438.52	3536.84
438.72	3504.07
438.93	3491.79
439.13	3160.02
439.34	3477.45
439.54	3237.84
439.75	3180.50
439.95	3176.40
440.16	3080.14
440.36	3235.79
440.57	3059.67
440.77	3092.43
440.98	3303.37
441.18	3303.37
441.39	2994.13
441.59	2973.65
441.80	3782.60
442.00	3266.51
442.21	3114.96
442.41	2895.83
442.62	3454.92
442.82	3211.22
443.02	3063.76
443.23	3028.95
443.43	3221.45
443.64	3459.02
443.84	2858.96
444.05	3135.44
444.25	3301.33
444.46	3252.17
444.66	3045.33
444.87	3246.03
445.07	2887.64
445.28	3262.41
445.48	3262.41
445.69	3098.58
445.89	3798.98
446.09	3250.13
446.30	3442.64
446.50	3487.69
446.71	5044.15
446.91	6334.37
447.12	7217.04
447.32	7493.52
447.53	7554.96
447.73	6492.06
447.93	5502.89
448.14	5273.52
448.34	5431.21
448.55	4517.82
448.75	4437.95
448.96	4112.32
449.16	4077.51
449.36	3889.09
449.57	3368.91
449.77	3190.74
449.98	3168.21
450.18	3346.38
450.39	3022.80
450.59	3268.56
450.79	3262.41
451.00	3178.45
451.20	3254.22
451.41	3094.48
451.61	3418.06
451.81	3260.37
452.02	2994.13
452.22	3002.32
452.43	3205.07
