SpectraSuite Data File
++++++++++++++++++++++++++++++++++++
Date: Fri May 06 08:14:07 CEST 2016
User: root
Dark Spectrum Present: No
Reference Spectrum Present: No
Number of Sampled Component Spectra: 1
Spectrometers: USB4C02835
Integration Time (usec): 100000 (USB4C02835)
Spectra Averaged: 1 (USB4C02835)
Boxcar Smoothing: 0 (USB4C02835)
Correct for Electrical Dark: No (USB4C02835)
Strobe/Lamp Enabled: No (USB4C02835)
Correct for Detector Non-linearity: No (USB4C02835)
Correct for Stray Light: No (USB4C02835)
Number of Pixels in Processed Spectrum: 3648
>>>>>Begin Processed Spectral Data<<<<<
177.47	2246.62
177.69	2246.62
177.91	2246.62
178.13	2322.40
178.36	2291.68
178.58	3082.19
178.80	3139.54
179.02	2938.84
179.24	3114.96
179.46	2766.81
179.68	2834.39
179.90	3217.36
180.13	3315.66
180.35	2746.33
180.57	2815.96
180.79	3418.06
181.01	3153.87
181.23	2895.83
181.45	2961.36
181.67	3430.35
181.90	3434.44
182.12	2910.16
182.34	2762.71
182.56	3377.10
182.78	3356.62
183.00	2795.48
183.22	2795.48
183.44	2922.45
183.66	3848.13
183.89	2998.23
184.11	2873.30
184.33	3393.48
184.55	3594.19
184.77	2840.53
184.99	2891.73
185.21	3184.59
185.43	3784.65
185.65	2875.35
185.87	2822.10
186.10	3796.93
186.32	3733.45
186.54	2994.13
186.76	2979.79
186.98	3465.16
187.20	3286.99
187.42	2883.54
187.64	2768.85
187.86	3311.57
188.08	3465.16
188.30	2760.66
188.52	2881.49
188.75	3577.80
188.97	3559.37
189.19	2871.25
189.41	2772.95
189.63	3340.24
189.85	3293.13
190.07	2754.52
190.29	2717.65
190.51	3403.72
190.73	3028.95
190.95	3051.47
191.17	2863.06
191.39	3078.10
191.61	3160.02
191.84	2787.29
192.06	2998.23
192.28	2944.98
192.50	3919.81
192.72	3014.61
192.94	2926.55
193.16	3512.27
193.38	3420.11
193.60	2764.76
193.82	3065.81
194.04	3504.07
194.26	3375.05
194.48	2852.82
194.70	2813.91
194.92	3297.23
195.14	3483.59
195.36	2805.72
195.58	2963.41
195.80	3291.09
196.02	3141.58
196.24	2803.67
196.46	2934.74
196.69	3198.93
196.91	3753.93
197.13	2820.05
197.35	2938.84
197.57	3598.28
197.79	3436.49
198.01	3006.42
198.23	2910.16
198.45	3391.44
198.67	3035.09
198.89	2711.51
199.11	3000.27
199.33	3176.40
199.55	2828.24
199.77	2803.67
199.99	2934.74
200.21	3192.78
200.43	3336.14
200.65	2764.76
200.87	2746.33
201.09	3252.17
201.31	3241.93
201.53	2985.94
201.75	2949.08
201.97	3325.90
202.19	3354.57
202.41	2897.88
202.63	2969.55
202.85	3436.49
203.07	3344.33
203.29	2957.27
203.51	2779.09
203.73	3147.73
203.95	3803.08
204.17	2838.48
204.39	2985.94
204.61	3286.99
204.83	3223.50
205.05	3049.43
205.27	2887.64
205.49	3725.26
205.71	3260.37
205.93	2697.17
206.15	2783.19
206.37	3350.48
206.59	3155.92
206.81	2775.00
207.03	2762.71
207.25	3168.21
207.47	3440.59
207.69	2844.63
207.91	3149.78
208.13	3575.75
208.34	3147.73
208.56	2865.11
208.78	2895.83
209.00	3221.45
209.22	3213.26
209.44	2871.25
209.66	2789.33
209.88	3356.62
210.10	3278.80
210.32	2826.20
210.54	2979.79
210.76	3282.89
210.98	3540.94
211.20	2807.77
211.42	3004.37
211.64	3549.13
211.86	3317.71
212.08	2918.36
212.30	2895.83
212.52	3219.41
212.74	3360.72
212.96	3008.47
213.17	2844.63
213.39	3471.31
213.61	3667.91
213.83	2811.86
214.05	2701.27
214.27	3497.93
214.49	2955.22
214.71	2832.34
214.93	2994.13
215.15	3250.13
215.37	3499.98
215.59	2742.23
215.81	2961.36
216.03	3504.07
216.24	3278.80
216.46	2889.68
216.68	2942.93
216.90	3411.92
217.12	3540.94
217.34	2775.00
217.56	3010.51
217.78	3581.90
218.00	3442.64
218.22	2983.89
218.44	3022.80
218.66	3340.24
218.87	3712.97
219.09	2873.30
219.31	2865.11
219.53	3334.09
219.75	3209.17
219.97	2967.51
220.19	2893.78
220.41	3336.14
220.63	3526.60
220.85	2803.67
221.06	2887.64
221.28	3502.03
221.50	3461.07
221.72	2822.10
221.94	2795.48
222.16	3272.65
222.38	3471.31
222.60	2818.00
222.82	2908.12
223.03	3444.68
223.25	3039.19
223.47	2805.72
223.69	3160.02
223.91	3434.44
224.13	3241.93
224.35	2752.47
224.57	2983.89
224.78	3538.89
225.00	3002.32
225.22	2975.70
225.44	2746.33
225.66	3516.36
225.88	3217.36
226.10	2944.98
226.32	2875.35
226.53	3606.47
226.75	3284.94
226.97	2979.79
227.19	2879.44
227.41	3090.38
227.63	3133.39
227.85	2680.79
228.06	2840.53
228.28	3342.28
228.50	3479.50
228.72	2713.56
228.94	2844.63
229.16	2940.88
229.37	3035.09
229.59	2820.05
229.81	3037.14
230.03	3180.50
230.25	3053.52
230.47	2674.65
230.69	2832.34
230.90	3459.02
231.12	3155.92
231.34	2901.97
231.56	2953.17
231.78	3041.23
232.00	3237.84
232.21	2840.53
232.43	2873.30
232.65	2850.77
232.87	3358.67
233.09	2701.27
233.30	2758.61
233.52	3520.46
233.74	3209.17
233.96	2822.10
234.18	3043.28
234.40	3258.32
234.61	3770.31
234.83	2781.14
235.05	2865.11
235.27	3817.41
235.49	3452.88
235.70	2820.05
235.92	2951.12
236.14	3428.30
236.36	3719.11
236.58	2705.37
236.79	2932.69
237.01	3270.61
237.23	3231.69
237.45	3049.43
237.67	2985.94
237.88	3407.82
238.10	3626.95
238.32	2840.53
238.54	2856.92
238.76	3356.62
238.97	3078.10
239.19	2750.42
239.41	2901.97
239.63	3459.02
239.85	3112.91
240.06	2887.64
240.28	2856.92
240.50	3495.88
240.72	3254.22
240.93	2758.61
241.15	3088.34
241.37	3182.54
241.59	3639.24
241.81	2838.48
242.02	2881.49
242.24	3315.66
242.46	3428.30
242.68	2635.74
242.89	2875.35
243.11	3532.75
243.33	3235.79
243.55	2897.88
243.76	2887.64
243.98	3114.96
244.20	3278.80
244.42	2863.06
244.64	2738.13
244.85	3010.51
245.07	3082.19
245.29	2930.64
245.51	2934.74
245.72	3395.53
245.94	3540.94
246.16	2854.87
246.38	2920.40
246.59	3100.62
246.81	3090.38
247.03	2764.76
247.24	2721.75
247.46	3188.69
247.68	3280.85
247.90	2766.81
248.11	2824.15
248.33	3448.78
248.55	3252.17
248.77	2959.31
248.98	2951.12
249.20	3612.62
249.42	3319.76
249.64	2846.68
249.85	2805.72
250.07	3162.06
250.29	3467.21
250.50	3012.56
250.72	2748.37
250.94	3387.34
251.16	3717.06
251.37	2775.00
251.59	2977.75
251.81	3377.10
252.02	3551.18
252.24	2744.28
252.46	3035.09
252.68	3174.35
252.89	3278.80
253.11	2668.50
253.33	3106.77
253.54	3618.76
253.76	3092.43
253.98	2893.78
254.20	2820.05
254.41	3030.99
254.63	3198.93
254.85	2789.33
255.06	2975.70
255.28	3381.20
255.50	3301.33
255.71	2779.09
255.93	2717.65
256.15	3373.00
256.36	3461.07
256.58	2713.56
256.80	2805.72
257.02	3274.70
257.23	3106.77
257.45	2934.74
257.67	3045.33
257.88	3172.30
258.10	3385.29
258.32	2871.25
258.53	2877.40
258.75	3721.16
258.97	3121.10
259.18	2721.75
259.40	2785.24
259.62	3657.67
259.83	3528.65
260.05	2830.29
260.27	3856.33
260.48	3463.12
260.70	3059.67
260.92	2699.22
261.13	2901.97
261.35	3393.48
261.57	3352.52
261.78	2762.71
262.00	2752.47
262.22	3438.54
262.43	3082.19
262.65	2869.20
262.86	2944.98
263.08	3772.36
263.30	3256.27
263.51	2709.46
263.73	2791.38
263.95	3631.05
264.16	3065.81
264.38	2707.41
264.60	2744.28
264.81	3266.51
265.03	3549.13
265.25	3297.23
265.46	2813.91
265.68	3577.80
265.89	3360.72
266.11	2729.94
266.33	2869.20
266.54	3434.44
266.76	3352.52
266.98	2967.51
267.19	3067.86
267.41	3444.68
267.62	3190.74
267.84	2731.99
268.06	2901.97
268.27	3418.06
268.49	3463.12
268.70	2920.40
268.92	2885.59
269.14	3078.10
269.35	3069.91
269.57	3002.32
269.79	2893.78
270.00	3198.93
270.22	3618.76
270.43	2764.76
270.65	2713.56
270.87	3350.48
271.08	3379.15
271.30	3045.33
271.51	2799.57
271.73	3430.35
271.95	3553.23
272.16	2762.71
272.38	3002.32
272.59	3139.54
272.81	3348.43
273.02	2820.05
273.24	2871.25
273.46	3614.66
273.67	3024.85
273.89	2717.65
274.10	2836.44
274.32	3559.37
274.54	3358.67
274.75	2924.50
274.97	3020.75
275.18	3416.01
275.40	3385.29
275.61	2832.34
275.83	2955.22
276.05	3069.91
276.26	3266.51
276.48	2955.22
276.69	3065.81
276.91	3108.82
277.12	3534.79
277.34	3071.95
277.55	3147.73
277.77	3307.47
277.99	3215.31
278.20	3008.47
278.42	2832.34
278.63	3092.43
278.85	3065.81
279.06	2922.45
279.28	3024.85
279.49	3461.07
279.71	3420.11
279.93	3039.19
280.14	3006.42
280.36	3117.01
280.57	3495.88
280.79	3106.77
281.00	2897.88
281.22	3174.35
281.43	3499.98
281.65	2754.52
281.86	2881.49
282.08	3375.05
282.29	3653.58
282.51	2869.20
282.73	2928.60
282.94	2971.60
283.16	3461.07
283.37	3061.71
283.59	2996.18
283.80	3303.37
284.02	3227.60
284.23	3051.47
284.45	3030.99
284.66	3096.53
284.88	3157.97
285.09	2832.34
285.31	3018.71
285.52	3391.44
285.74	2959.31
285.95	3164.11
286.17	2985.94
286.38	3504.07
286.60	3217.36
286.81	2912.21
287.03	2985.94
287.24	3420.11
287.46	3327.95
287.67	3147.73
287.89	3215.31
288.10	3313.61
288.32	3258.32
288.53	3129.30
288.75	2981.84
288.96	3450.83
289.18	3133.39
289.39	2963.41
289.61	3030.99
289.82	3680.20
290.04	3676.10
290.25	2828.24
290.47	3102.67
290.68	3258.32
290.90	3487.69
291.11	2811.86
291.33	3119.06
291.54	3090.38
291.76	3143.63
291.97	3102.67
292.18	3084.24
292.40	3227.60
292.61	3168.21
292.83	3334.09
293.04	3002.32
293.26	3270.61
293.47	3270.61
293.69	2879.44
293.90	2867.16
294.12	3573.71
294.33	3336.14
294.55	2971.60
294.76	3250.13
294.97	3626.95
295.19	3645.38
295.40	2940.88
295.62	3090.38
295.83	3499.98
296.05	3139.54
296.26	3295.18
296.48	2951.12
296.69	3241.93
296.90	3188.69
297.12	3137.49
297.33	3127.25
297.55	3256.27
297.76	3477.45
297.98	3155.92
298.19	3258.32
298.41	3221.45
298.62	3168.21
298.83	3196.88
299.05	2983.89
299.26	3176.40
299.48	3174.35
299.69	3123.15
299.90	3061.71
300.12	3082.19
300.33	3387.34
300.55	2938.84
300.76	3024.85
300.98	2963.41
301.19	3387.34
301.40	3059.67
301.62	2990.03
301.83	3385.29
302.05	3278.80
302.26	3012.56
302.47	3151.82
302.69	3045.33
302.90	3278.80
303.12	2762.71
303.33	3125.20
303.54	3684.30
303.76	3221.45
303.97	2971.60
304.19	3117.01
304.40	3127.25
304.61	3356.62
304.83	3080.14
305.04	3127.25
305.26	3487.69
305.47	3172.30
305.68	2994.13
305.90	2869.20
306.11	3530.70
306.33	3229.65
306.54	2795.48
306.75	2926.55
306.97	3020.75
307.18	3049.43
307.39	2992.08
307.61	3065.81
307.82	3233.74
308.04	3368.91
308.25	2863.06
308.46	3123.15
308.68	3264.46
308.89	3207.12
309.10	3117.01
309.32	3108.82
309.53	3327.95
309.74	3352.52
309.96	2865.11
310.17	3117.01
310.39	3196.88
310.60	3440.59
310.81	2899.92
311.03	2957.27
311.24	3444.68
311.45	3272.65
311.67	3340.24
311.88	3160.02
312.09	3164.11
312.31	3149.78
312.52	2953.17
312.73	2949.08
312.95	2973.65
313.16	3141.58
313.37	3178.45
313.59	3147.73
313.80	3434.44
314.01	3571.66
314.23	3022.80
314.44	2992.08
314.65	3080.14
314.87	3121.10
315.08	3051.47
315.29	3080.14
315.51	3065.81
315.72	3006.42
315.93	3057.62
316.15	2996.18
316.36	3207.12
316.57	3295.18
316.79	2987.99
317.00	3000.27
317.21	3385.29
317.43	3131.34
317.64	3078.10
317.85	2912.21
318.07	3188.69
318.28	3246.03
318.49	3074.00
318.70	3221.45
318.92	3342.28
319.13	3368.91
319.34	3250.13
319.56	2992.08
319.77	3461.07
319.98	3499.98
320.20	3262.41
320.41	3172.30
320.62	3350.48
320.83	3067.86
321.05	3190.74
321.26	3067.86
321.47	3286.99
321.69	3553.23
321.90	2910.16
322.11	2985.94
322.32	3170.26
322.54	3538.89
322.75	3002.32
322.96	3946.44
323.18	2959.31
323.39	2828.24
323.60	2926.55
323.81	3200.98
324.03	3094.48
324.24	3282.89
324.45	3043.28
324.66	2983.89
324.88	3479.50
325.09	3487.69
325.30	3000.27
325.52	2967.51
325.73	3319.76
325.94	3114.96
326.15	2822.10
326.37	2844.63
326.58	3418.06
326.79	3641.29
327.00	2926.55
327.22	3035.09
327.43	3227.60
327.64	2990.03
327.85	3155.92
328.07	3006.42
328.28	3678.15
328.49	3117.01
328.70	2992.08
328.92	2924.50
329.13	3188.69
329.34	3389.39
329.55	3235.79
329.76	3147.73
329.98	3266.51
330.19	3524.55
330.40	3069.91
330.61	3102.67
330.83	3497.93
331.04	3102.67
331.25	3057.62
331.46	3049.43
331.68	3082.19
331.89	3442.64
332.10	3012.56
332.31	2836.44
332.52	3280.85
332.74	3467.21
332.95	2822.10
333.16	3051.47
333.37	3450.83
333.58	3069.91
333.80	3102.67
334.01	2826.20
334.22	3286.99
334.43	3233.74
334.64	2938.84
334.86	2930.64
335.07	3041.23
335.28	3602.38
335.49	2889.68
335.70	3078.10
335.92	3598.28
336.13	3696.58
336.34	3086.29
336.55	2977.75
336.76	3364.81
336.98	2914.26
337.19	3030.99
337.40	3088.34
337.61	3786.69
337.82	3286.99
338.04	3055.57
338.25	2828.24
338.46	3262.41
338.67	3301.33
338.88	2901.97
339.09	2887.64
339.31	3266.51
339.52	3065.81
339.73	2985.94
339.94	3041.23
340.15	3426.25
340.36	3246.03
340.58	3041.23
340.79	2912.21
341.00	3430.35
341.21	3037.14
341.42	3252.17
341.63	2912.21
341.85	3461.07
342.06	3344.33
342.27	3028.95
342.48	3155.92
342.69	3030.99
342.90	3373.00
343.12	3428.30
343.33	2922.45
343.54	3430.35
343.75	3682.25
343.96	3084.24
344.17	2914.26
344.38	3203.02
344.60	3082.19
344.81	2906.07
345.02	2969.55
345.23	3549.13
345.44	3786.69
345.65	3086.29
345.86	3041.23
346.07	3340.24
346.29	3184.59
346.50	3164.11
346.71	3065.81
346.92	3516.36
347.13	3723.21
347.34	3190.74
347.55	2865.11
347.76	3452.88
347.98	3055.57
348.19	3090.38
348.40	3198.93
348.61	3127.25
348.82	3653.58
349.03	3035.09
349.24	2883.54
349.45	3624.90
349.66	2912.21
349.88	2947.03
350.09	2942.93
350.30	3602.38
350.51	3526.60
350.72	3207.12
350.93	2981.84
351.14	3207.12
351.35	3370.96
351.56	3012.56
351.77	3016.66
351.99	3352.52
352.20	3573.71
352.41	3131.34
352.62	2838.48
352.83	3256.27
353.04	3235.79
353.25	2990.03
353.46	2985.94
353.67	3481.55
353.88	2908.12
354.09	2996.18
354.30	3016.66
354.52	3366.86
354.73	3256.27
354.94	2992.08
355.15	3102.67
355.36	3639.24
355.57	3209.17
355.78	2985.94
355.99	3055.57
356.20	3188.69
356.41	3504.07
356.62	3162.06
356.83	3035.09
357.04	3575.75
357.25	2942.93
357.46	2977.75
357.68	2885.59
357.89	3098.58
358.10	3399.63
358.31	3024.85
358.52	2977.75
358.73	3076.05
358.94	3076.05
359.15	3026.90
359.36	3010.51
359.57	3336.14
359.78	3291.09
359.99	3168.21
360.20	2889.68
360.41	3235.79
360.62	3459.02
360.83	3026.90
361.04	3061.71
361.25	3332.05
361.46	3594.19
361.67	3110.86
361.88	3024.85
362.09	3456.97
362.30	3323.85
362.51	2947.03
362.72	3067.86
362.93	3438.54
363.14	3409.87
363.35	3098.58
363.56	2971.60
363.78	3581.90
363.99	3557.32
364.20	3030.99
364.41	3033.04
364.62	3602.38
364.83	3297.23
365.04	3004.37
365.25	3012.56
365.46	3686.34
365.67	3149.78
365.88	3155.92
366.09	2940.88
366.30	3162.06
366.51	3286.99
366.72	2973.65
366.93	2975.70
367.14	3309.52
367.35	3491.79
367.56	2979.79
367.77	3217.36
367.98	3239.89
368.18	3401.68
368.39	3119.06
368.60	2899.92
368.81	3426.25
369.02	3344.33
369.23	3006.42
369.44	2883.54
369.65	3121.10
369.86	3418.06
370.07	3057.62
370.28	2861.01
370.49	3368.91
370.70	3360.72
370.91	2961.36
371.12	2793.43
371.33	3440.59
371.54	3067.86
371.75	3080.14
371.96	2738.13
372.17	3377.10
372.38	3262.41
372.59	2983.89
372.80	2926.55
373.01	3219.41
373.22	3336.14
373.43	2992.08
373.64	2918.36
373.85	3448.78
374.06	3612.62
374.26	3147.73
374.47	3131.34
374.68	3661.77
374.89	3401.68
375.10	2940.88
375.31	3127.25
375.52	3266.51
375.73	3256.27
375.94	2871.25
376.15	3106.77
376.36	3065.81
376.57	3168.21
376.78	3008.47
376.99	3069.91
377.20	3518.41
377.40	3188.69
377.61	3284.94
377.82	3045.33
378.03	3557.32
378.24	3446.73
378.45	3104.72
378.66	3024.85
378.87	2926.55
379.08	3026.90
379.29	3047.38
379.50	3155.92
379.71	3327.95
379.91	3391.44
380.12	3033.04
380.33	3084.24
380.54	3229.65
380.75	3209.17
380.96	3033.04
381.17	3086.29
381.38	3291.09
381.59	3360.72
381.80	3059.67
382.00	3192.78
382.21	3330.00
382.42	3559.37
382.63	3459.02
382.84	3209.17
383.05	3438.54
383.26	3522.51
383.47	3205.07
383.68	3014.61
383.88	3350.48
384.09	3399.63
384.30	3215.31
384.51	3110.86
384.72	3186.64
384.93	3026.90
385.14	3137.49
385.35	3254.22
385.55	3043.28
385.76	3522.51
385.97	2963.41
386.18	2873.30
386.39	3071.95
386.60	3157.97
386.81	2992.08
387.02	2938.84
387.22	3026.90
387.43	3381.20
387.64	3160.02
387.85	3237.84
388.06	3360.72
388.27	4386.75
388.48	7862.15
388.68	11974.47
388.89	15138.58
389.10	16451.33
389.31	16283.40
389.52	12994.36
389.73	11198.29
389.93	10276.71
390.14	9179.00
390.35	8660.86
390.56	7948.17
390.77	6541.21
390.98	4976.56
391.18	4179.90
391.39	3930.05
391.60	3325.90
391.81	3299.28
392.02	3041.23
392.23	3676.10
392.43	3338.19
392.64	3241.93
392.85	3166.16
393.06	3557.32
393.27	3266.51
393.47	2983.89
393.68	3090.38
393.89	3223.50
394.10	3536.84
394.31	3080.14
394.52	2944.98
394.72	3131.34
394.93	3512.27
395.14	2940.88
395.35	3051.47
395.56	3170.26
395.76	3256.27
395.97	2996.18
396.18	3213.26
396.39	3241.93
396.60	3954.63
396.80	3418.06
397.01	3338.19
397.22	3502.03
397.43	3506.12
397.64	3041.23
397.84	3160.02
398.05	3692.49
398.26	3262.41
398.47	3149.78
398.67	3196.88
398.88	3256.27
399.09	3459.02
399.30	3016.66
399.51	3098.58
399.71	3102.67
399.92	3237.84
400.13	3121.10
400.34	2947.03
400.54	3293.13
400.75	3551.18
400.96	3182.54
401.17	3327.95
401.37	3356.62
401.58	3299.28
401.79	2983.89
402.00	3110.86
402.21	3782.60
402.41	3563.47
402.62	3434.44
402.83	3477.45
403.04	3741.64
403.24	4093.89
403.45	3293.13
403.66	3323.85
403.87	3561.42
404.07	3667.91
404.28	3321.81
404.49	3422.16
404.70	3463.12
404.90	3459.02
405.11	3008.47
405.32	3155.92
405.52	3205.07
405.73	3221.45
405.94	2938.84
406.15	3086.29
406.35	3362.76
406.56	3426.25
406.77	3090.38
406.98	3000.27
407.18	3108.82
407.39	3598.28
407.60	3082.19
407.80	3084.24
408.01	3186.64
408.22	3354.57
408.43	2959.31
408.63	3164.11
408.84	3442.64
409.05	3416.01
409.25	2936.79
409.46	3082.19
409.67	3221.45
409.88	3110.86
410.08	3045.33
410.29	3022.80
410.50	3520.46
410.70	3354.57
410.91	2918.36
411.12	3121.10
411.32	3389.39
411.53	3074.00
411.74	3010.51
411.95	3098.58
412.15	3289.04
412.36	3483.59
412.57	3250.13
412.77	3303.37
412.98	3250.13
413.19	3200.98
413.39	3133.39
413.60	3024.85
413.81	3633.10
414.01	3000.27
414.22	3028.95
414.43	3178.45
414.63	3207.12
414.84	3391.44
415.05	3018.71
415.25	2875.35
415.46	3487.69
415.67	3164.11
415.87	3051.47
416.08	3123.15
416.29	3170.26
416.49	3397.58
416.70	3141.58
416.91	3008.47
417.11	3215.31
417.32	3504.07
417.53	3096.53
417.73	3033.04
417.94	3233.74
418.15	3315.66
418.35	3041.23
418.56	3157.97
418.77	3782.60
418.97	3274.70
419.18	3147.73
419.38	2801.62
419.59	3254.22
419.80	3581.90
420.00	2942.93
420.21	3106.77
420.42	3553.23
420.62	3334.09
420.83	3016.66
421.04	3041.23
421.24	3276.75
421.45	3432.40
421.65	3117.01
421.86	3076.05
422.07	3485.64
422.27	3389.39
422.48	2963.41
422.69	2920.40
422.89	3229.65
423.10	3219.41
423.30	3082.19
423.51	3149.78
423.72	3315.66
423.92	3436.49
424.13	2947.03
424.33	3022.80
424.54	3450.83
424.75	3321.81
424.95	3307.47
425.16	3028.95
425.36	3299.28
425.57	3405.77
425.78	3147.73
425.98	3184.59
426.19	3262.41
426.39	3069.91
426.60	3139.54
426.81	3133.39
427.01	3297.23
427.22	3078.10
427.42	2824.15
427.63	2985.94
427.83	3381.20
428.04	3594.19
428.25	3051.47
428.45	3170.26
428.66	3551.18
428.86	3286.99
429.07	3129.30
429.28	3096.53
429.48	3164.11
429.69	3164.11
429.89	3141.58
430.10	2942.93
430.30	3373.00
430.51	3512.27
430.71	2965.46
430.92	3119.06
431.13	3110.86
431.33	3327.95
431.54	3117.01
431.74	3295.18
431.95	3786.69
432.15	3078.10
432.36	2951.12
432.56	3149.78
432.77	3747.78
432.98	3667.91
433.18	3125.20
433.39	2924.50
433.59	3321.81
433.80	3805.13
434.00	3190.74
434.21	3135.44
434.41	3074.00
434.62	3764.17
434.82	2906.07
435.03	3018.71
435.23	3495.88
435.44	2987.99
435.64	2992.08
435.85	3090.38
436.06	3467.21
436.26	3495.88
436.47	3045.33
436.67	3000.27
436.88	3227.60
437.08	3534.79
437.29	3270.61
437.49	3246.03
437.70	3495.88
437.90	3252.17
438.11	3299.28
438.31	3168.21
438.52	3629.00
438.72	3516.36
438.93	3454.92
439.13	3217.36
439.34	3590.09
439.54	3213.26
439.75	3141.58
439.95	3164.11
440.16	3117.01
440.36	3223.50
440.57	2990.03
440.77	3065.81
440.98	3231.69
441.18	3413.96
441.39	2947.03
441.59	3020.75
441.80	3678.15
442.00	3344.33
442.21	3076.05
442.41	2910.16
442.62	3420.11
442.82	3055.57
443.02	3008.47
443.23	3065.81
443.43	3231.69
443.64	3549.13
443.84	3010.51
444.05	3241.93
444.25	3385.29
444.46	3170.26
444.66	3035.09
444.87	3289.04
445.07	2996.18
445.28	3200.98
445.48	3174.35
445.69	3039.19
445.89	3833.80
446.09	3207.12
446.30	3299.28
446.50	3434.44
446.71	5132.21
446.91	6287.26
447.12	7153.55
447.32	7536.52
447.53	7557.00
447.73	6459.29
447.93	5443.50
448.14	5330.86
448.34	5439.40
448.55	4523.96
448.75	4536.25
448.96	4278.21
449.16	4102.08
449.36	3911.62
449.57	3397.58
449.77	3074.00
449.98	3203.02
450.18	3321.81
450.39	2994.13
450.59	3235.79
450.79	3194.83
451.00	3149.78
451.20	3284.94
451.41	3088.34
451.61	3358.67
451.81	3278.80
452.02	3000.27
452.22	3086.29
452.43	3168.21
