SpectraSuite Data File
++++++++++++++++++++++++++++++++++++
Date: Fri May 06 08:14:08 CEST 2016
User: root
Dark Spectrum Present: No
Reference Spectrum Present: No
Number of Sampled Component Spectra: 1
Spectrometers: USB4C02835
Integration Time (usec): 100000 (USB4C02835)
Spectra Averaged: 1 (USB4C02835)
Boxcar Smoothing: 0 (USB4C02835)
Correct for Electrical Dark: No (USB4C02835)
Strobe/Lamp Enabled: No (USB4C02835)
Correct for Detector Non-linearity: No (USB4C02835)
Correct for Stray Light: No (USB4C02835)
Number of Pixels in Processed Spectrum: 3648
>>>>>Begin Processed Spectral Data<<<<<
177.47	2303.96
177.69	2303.96
177.91	2303.96
178.13	2240.48
178.36	2283.49
178.58	3033.04
178.80	3082.19
179.02	3000.27
179.24	3074.00
179.46	2766.81
179.68	2840.53
179.90	3297.23
180.13	3297.23
180.35	2643.93
180.57	2813.91
180.79	3413.96
181.01	3297.23
181.23	2912.21
181.45	2949.08
181.67	3395.53
181.90	3469.26
182.12	2936.79
182.34	2742.23
182.56	3362.76
182.78	3336.14
183.00	2871.25
183.22	2910.16
183.44	2961.36
183.66	3841.99
183.89	2920.40
184.11	2809.81
184.33	3456.97
184.55	3524.55
184.77	2787.29
184.99	2875.35
185.21	3198.93
185.43	3747.78
185.65	2928.60
185.87	2850.77
186.10	3778.50
186.32	3792.84
186.54	2998.23
186.76	2947.03
186.98	3440.59
187.20	3260.37
187.42	2967.51
187.64	2863.06
187.86	3373.00
188.08	3473.36
188.30	2748.37
188.52	2893.78
188.75	3545.03
188.97	3520.46
189.19	2844.63
189.41	2861.01
189.63	3387.34
189.85	3176.40
190.07	2795.48
190.29	2775.00
190.51	3286.99
190.73	3092.43
190.95	3035.09
191.17	2934.74
191.39	2934.74
191.61	3139.54
191.84	2815.96
192.06	3010.51
192.28	3018.71
192.50	3907.52
192.72	3035.09
192.94	2895.83
193.16	3538.89
193.38	3401.68
193.60	2760.66
193.82	3026.90
194.04	3424.20
194.26	3368.91
194.48	2922.45
194.70	2856.92
194.92	3274.70
195.14	3440.59
195.36	2840.53
195.58	2918.36
195.80	3276.75
196.02	3153.87
196.24	2830.29
196.46	2967.51
196.69	3190.74
196.91	3778.50
197.13	2951.12
197.35	2891.73
197.57	3672.01
197.79	3389.39
198.01	2895.83
198.23	2863.06
198.45	3332.05
198.67	3135.44
198.89	2768.85
199.11	2981.84
199.33	3155.92
199.55	2891.73
199.77	2762.71
199.99	3065.81
200.21	3225.55
200.43	3286.99
200.65	2693.08
200.87	2719.70
201.09	3282.89
201.31	3256.27
201.53	2840.53
201.75	2895.83
201.97	3395.53
202.19	3332.05
202.41	2918.36
202.63	2936.79
202.85	3405.77
203.07	3336.14
203.29	2959.31
203.51	2793.43
203.73	3233.74
203.95	3952.58
204.17	2910.16
204.39	3026.90
204.61	3307.47
204.83	3166.16
205.05	3018.71
205.27	2844.63
205.49	3657.67
205.71	3256.27
205.93	2666.46
206.15	2764.76
206.37	3262.41
206.59	3235.79
206.81	2734.04
207.03	2697.17
207.25	3166.16
207.47	3434.44
207.69	2863.06
207.91	3076.05
208.13	3663.82
208.34	3149.78
208.56	2791.38
208.78	2910.16
209.00	3186.64
209.22	3241.93
209.44	2893.78
209.66	2803.67
209.88	3276.75
210.10	3207.12
210.32	2875.35
210.54	2957.27
210.76	3291.09
210.98	3495.88
211.20	2713.56
211.42	2967.51
211.64	3504.07
211.86	3379.15
212.08	2867.16
212.30	2904.02
212.52	3241.93
212.74	3364.81
212.96	2942.93
213.17	2914.26
213.39	3360.72
213.61	3633.10
213.83	2822.10
214.05	2805.72
214.27	3479.50
214.49	3096.53
214.71	2856.92
214.93	2887.64
215.15	3311.57
215.37	3364.81
215.59	2693.08
215.81	2854.87
216.03	3573.71
216.24	3364.81
216.46	2887.64
216.68	2967.51
216.90	3450.83
217.12	3467.21
217.34	2906.07
217.56	3076.05
217.78	3594.19
218.00	3434.44
218.22	2875.35
218.44	3026.90
218.66	3321.81
218.87	3655.62
219.09	2922.45
219.31	2871.25
219.53	3483.59
219.75	3166.16
219.97	2932.69
220.19	2891.73
220.41	3338.19
220.63	3524.55
220.85	2865.11
221.06	2938.84
221.28	3577.80
221.50	3364.81
221.72	2828.24
221.94	2740.18
222.16	3270.61
222.38	3430.35
222.60	2795.48
222.82	2887.64
223.03	3508.17
223.25	3010.51
223.47	2848.72
223.69	3047.38
223.91	3479.50
224.13	3289.04
224.35	2746.33
224.57	3004.37
224.78	3342.28
225.00	3067.86
225.22	2906.07
225.44	2731.99
225.66	3422.16
225.88	3293.13
226.10	2959.31
226.32	2871.25
226.53	3583.95
226.75	3196.88
226.97	2975.70
227.19	2832.34
227.41	3172.30
227.63	3190.74
227.85	2699.22
228.06	2949.08
228.28	3268.56
228.50	3479.50
228.72	2680.79
228.94	2869.20
229.16	2928.60
229.37	3094.48
229.59	2764.76
229.81	3141.58
230.03	3286.99
230.25	3026.90
230.47	2658.26
230.69	2842.58
230.90	3473.36
231.12	3057.62
231.34	3000.27
231.56	2916.31
231.78	3043.28
232.00	3262.41
232.21	2934.74
232.43	2914.26
232.65	2770.90
232.87	3379.15
233.09	2731.99
233.30	2846.68
233.52	3516.36
233.74	3225.55
233.96	2863.06
234.18	3094.48
234.40	3286.99
234.61	3833.80
234.83	2740.18
235.05	2861.01
235.27	3911.62
235.49	3487.69
235.70	2760.66
235.92	2918.36
236.14	3442.64
236.36	3798.98
236.58	2746.33
236.79	2936.79
237.01	3221.45
237.23	3286.99
237.45	3063.76
237.67	2881.49
237.88	3463.12
238.10	3657.67
238.32	2742.23
238.54	2717.65
238.76	3252.17
238.97	3082.19
239.19	2762.71
239.41	2926.55
239.63	3489.74
239.85	3184.59
240.06	2938.84
240.28	2916.31
240.50	3491.79
240.72	3309.52
240.93	2766.81
241.15	3010.51
241.37	3295.18
241.59	3499.98
241.81	2826.20
242.02	3078.10
242.24	3366.86
242.46	3432.40
242.68	2666.46
242.89	2775.00
243.11	3422.16
243.33	3256.27
243.55	2901.97
243.76	2875.35
243.98	3166.16
244.20	3286.99
244.42	2822.10
244.64	2871.25
244.85	3045.33
245.07	3100.62
245.29	2832.34
245.51	2893.78
245.72	3274.70
245.94	3473.36
246.16	2840.53
246.38	2869.20
246.59	3112.91
246.81	3157.97
247.03	2713.56
247.24	2740.18
247.46	3160.02
247.68	3258.32
247.90	2836.44
248.11	2881.49
248.33	3459.02
248.55	3332.05
248.77	2893.78
248.98	2961.36
249.20	3626.95
249.42	3346.38
249.64	2865.11
249.85	2815.96
250.07	3178.45
250.29	3446.73
250.50	2961.36
250.72	2815.96
250.94	3379.15
251.16	3657.67
251.37	2840.53
251.59	2863.06
251.81	3395.53
252.02	3590.09
252.24	2772.95
252.46	2947.03
252.68	3074.00
252.89	3123.15
253.11	2705.37
253.33	2932.69
253.54	3575.75
253.76	3012.56
253.98	2762.71
254.20	2848.72
254.41	3020.75
254.63	3252.17
254.85	2729.94
255.06	2983.89
255.28	3334.09
255.50	3231.69
255.71	2826.20
255.93	2750.42
256.15	3330.00
256.36	3373.00
256.58	2711.51
256.80	2803.67
257.02	3256.27
257.23	3233.74
257.45	2813.91
257.67	3059.67
257.88	3155.92
258.10	3358.67
258.32	2957.27
258.53	2967.51
258.75	3567.56
258.97	3155.92
259.18	2865.11
259.40	2789.33
259.62	3547.08
259.83	3592.14
260.05	2893.78
260.27	3796.93
260.48	3444.68
260.70	3119.06
260.92	2832.34
261.13	2916.31
261.35	3389.39
261.57	3377.10
261.78	2721.75
262.00	2797.53
262.22	3444.68
262.43	3043.28
262.65	2947.03
262.86	2885.59
263.08	3852.23
263.30	3250.13
263.51	2682.84
263.73	2861.01
263.95	3594.19
264.16	3133.39
264.38	2738.13
264.60	2770.90
264.81	3270.61
265.03	3483.59
265.25	3416.01
265.46	2828.24
265.68	3549.13
265.89	3403.72
266.11	2811.86
266.33	2828.24
266.54	3559.37
266.76	3346.38
266.98	2899.92
267.19	3028.95
267.41	3485.64
267.62	3231.69
267.84	2635.74
268.06	2975.70
268.27	3209.17
268.49	3504.07
268.70	2912.21
268.92	2879.44
269.14	3063.76
269.35	3010.51
269.57	3010.51
269.79	2944.98
270.00	3207.12
270.22	3641.29
270.43	2715.61
270.65	2691.03
270.87	3321.81
271.08	3456.97
271.30	2963.41
271.51	2854.87
271.73	3356.62
271.95	3551.18
272.16	2793.43
272.38	2994.13
272.59	3123.15
272.81	3434.44
273.02	2863.06
273.24	2934.74
273.46	3545.03
273.67	2977.75
273.89	2748.37
274.10	2830.29
274.32	3581.90
274.54	3336.14
274.75	2852.82
274.97	2951.12
275.18	3344.33
275.40	3321.81
275.61	2881.49
275.83	3026.90
276.05	3125.20
276.26	3317.71
276.48	2965.46
276.69	3037.14
276.91	3119.06
277.12	3633.10
277.34	3045.33
277.55	3035.09
277.77	3370.96
277.99	3229.65
278.20	3084.24
278.42	2848.72
278.63	3063.76
278.85	3067.86
279.06	3053.52
279.28	3035.09
279.49	3512.27
279.71	3463.12
279.93	3000.27
280.14	3022.80
280.36	3168.21
280.57	3567.56
280.79	3024.85
281.00	2901.97
281.22	3141.58
281.43	3491.79
281.65	2844.63
281.86	2910.16
282.08	3391.44
282.29	3633.10
282.51	2885.59
282.73	2895.83
282.94	2936.79
283.16	3377.10
283.37	3082.19
283.59	3086.29
283.80	3409.87
284.02	3246.03
284.23	3033.04
284.45	3012.56
284.66	3067.86
284.88	3108.82
285.09	2865.11
285.31	2971.60
285.52	3307.47
285.74	2971.60
285.95	3143.63
286.17	3002.32
286.38	3426.25
286.60	3098.58
286.81	2904.02
287.03	2858.96
287.24	3315.66
287.46	3446.73
287.67	3090.38
287.89	3268.56
288.10	3186.64
288.32	3280.85
288.53	3104.72
288.75	3049.43
288.96	3373.00
289.18	3182.54
289.39	2920.40
289.61	3047.38
289.82	3700.68
290.04	3647.43
290.25	2924.50
290.47	3063.76
290.68	3278.80
290.90	3469.26
291.11	2789.33
291.33	3143.63
291.54	3112.91
291.76	3119.06
291.97	3174.35
292.18	3043.28
292.40	3168.21
292.61	3205.07
292.83	3303.37
293.04	2992.08
293.26	3256.27
293.47	3209.17
293.69	2949.08
293.90	2918.36
294.12	3489.74
294.33	3235.79
294.55	3092.43
294.76	3223.50
294.97	3643.34
295.19	3655.62
295.40	3000.27
295.62	3030.99
295.83	3446.73
296.05	3114.96
296.26	3211.22
296.48	2990.03
296.69	3332.05
296.90	3190.74
297.12	3117.01
297.33	3123.15
297.55	3405.77
297.76	3471.31
297.98	3100.62
298.19	3192.78
298.41	3297.23
298.62	3063.76
298.83	3229.65
299.05	3071.95
299.26	3139.54
299.48	3106.77
299.69	3033.04
299.90	2994.13
300.12	3145.68
300.33	3395.53
300.55	3053.52
300.76	3004.37
300.98	3010.51
301.19	3426.25
301.40	2983.89
301.62	3022.80
301.83	3401.68
302.05	3274.70
302.26	2975.70
302.47	2996.18
302.69	2979.79
302.90	3256.27
303.12	2877.40
303.33	3143.63
303.54	3696.58
303.76	3248.08
303.97	2926.55
304.19	3133.39
304.40	3022.80
304.61	3373.00
304.83	3110.86
305.04	3084.24
305.26	3397.58
305.47	3248.08
305.68	3018.71
305.90	2848.72
306.11	3483.59
306.33	3254.22
306.54	2852.82
306.75	2951.12
306.97	3065.81
307.18	3020.75
307.39	3049.43
307.61	3110.86
307.82	3198.93
308.04	3403.72
308.25	2867.16
308.46	3137.49
308.68	3317.71
308.89	3250.13
309.10	3106.77
309.32	3006.42
309.53	3348.43
309.74	3411.92
309.96	2889.68
310.17	3039.19
310.39	3205.07
310.60	3332.05
310.81	3055.57
311.03	2926.55
311.24	3420.11
311.45	3270.61
311.67	3280.85
311.88	3108.82
312.09	3188.69
312.31	3151.82
312.52	2873.30
312.73	2987.99
312.95	3055.57
313.16	3133.39
313.37	3137.49
313.59	3250.13
313.80	3438.54
314.01	3602.38
314.23	3026.90
314.44	2938.84
314.65	3043.28
314.87	3090.38
315.08	2983.89
315.29	2944.98
315.51	3112.91
315.72	3035.09
315.93	3051.47
316.15	3098.58
316.36	3182.54
316.57	3264.46
316.79	2944.98
317.00	2983.89
317.21	3303.37
317.43	3168.21
317.64	3082.19
317.85	2924.50
318.07	3059.67
318.28	3143.63
318.49	3074.00
318.70	3225.55
318.92	3405.77
319.13	3340.24
319.34	3213.26
319.56	3063.76
319.77	3346.38
319.98	3426.25
320.20	3307.47
320.41	3149.78
320.62	3440.59
320.83	3016.66
321.05	3217.36
321.26	3059.67
321.47	3299.28
321.69	3428.30
321.90	2861.01
322.11	2981.84
322.32	3332.05
322.54	3624.90
322.75	3016.66
322.96	4069.31
323.18	3074.00
323.39	2928.60
323.60	2824.15
323.81	3014.61
324.03	3207.12
324.24	3274.70
324.45	3176.40
324.66	2944.98
324.88	3485.64
325.09	3661.77
325.30	2996.18
325.52	2951.12
325.73	3344.33
325.94	3065.81
326.15	2922.45
326.37	2869.20
326.58	3446.73
326.79	3592.14
327.00	2996.18
327.22	2979.79
327.43	3205.07
327.64	3028.95
327.85	3135.44
328.07	3041.23
328.28	3702.73
328.49	3151.82
328.70	3049.43
328.92	3008.47
329.13	3221.45
329.34	3370.96
329.55	3237.84
329.76	3133.39
329.98	3149.78
330.19	3516.36
330.40	3145.68
330.61	3188.69
330.83	3510.22
331.04	3131.34
331.25	3121.10
331.46	3051.47
331.68	3110.86
331.89	3504.07
332.10	3053.52
332.31	2934.74
332.52	3274.70
332.74	3581.90
332.95	2863.06
333.16	3037.14
333.37	3483.59
333.58	3084.24
333.80	2985.94
334.01	2791.38
334.22	3237.84
334.43	3172.30
334.64	2858.96
334.86	2897.88
335.07	3104.72
335.28	3571.66
335.49	2930.64
335.70	3071.95
335.92	3620.81
336.13	3669.96
336.34	3037.14
336.55	2992.08
336.76	3373.00
336.98	2869.20
337.19	2992.08
337.40	3139.54
337.61	3729.35
337.82	3200.98
338.04	3043.28
338.25	2824.15
338.46	3303.37
338.67	3246.03
338.88	2887.64
339.09	2844.63
339.31	3172.30
339.52	3028.95
339.73	2926.55
339.94	3049.43
340.15	3485.64
340.36	3170.26
340.58	3125.20
340.79	2887.64
341.00	3393.48
341.21	3016.66
341.42	3219.41
341.63	2912.21
341.85	3463.12
342.06	3348.43
342.27	2992.08
342.48	3217.36
342.69	3043.28
342.90	3379.15
343.12	3368.91
343.33	2897.88
343.54	3557.32
343.75	3645.38
343.96	3088.34
344.17	2850.77
344.38	3307.47
344.60	3123.15
344.81	2947.03
345.02	2949.08
345.23	3489.74
345.44	3723.21
345.65	3067.86
345.86	3049.43
346.07	3352.52
346.29	3160.02
346.50	3135.44
346.71	3090.38
346.92	3549.13
347.13	3739.59
347.34	3084.24
347.55	2832.34
347.76	3502.03
347.98	2944.98
348.19	3055.57
348.40	3139.54
348.61	3076.05
348.82	3647.43
349.03	3033.04
349.24	2967.51
349.45	3608.52
349.66	2969.55
349.88	2897.88
350.09	2942.93
350.30	3520.46
350.51	3557.32
350.72	3188.69
350.93	2897.88
351.14	3166.16
351.35	3327.95
351.56	3063.76
351.77	3110.86
351.99	3387.34
352.20	3604.42
352.41	3033.04
352.62	2893.78
352.83	3286.99
353.04	3291.09
353.25	3016.66
353.46	3055.57
353.67	3461.07
353.88	2987.99
354.09	2899.92
354.30	3000.27
354.52	3459.02
354.73	3291.09
354.94	2895.83
355.15	3110.86
355.36	3653.58
355.57	3114.96
355.78	2883.54
355.99	2928.60
356.20	3149.78
356.41	3534.79
356.62	3082.19
356.83	3047.38
357.04	3532.75
357.25	3020.75
357.46	2928.60
357.68	2934.74
357.89	3086.29
358.10	3262.41
358.31	3041.23
358.52	3049.43
358.73	3028.95
358.94	3106.77
359.15	3014.61
359.36	3030.99
359.57	3291.09
359.78	3188.69
359.99	3198.93
360.20	2830.29
360.41	3205.07
360.62	3411.92
360.83	3059.67
361.04	3047.38
361.25	3368.91
361.46	3669.96
361.67	3080.14
361.88	3033.04
362.09	3434.44
362.30	3444.68
362.51	2885.59
362.72	3143.63
362.93	3475.40
363.14	3413.96
363.35	3106.77
363.56	2918.36
363.78	3409.87
363.99	3475.40
364.20	3053.52
364.41	3049.43
364.62	3674.06
364.83	3352.52
365.04	3074.00
365.25	2983.89
365.46	3610.57
365.67	3160.02
365.88	3284.94
366.09	2985.94
366.30	3196.88
366.51	3286.99
366.72	2920.40
366.93	3033.04
367.14	3274.70
367.35	3542.99
367.56	2926.55
367.77	3086.29
367.98	3323.85
368.18	3325.90
368.39	3119.06
368.60	2924.50
368.81	3422.16
369.02	3280.85
369.23	3051.47
369.44	2854.87
369.65	3246.03
369.86	3428.30
370.07	3157.97
370.28	2926.55
370.49	3377.10
370.70	3295.18
370.91	2961.36
371.12	2895.83
371.33	3489.74
371.54	3196.88
371.75	3094.48
371.96	2736.09
372.17	3319.76
372.38	3235.79
372.59	2977.75
372.80	2916.31
373.01	3213.26
373.22	3319.76
373.43	2981.84
373.64	2922.45
373.85	3588.04
374.06	3631.05
374.26	3143.63
374.47	3088.34
374.68	3557.32
374.89	3407.82
375.10	3010.51
375.31	3141.58
375.52	3387.34
375.73	3307.47
375.94	2858.96
376.15	3143.63
376.36	3110.86
376.57	3106.77
376.78	3041.23
376.99	3000.27
377.20	3594.19
377.40	3192.78
377.61	3368.91
377.82	2975.70
378.03	3563.47
378.24	3420.11
378.45	3143.63
378.66	3061.71
378.87	2940.88
379.08	2987.99
379.29	2998.23
379.50	3131.34
379.71	3176.40
379.91	3344.33
380.12	2969.55
380.33	3084.24
380.54	3266.51
380.75	3213.26
380.96	2965.46
381.17	3057.62
381.38	3278.80
381.59	3323.85
381.80	3080.14
382.00	3223.50
382.21	3233.74
382.42	3575.75
382.63	3422.16
382.84	3153.87
383.05	3485.64
383.26	3536.84
383.47	3176.40
383.68	2944.98
383.88	3426.25
384.09	3262.41
384.30	3258.32
384.51	3096.53
384.72	3213.26
384.93	2977.75
385.14	3182.54
385.35	3295.18
385.55	3033.04
385.76	3545.03
385.97	3096.53
386.18	2889.68
386.39	3155.92
386.60	3190.74
386.81	3053.52
387.02	2961.36
387.22	2971.60
387.43	3387.34
387.64	3117.01
387.85	3305.42
388.06	3313.61
388.27	4413.37
388.48	7712.65
388.68	12140.36
388.89	15243.03
389.10	16557.83
389.31	16297.74
389.52	12869.44
389.73	11188.05
389.93	10260.32
390.14	9359.22
390.35	8537.98
390.56	7958.41
390.77	6621.08
390.98	4962.23
391.18	4245.44
391.39	3921.86
391.60	3364.81
391.81	3266.51
392.02	3026.90
392.23	3811.27
392.43	3297.23
392.64	3106.77
392.85	3133.39
393.06	3555.27
393.27	3332.05
393.47	2967.51
393.68	3096.53
393.89	3168.21
394.10	3495.88
394.31	3028.95
394.52	2930.64
394.72	3117.01
394.93	3583.95
395.14	2934.74
395.35	3174.35
395.56	3153.87
395.76	3153.87
395.97	3039.19
396.18	3155.92
396.39	3237.84
396.60	3893.19
396.80	3375.05
397.01	3246.03
397.22	3428.30
397.43	3532.75
397.64	2951.12
397.84	3088.34
398.05	3674.06
398.26	3160.02
398.47	3168.21
398.67	3305.42
398.88	3196.88
399.09	3436.49
399.30	2895.83
399.51	3160.02
399.71	3053.52
399.92	3174.35
400.13	3133.39
400.34	3010.51
400.54	3252.17
400.75	3545.03
400.96	3200.98
401.17	3350.48
401.37	3411.92
401.58	3282.89
401.79	3057.62
402.00	3139.54
402.21	3770.31
402.41	3467.21
402.62	3422.16
402.83	3514.31
403.04	3715.02
403.24	4050.88
403.45	3264.46
403.66	3405.77
403.87	3506.12
404.07	3645.38
404.28	3325.90
404.49	3424.20
404.70	3405.77
404.90	3438.54
405.11	3028.95
405.32	3209.17
405.52	3155.92
405.73	3217.36
405.94	2961.36
406.15	3104.72
406.35	3377.10
406.56	3454.92
406.77	3045.33
406.98	3043.28
407.18	3157.97
407.39	3573.71
407.60	3047.38
407.80	3102.67
408.01	3135.44
408.22	3428.30
408.43	2848.72
408.63	3133.39
408.84	3518.41
409.05	3493.83
409.25	3037.14
409.46	3053.52
409.67	3205.07
409.88	3114.96
410.08	3100.62
410.29	3043.28
410.50	3475.40
410.70	3299.28
410.91	2961.36
411.12	3074.00
411.32	3250.13
411.53	3157.97
411.74	3098.58
411.95	3114.96
412.15	3252.17
412.36	3448.78
412.57	3217.36
412.77	3207.12
412.98	3229.65
413.19	3229.65
413.39	3141.58
413.60	3094.48
413.81	3542.99
414.01	3020.75
414.22	3039.19
414.43	3188.69
414.63	3264.46
414.84	3534.79
415.05	3078.10
415.25	2879.44
415.46	3471.31
415.67	3198.93
415.87	3067.86
416.08	3024.85
416.29	3256.27
416.49	3291.09
416.70	3162.06
416.91	3092.43
417.11	3200.98
417.32	3485.64
417.53	3184.59
417.73	3125.20
417.94	3227.60
418.15	3344.33
418.35	3108.82
418.56	3002.32
418.77	3766.21
418.97	3278.80
419.18	3162.06
419.38	2762.71
419.59	3284.94
419.80	3569.61
420.00	2973.65
420.21	3020.75
420.42	3510.22
420.62	3366.86
420.83	2985.94
421.04	2977.75
421.24	3225.55
421.45	3399.63
421.65	3098.58
421.86	3024.85
422.07	3522.51
422.27	3364.81
422.48	3067.86
422.69	2877.40
422.89	3231.69
423.10	3227.60
423.30	3026.90
423.51	3114.96
423.72	3438.54
423.92	3436.49
424.13	2865.11
424.33	3086.29
424.54	3397.58
424.75	3278.80
424.95	3266.51
425.16	3037.14
425.36	3246.03
425.57	3508.17
425.78	3182.54
425.98	3188.69
426.19	3350.48
426.39	3098.58
426.60	3098.58
426.81	3131.34
427.01	3452.88
427.22	3149.78
427.42	2914.26
427.63	2975.70
427.83	3469.26
428.04	3575.75
428.25	3127.25
428.45	3164.11
428.66	3493.83
428.86	3256.27
429.07	3076.05
429.28	3076.05
429.48	3301.33
429.69	3166.16
429.89	3074.00
430.10	2908.12
430.30	3465.16
430.51	3524.55
430.71	3018.71
430.92	3102.67
431.13	3262.41
431.33	3346.38
431.54	3096.53
431.74	3266.51
431.95	3721.16
432.15	3133.39
432.36	3098.58
432.56	3047.38
432.77	3678.15
432.98	3690.44
433.18	3102.67
433.39	2918.36
433.59	3209.17
433.80	3692.49
434.00	3223.50
434.21	3168.21
434.41	3125.20
434.62	3620.81
434.82	2998.23
435.03	2998.23
435.23	3383.24
435.44	2987.99
435.64	3024.85
435.85	3092.43
436.06	3422.16
436.26	3477.45
436.47	3045.33
436.67	2949.08
436.88	3229.65
437.08	3534.79
437.29	3117.01
437.49	3282.89
437.70	3485.64
437.90	3241.93
438.11	3299.28
438.31	3119.06
438.52	3604.42
438.72	3418.06
438.93	3454.92
439.13	3196.88
439.34	3442.64
439.54	3170.26
439.75	3194.83
439.95	3162.06
440.16	3137.49
440.36	3286.99
440.57	3082.19
440.77	3024.85
440.98	3305.42
441.18	3379.15
441.39	2955.22
441.59	2883.54
441.80	3690.44
442.00	3301.33
442.21	3241.93
442.41	2889.68
442.62	3524.55
442.82	3123.15
443.02	3000.27
443.23	3026.90
443.43	3200.98
443.64	3502.03
443.84	2912.21
444.05	3184.59
444.25	3327.95
444.46	3211.22
444.66	3084.24
444.87	3315.66
445.07	3020.75
445.28	3147.73
445.48	3280.85
445.69	3139.54
445.89	3823.56
446.09	3225.55
446.30	3364.81
446.50	3420.11
446.71	5140.40
446.91	6528.92
447.12	7131.03
447.32	7737.23
447.53	7710.60
447.73	6395.81
447.93	5584.81
448.14	5343.15
448.34	5535.66
448.55	4532.15
448.75	4460.48
448.96	4198.34
449.16	4093.89
449.36	3962.82
449.57	3307.47
449.77	3162.06
449.98	3225.55
450.18	3409.87
450.39	2963.41
450.59	3272.65
450.79	3231.69
451.00	3106.77
451.20	3295.18
451.41	3014.61
451.61	3413.96
451.81	3229.65
452.02	2957.27
452.22	3074.00
452.43	3198.93
