SpectraSuite Data File
++++++++++++++++++++++++++++++++++++
Date: Fri May 06 08:14:20 CEST 2016
User: root
Dark Spectrum Present: No
Reference Spectrum Present: No
Number of Sampled Component Spectra: 1
Spectrometers: USB4C02835
Integration Time (usec): 100000 (USB4C02835)
Spectra Averaged: 1 (USB4C02835)
Boxcar Smoothing: 0 (USB4C02835)
Correct for Electrical Dark: No (USB4C02835)
Strobe/Lamp Enabled: No (USB4C02835)
Correct for Detector Non-linearity: No (USB4C02835)
Correct for Stray Light: No (USB4C02835)
Number of Pixels in Processed Spectrum: 3648
>>>>>Begin Processed Spectral Data<<<<<
177.47	2277.34
177.69	2277.34
177.91	2277.34
178.13	2209.76
178.36	2312.16
178.58	3112.91
178.80	3137.49
179.02	2981.84
179.24	3053.52
179.46	2754.52
179.68	2807.77
179.90	3254.22
180.13	3246.03
180.35	2594.78
180.57	2861.01
180.79	3504.07
181.01	3317.71
181.23	2904.02
181.45	3035.09
181.67	3461.07
181.90	3401.68
182.12	2863.06
182.34	2674.65
182.56	3379.15
182.78	3354.57
183.00	2791.38
183.22	2889.68
183.44	2938.84
183.66	3893.19
183.89	3051.47
184.11	2832.34
184.33	3452.88
184.55	3608.52
184.77	2863.06
184.99	2879.44
185.21	3278.80
185.43	3672.01
185.65	2899.92
185.87	2867.16
186.10	3764.17
186.32	3813.32
186.54	3020.75
186.76	3047.38
186.98	3571.66
187.20	3246.03
187.42	2951.12
187.64	2854.87
187.86	3381.20
188.08	3479.50
188.30	2846.68
188.52	2871.25
188.75	3571.66
188.97	3510.22
189.19	2801.62
189.41	2803.67
189.63	3366.86
189.85	3172.30
190.07	2752.47
190.29	2666.46
190.51	3276.75
190.73	2977.75
190.95	3125.20
191.17	2877.40
191.39	2879.44
191.61	3184.59
191.84	2889.68
192.06	3000.27
192.28	3022.80
192.50	3889.09
192.72	3047.38
192.94	2961.36
193.16	3497.93
193.38	3397.58
193.60	2781.14
193.82	3065.81
194.04	3495.88
194.26	3389.39
194.48	2891.73
194.70	2865.11
194.92	3184.59
195.14	3446.73
195.36	2867.16
195.58	2918.36
195.80	3241.93
196.02	3180.50
196.24	2781.14
196.46	3002.32
196.69	3133.39
196.91	3766.21
197.13	2811.86
197.35	2934.74
197.57	3637.19
197.79	3350.48
198.01	2832.34
198.23	2863.06
198.45	3393.48
198.67	3082.19
198.89	2682.84
199.11	2926.55
199.33	3096.53
199.55	2822.10
199.77	2850.77
199.99	2992.08
200.21	3225.55
200.43	3395.53
200.65	2781.14
200.87	2695.13
201.09	3297.23
201.31	3252.17
201.53	2918.36
201.75	2942.93
201.97	3233.74
202.19	3413.96
202.41	2969.55
202.63	2947.03
202.85	3420.11
203.07	3401.68
203.29	2973.65
203.51	2838.48
203.73	3141.58
203.95	3796.93
204.17	2820.05
204.39	2987.99
204.61	3221.45
204.83	3172.30
205.05	2912.21
205.27	2850.77
205.49	3721.16
205.71	3221.45
205.93	2807.77
206.15	2777.05
206.37	3315.66
206.59	3348.43
206.81	2691.03
207.03	2670.55
207.25	3141.58
207.47	3459.02
207.69	2879.44
207.91	3135.44
208.13	3723.21
208.34	3139.54
208.56	2801.62
208.78	2936.79
209.00	3248.08
209.22	3229.65
209.44	2906.07
209.66	2754.52
209.88	3340.24
210.10	3196.88
210.32	2844.63
210.54	3002.32
210.76	3155.92
210.98	3407.82
211.20	2822.10
211.42	2901.97
211.64	3647.43
211.86	3356.62
212.08	2910.16
212.30	2910.16
212.52	3205.07
212.74	3370.96
212.96	3018.71
213.17	2918.36
213.39	3549.13
213.61	3680.20
213.83	2852.82
214.05	2723.80
214.27	3563.47
214.49	3033.04
214.71	2791.38
214.93	2969.55
215.15	3319.76
215.37	3479.50
215.59	2652.12
215.81	2959.31
216.03	3493.83
216.24	3241.93
216.46	2828.24
216.68	2918.36
216.90	3393.48
217.12	3538.89
217.34	2813.91
217.56	3104.72
217.78	3540.94
218.00	3352.52
218.22	2963.41
218.44	2897.88
218.66	3336.14
218.87	3721.16
219.09	2955.22
219.31	2881.49
219.53	3393.48
219.75	3213.26
219.97	2914.26
220.19	2863.06
220.41	3264.46
220.63	3583.95
220.85	2867.16
221.06	2875.35
221.28	3499.98
221.50	3389.39
221.72	2883.54
221.94	2801.62
222.16	3327.95
222.38	3381.20
222.60	2840.53
222.82	2852.82
223.03	3430.35
223.25	3037.14
223.47	2793.43
223.69	3057.62
223.91	3289.04
224.13	3217.36
224.35	2768.85
224.57	3090.38
224.78	3553.23
225.00	3094.48
225.22	2942.93
225.44	2809.81
225.66	3481.55
225.88	3166.16
226.10	3028.95
226.32	2830.29
226.53	3616.71
226.75	3213.26
226.97	2971.60
227.19	2789.33
227.41	3074.00
227.63	3176.40
227.85	2748.37
228.06	2940.88
228.28	3397.58
228.50	3547.08
228.72	2688.98
228.94	2803.67
229.16	2942.93
229.37	3149.78
229.59	2713.56
229.81	3074.00
230.03	3188.69
230.25	3108.82
230.47	2703.32
230.69	2936.79
230.90	3487.69
231.12	3108.82
231.34	2977.75
231.56	2987.99
231.78	3041.23
232.00	3217.36
232.21	2893.78
232.43	2926.55
232.65	2891.73
232.87	3352.52
233.09	2746.33
233.30	2844.63
233.52	3553.23
233.74	3162.06
233.96	2799.57
234.18	3055.57
234.40	3237.84
234.61	3768.26
234.83	2756.57
235.05	2850.77
235.27	3747.78
235.49	3475.40
235.70	2738.13
235.92	2926.55
236.14	3413.96
236.36	3837.89
236.58	2721.75
236.79	2953.17
237.01	3235.79
237.23	3330.00
237.45	3084.24
237.67	2934.74
237.88	3456.97
238.10	3647.43
238.32	2748.37
238.54	2838.48
238.76	3321.81
238.97	3053.52
239.19	2807.77
239.41	2914.26
239.63	3561.42
239.85	3182.54
240.06	2926.55
240.28	2879.44
240.50	3512.27
240.72	3309.52
240.93	2797.53
241.15	2996.18
241.37	3262.41
241.59	3532.75
241.81	2852.82
242.02	3008.47
242.24	3362.76
242.46	3403.72
242.68	2713.56
242.89	2797.53
243.11	3438.54
243.33	3264.46
243.55	2836.44
243.76	2869.20
243.98	3188.69
244.20	3307.47
244.42	2871.25
244.64	2752.47
244.85	3069.91
245.07	3151.82
245.29	2897.88
245.51	2953.17
245.72	3377.10
245.94	3538.89
246.16	2820.05
246.38	2934.74
246.59	3184.59
246.81	3123.15
247.03	2807.77
247.24	2701.27
247.46	3182.54
247.68	3385.29
247.90	2721.75
248.11	2842.58
248.33	3461.07
248.55	3258.32
248.77	2834.39
248.98	2992.08
249.20	3657.67
249.42	3305.42
249.64	2793.43
249.85	2908.12
250.07	3241.93
250.29	3385.29
250.50	2971.60
250.72	2736.09
250.94	3405.77
251.16	3762.12
251.37	2779.09
251.59	2904.02
251.81	3338.19
252.02	3590.09
252.24	2789.33
252.46	3028.95
252.68	3139.54
252.89	3106.77
253.11	2666.46
253.33	3067.86
253.54	3471.31
253.76	3065.81
253.98	2826.20
254.20	2865.11
254.41	3082.19
254.63	3235.79
254.85	2721.75
255.06	3053.52
255.28	3358.67
255.50	3182.54
255.71	2791.38
255.93	2746.33
256.15	3237.84
256.36	3319.76
256.58	2815.96
256.80	2799.57
257.02	3317.71
257.23	3188.69
257.45	2951.12
257.67	3020.75
257.88	3127.25
258.10	3291.09
258.32	2926.55
258.53	3016.66
258.75	3629.00
258.97	3233.74
259.18	2775.00
259.40	2766.81
259.62	3606.47
259.83	3610.57
260.05	2881.49
260.27	3819.46
260.48	3430.35
260.70	3100.62
260.92	2742.23
261.13	2963.41
261.35	3319.76
261.57	3319.76
261.78	2795.48
262.00	2797.53
262.22	3385.29
262.43	3127.25
262.65	2916.31
262.86	2770.90
263.08	3717.06
263.30	3358.67
263.51	2715.61
263.73	2844.63
263.95	3540.94
264.16	3194.83
264.38	2768.85
264.60	2775.00
264.81	3239.89
265.03	3508.17
265.25	3301.33
265.46	2787.29
265.68	3557.32
265.89	3424.20
266.11	2752.47
266.33	2861.01
266.54	3493.83
266.76	3377.10
266.98	2887.64
267.19	3045.33
267.41	3459.02
267.62	3252.17
267.84	2656.22
268.06	2910.16
268.27	3307.47
268.49	3440.59
268.70	2877.40
268.92	2856.92
269.14	3053.52
269.35	3000.27
269.57	2877.40
269.79	2904.02
270.00	3182.54
270.22	3633.10
270.43	2799.57
270.65	2736.09
270.87	3297.23
271.08	3438.54
271.30	2934.74
271.51	2912.21
271.73	3444.68
271.95	3532.75
272.16	2809.81
272.38	3135.44
272.59	3198.93
272.81	3375.05
273.02	2809.81
273.24	2938.84
273.46	3444.68
273.67	3010.51
273.89	2777.05
274.10	2856.92
274.32	3448.78
274.54	3260.37
274.75	2983.89
274.97	2942.93
275.18	3436.49
275.40	3352.52
275.61	2914.26
275.83	3024.85
276.05	3106.77
276.26	3299.28
276.48	2985.94
276.69	2990.03
276.91	3110.86
277.12	3516.36
277.34	3067.86
277.55	3039.19
277.77	3223.50
277.99	3160.02
278.20	3022.80
278.42	2930.64
278.63	3092.43
278.85	3123.15
279.06	2928.60
279.28	3123.15
279.49	3461.07
279.71	3430.35
279.93	3043.28
280.14	2983.89
280.36	3112.91
280.57	3467.21
280.79	3088.34
281.00	2891.73
281.22	3139.54
281.43	3520.46
281.65	2772.95
281.86	2875.35
282.08	3366.86
282.29	3737.54
282.51	2887.64
282.73	2848.72
282.94	2975.70
283.16	3387.34
283.37	3092.43
283.59	2955.22
283.80	3393.48
284.02	3297.23
284.23	3063.76
284.45	3104.72
284.66	3053.52
284.88	3084.24
285.09	2928.60
285.31	3004.37
285.52	3370.96
285.74	2969.55
285.95	3166.16
286.17	3008.47
286.38	3495.88
286.60	3102.67
286.81	2944.98
287.03	3002.32
287.24	3278.80
287.46	3360.72
287.67	3166.16
287.89	3239.89
288.10	3213.26
288.32	3289.04
288.53	3151.82
288.75	3059.67
288.96	3420.11
289.18	3200.98
289.39	2926.55
289.61	3020.75
289.82	3755.97
290.04	3788.74
290.25	2918.36
290.47	3063.76
290.68	3243.98
290.90	3452.88
291.11	2781.14
291.33	3110.86
291.54	3114.96
291.76	3119.06
291.97	3155.92
292.18	3129.30
292.40	3172.30
292.61	3139.54
292.83	3299.28
293.04	2951.12
293.26	3231.69
293.47	3196.88
293.69	2922.45
293.90	2901.97
294.12	3573.71
294.33	3344.33
294.55	2983.89
294.76	3121.10
294.97	3571.66
295.19	3729.35
295.40	3002.32
295.62	3045.33
295.83	3344.33
296.05	3166.16
296.26	3258.32
296.48	2942.93
296.69	3301.33
296.90	3198.93
297.12	3155.92
297.33	3188.69
297.55	3323.85
297.76	3420.11
297.98	3137.49
298.19	3209.17
298.41	3284.94
298.62	3047.38
298.83	3190.74
299.05	3106.77
299.26	3223.50
299.48	3123.15
299.69	3098.58
299.90	2957.27
300.12	3090.38
300.33	3467.21
300.55	3065.81
300.76	2985.94
300.98	3114.96
301.19	3413.96
301.40	3006.42
301.62	2987.99
301.83	3358.67
302.05	3289.04
302.26	2969.55
302.47	3100.62
302.69	3059.67
302.90	3272.65
303.12	2775.00
303.33	3071.95
303.54	3635.14
303.76	3131.34
303.97	2922.45
304.19	3125.20
304.40	3024.85
304.61	3448.78
304.83	3086.29
305.04	3008.47
305.26	3422.16
305.47	3215.31
305.68	3016.66
305.90	2830.29
306.11	3608.52
306.33	3237.84
306.54	2877.40
306.75	3090.38
306.97	3008.47
307.18	3117.01
307.39	2994.13
307.61	3117.01
307.82	3237.84
308.04	3377.10
308.25	2885.59
308.46	3114.96
308.68	3278.80
308.89	3321.81
309.10	3164.11
309.32	3028.95
309.53	3266.51
309.74	3295.18
309.96	2955.22
310.17	3065.81
310.39	3268.56
310.60	3411.92
310.81	3106.77
311.03	2955.22
311.24	3385.29
311.45	3319.76
311.67	3227.60
311.88	3168.21
312.09	3186.64
312.31	3166.16
312.52	2961.36
312.73	3000.27
312.95	3047.38
313.16	3074.00
313.37	3241.93
313.59	3172.30
313.80	3442.64
314.01	3530.70
314.23	3063.76
314.44	2893.78
314.65	3133.39
314.87	3098.58
315.08	2934.74
315.29	3041.23
315.51	3117.01
315.72	3047.38
315.93	3059.67
316.15	3061.71
316.36	3188.69
316.57	3368.91
316.79	3000.27
317.00	2947.03
317.21	3401.68
317.43	3108.82
317.64	3045.33
317.85	2936.79
318.07	3160.02
318.28	3248.08
318.49	3063.76
318.70	3323.85
318.92	3346.38
319.13	3354.57
319.34	3219.41
319.56	2992.08
319.77	3403.72
319.98	3428.30
320.20	3299.28
320.41	3221.45
320.62	3426.25
320.83	3061.71
321.05	3274.70
321.26	2981.84
321.47	3332.05
321.69	3452.88
321.90	2916.31
322.11	2961.36
322.32	3350.48
322.54	3631.05
322.75	3041.23
322.96	4026.31
323.18	2981.84
323.39	2934.74
323.60	2918.36
323.81	3067.86
324.03	3065.81
324.24	3256.27
324.45	3129.30
324.66	2891.73
324.88	3444.68
325.09	3487.69
325.30	2985.94
325.52	2856.92
325.73	3391.44
325.94	3088.34
326.15	2846.68
326.37	2826.20
326.58	3422.16
326.79	3665.86
327.00	2863.06
327.22	2969.55
327.43	3246.03
327.64	3076.05
327.85	3137.49
328.07	3059.67
328.28	3678.15
328.49	3211.22
328.70	3022.80
328.92	2996.18
329.13	3178.45
329.34	3370.96
329.55	3278.80
329.76	3139.54
329.98	3217.36
330.19	3602.38
330.40	3051.47
330.61	3178.45
330.83	3403.72
331.04	3160.02
331.25	3057.62
331.46	2951.12
331.68	3016.66
331.89	3518.41
332.10	3020.75
332.31	2934.74
332.52	3311.57
332.74	3520.46
332.95	2838.48
333.16	2977.75
333.37	3356.62
333.58	3172.30
333.80	2979.79
334.01	2807.77
334.22	3262.41
334.43	3121.10
334.64	2908.12
334.86	3002.32
335.07	3074.00
335.28	3497.93
335.49	2922.45
335.70	3114.96
335.92	3583.95
336.13	3739.59
336.34	3123.15
336.55	2969.55
336.76	3301.33
336.98	2873.30
337.19	2969.55
337.40	3067.86
337.61	3833.80
337.82	3223.50
338.04	3061.71
338.25	2797.53
338.46	3250.13
338.67	3299.28
338.88	2914.26
339.09	2875.35
339.31	3149.78
339.52	3055.57
339.73	2951.12
339.94	3071.95
340.15	3459.02
340.36	3198.93
340.58	3069.91
340.79	2869.20
341.00	3416.01
341.21	2992.08
341.42	3256.27
341.63	3037.14
341.85	3448.78
342.06	3303.37
342.27	3008.47
342.48	3147.73
342.69	3092.43
342.90	3336.14
343.12	3334.09
343.33	2858.96
343.54	3489.74
343.75	3508.17
343.96	3192.78
344.17	2881.49
344.38	3231.69
344.60	3164.11
344.81	3047.38
345.02	3041.23
345.23	3497.93
345.44	3856.33
345.65	3065.81
345.86	3104.72
346.07	3319.76
346.29	3145.68
346.50	3168.21
346.71	3061.71
346.92	3581.90
347.13	3676.10
347.34	3162.06
347.55	2861.01
347.76	3393.48
347.98	3002.32
348.19	3071.95
348.40	3203.02
348.61	3233.74
348.82	3631.05
349.03	3090.38
349.24	2947.03
349.45	3688.39
349.66	2934.74
349.88	2920.40
350.09	2885.59
350.30	3483.59
350.51	3563.47
350.72	3188.69
350.93	3043.28
351.14	3209.17
351.35	3366.86
351.56	3008.47
351.77	3067.86
351.99	3346.38
352.20	3567.56
352.41	3157.97
352.62	2811.86
352.83	3286.99
353.04	3254.22
353.25	2940.88
353.46	3035.09
353.67	3481.55
353.88	2922.45
354.09	2975.70
354.30	2992.08
354.52	3352.52
354.73	3192.78
354.94	2985.94
355.15	2990.03
355.36	3745.73
355.57	3157.97
355.78	2942.93
355.99	3022.80
356.20	3258.32
356.41	3569.61
356.62	3098.58
356.83	3033.04
357.04	3526.60
357.25	3098.58
357.46	3018.71
357.68	2914.26
357.89	3137.49
358.10	3196.88
358.31	2977.75
358.52	3024.85
358.73	3018.71
358.94	3084.24
359.15	3018.71
359.36	2963.41
359.57	3311.57
359.78	3215.31
359.99	3192.78
360.20	2908.12
360.41	3317.71
360.62	3440.59
360.83	3088.34
361.04	3049.43
361.25	3469.26
361.46	3604.42
361.67	3106.77
361.88	2987.99
362.09	3504.07
362.30	3286.99
362.51	2908.12
362.72	3074.00
362.93	3434.44
363.14	3397.58
363.35	3106.77
363.56	2938.84
363.78	3532.75
363.99	3526.60
364.20	2985.94
364.41	3020.75
364.62	3590.09
364.83	3428.30
365.04	3041.23
365.25	3051.47
365.46	3614.66
365.67	3129.30
365.88	3194.83
366.09	2987.99
366.30	3155.92
366.51	3278.80
366.72	2885.59
366.93	2947.03
367.14	3354.57
367.35	3520.46
367.56	2924.50
367.77	3086.29
367.98	3258.32
368.18	3368.91
368.39	3149.78
368.60	2904.02
368.81	3416.01
369.02	3303.37
369.23	3014.61
369.44	2904.02
369.65	3243.98
369.86	3377.10
370.07	3139.54
370.28	2883.54
370.49	3303.37
370.70	3389.39
370.91	2967.51
371.12	2906.07
371.33	3479.50
371.54	3133.39
371.75	3051.47
371.96	2727.89
372.17	3325.90
372.38	3176.40
372.59	3018.71
372.80	2922.45
373.01	3198.93
373.22	3397.58
373.43	2996.18
373.64	2910.16
373.85	3569.61
374.06	3569.61
374.26	3127.25
374.47	3125.20
374.68	3555.27
374.89	3346.38
375.10	2944.98
375.31	3139.54
375.52	3303.37
375.73	3307.47
375.94	2916.31
376.15	3112.91
376.36	3217.36
376.57	3196.88
376.78	3135.44
376.99	3143.63
377.20	3534.79
377.40	3182.54
377.61	3393.48
377.82	2987.99
378.03	3518.41
378.24	3438.54
378.45	3076.05
378.66	3059.67
378.87	2930.64
379.08	3008.47
379.29	3069.91
379.50	3196.88
379.71	3233.74
379.91	3438.54
380.12	3022.80
380.33	3129.30
380.54	3221.45
380.75	3276.75
380.96	3006.42
381.17	3041.23
381.38	3241.93
381.59	3198.93
381.80	3051.47
382.00	3147.73
382.21	3221.45
382.42	3540.94
382.63	3379.15
382.84	3194.83
383.05	3524.55
383.26	3559.37
383.47	3200.98
383.68	2979.79
383.88	3354.57
384.09	3297.23
384.30	3213.26
384.51	3151.82
384.72	3162.06
384.93	2971.60
385.14	3088.34
385.35	3272.65
385.55	2967.51
385.76	3481.55
385.97	2994.13
386.18	2901.97
386.39	3080.14
386.60	3178.45
386.81	2942.93
387.02	2906.07
387.22	3049.43
387.43	3418.06
387.64	3067.86
387.85	3256.27
388.06	3286.99
388.27	4351.93
388.48	7896.97
388.68	12078.92
388.89	15263.51
389.10	16656.13
389.31	16158.47
389.52	12982.07
389.73	11278.16
389.93	10307.43
390.14	9168.76
390.35	8621.95
390.56	7884.68
390.77	6639.51
390.98	5091.25
391.18	4241.34
391.39	3844.04
391.60	3313.61
391.81	3272.65
392.02	3078.10
392.23	3780.55
392.43	3305.42
392.64	3157.97
392.85	3147.73
393.06	3688.39
393.27	3211.22
393.47	2996.18
393.68	3045.33
393.89	3221.45
394.10	3471.31
394.31	3000.27
394.52	2975.70
394.72	3106.77
394.93	3608.52
395.14	2906.07
395.35	3168.21
395.56	3190.74
395.76	3266.51
395.97	2922.45
396.18	3164.11
396.39	3246.03
396.60	3905.48
396.80	3434.44
397.01	3270.61
397.22	3387.34
397.43	3438.54
397.64	2987.99
397.84	3137.49
398.05	3692.49
398.26	3235.79
398.47	3192.78
398.67	3272.65
398.88	3321.81
399.09	3350.48
399.30	3020.75
399.51	3049.43
399.71	3121.10
399.92	3233.74
400.13	3057.62
400.34	3055.57
400.54	3289.04
400.75	3592.14
400.96	3172.30
401.17	3344.33
401.37	3395.53
401.58	3221.45
401.79	3000.27
402.00	3160.02
402.21	3833.80
402.41	3377.10
402.62	3315.66
402.83	3571.66
403.04	3669.96
403.24	4130.75
403.45	3213.26
403.66	3434.44
403.87	3575.75
404.07	3657.67
404.28	3280.85
404.49	3366.86
404.70	3321.81
404.90	3483.59
405.11	3090.38
405.32	3155.92
405.52	3258.32
405.73	3188.69
405.94	2967.51
406.15	3182.54
406.35	3446.73
406.56	3325.90
406.77	3121.10
406.98	3010.51
407.18	3090.38
407.39	3647.43
407.60	3114.96
407.80	3192.78
408.01	3198.93
408.22	3370.96
408.43	2994.13
408.63	3200.98
408.84	3502.03
409.05	3420.11
409.25	2992.08
409.46	3008.47
409.67	3227.60
409.88	3123.15
410.08	3071.95
410.29	3024.85
410.50	3475.40
410.70	3377.10
410.91	3004.37
411.12	3084.24
411.32	3360.72
411.53	3114.96
411.74	3051.47
411.95	3131.34
412.15	3297.23
412.36	3356.62
412.57	3248.08
412.77	3286.99
412.98	3211.22
413.19	3094.48
413.39	3094.48
413.60	3143.63
413.81	3614.66
414.01	3065.81
414.22	3082.19
414.43	3227.60
414.63	3205.07
414.84	3477.45
415.05	3092.43
415.25	2922.45
415.46	3430.35
415.67	3141.58
415.87	3008.47
416.08	3033.04
416.29	3135.44
416.49	3295.18
416.70	3098.58
416.91	3078.10
417.11	3250.13
417.32	3545.03
417.53	3135.44
417.73	3166.16
417.94	3350.48
418.15	3336.14
418.35	3096.53
418.56	3024.85
418.77	3788.74
418.97	3330.00
419.18	3172.30
419.38	2766.81
419.59	3319.76
419.80	3606.47
420.00	3012.56
420.21	3037.14
420.42	3534.79
420.62	3346.38
420.83	3112.91
421.04	3065.81
421.24	3213.26
421.45	3473.36
421.65	3078.10
421.86	3086.29
422.07	3397.58
422.27	3383.24
422.48	3010.51
422.69	2908.12
422.89	3264.46
423.10	3194.83
423.30	2969.55
423.51	3069.91
423.72	3354.57
423.92	3334.09
424.13	2940.88
424.33	3135.44
424.54	3487.69
424.75	3321.81
424.95	3254.22
425.16	2959.31
425.36	3221.45
425.57	3387.34
425.78	3188.69
425.98	3196.88
426.19	3235.79
426.39	3090.38
426.60	3082.19
426.81	3160.02
427.01	3463.12
427.22	3147.73
427.42	2885.59
427.63	2985.94
427.83	3418.06
428.04	3665.86
428.25	3045.33
428.45	3164.11
428.66	3479.50
428.86	3211.22
429.07	3133.39
429.28	3112.91
429.48	3213.26
429.69	3137.49
429.89	3182.54
430.10	2920.40
430.30	3401.68
430.51	3549.13
430.71	3014.61
430.92	3074.00
431.13	3157.97
431.33	3352.52
431.54	3155.92
431.74	3305.42
431.95	3715.02
432.15	3147.73
432.36	3069.91
432.56	3174.35
432.77	3764.17
432.98	3567.56
433.18	3108.82
433.39	2908.12
433.59	3213.26
433.80	3778.50
434.00	3246.03
434.21	3020.75
434.41	3131.34
434.62	3741.64
434.82	2926.55
435.03	3065.81
435.23	3321.81
435.44	2959.31
435.64	2987.99
435.85	3082.19
436.06	3366.86
436.26	3516.36
436.47	3055.57
436.67	3041.23
436.88	3254.22
437.08	3522.51
437.29	3209.17
437.49	3164.11
437.70	3481.55
437.90	3327.95
438.11	3246.03
438.31	3137.49
438.52	3559.37
438.72	3555.27
438.93	3461.07
439.13	3174.35
439.34	3516.36
439.54	3184.59
439.75	3205.07
439.95	3121.10
440.16	3157.97
440.36	3317.71
440.57	3057.62
440.77	3149.78
440.98	3297.23
441.18	3375.05
441.39	2990.03
441.59	2920.40
441.80	3700.68
442.00	3233.74
442.21	3155.92
442.41	2901.97
442.62	3446.73
442.82	3100.62
443.02	2992.08
443.23	3057.62
443.43	3239.89
443.64	3565.51
443.84	2901.97
444.05	3147.73
444.25	3327.95
444.46	3217.36
444.66	3018.71
444.87	3334.09
445.07	3004.37
445.28	3241.93
445.48	3198.93
445.69	3094.48
445.89	3835.85
446.09	3231.69
446.30	3332.05
446.50	3448.78
446.71	5085.11
446.91	6449.05
447.12	7231.38
447.32	7624.59
447.53	7675.79
447.73	6442.91
447.93	5656.49
448.14	5373.87
448.34	5423.02
448.55	4442.04
448.75	4480.96
448.96	4245.44
449.16	4114.37
449.36	3983.30
449.57	3352.52
449.77	3153.87
449.98	3155.92
450.18	3368.91
450.39	2944.98
450.59	3227.60
450.79	3246.03
451.00	3155.92
451.20	3303.37
451.41	2981.84
451.61	3428.30
451.81	3233.74
452.02	3033.04
452.22	3030.99
452.43	3121.10
