SpectraSuite Data File
++++++++++++++++++++++++++++++++++++
Date: Fri May 06 08:14:31 CEST 2016
User: root
Dark Spectrum Present: No
Reference Spectrum Present: No
Number of Sampled Component Spectra: 1
Spectrometers: USB4C02835
Integration Time (usec): 100000 (USB4C02835)
Spectra Averaged: 1 (USB4C02835)
Boxcar Smoothing: 0 (USB4C02835)
Correct for Electrical Dark: No (USB4C02835)
Strobe/Lamp Enabled: No (USB4C02835)
Correct for Detector Non-linearity: No (USB4C02835)
Correct for Stray Light: No (USB4C02835)
Number of Pixels in Processed Spectrum: 3648
>>>>>Begin Processed Spectral Data<<<<<
177.47	2256.86
177.69	2256.86
177.91	2256.86
178.13	2287.58
178.36	2324.44
178.58	2979.79
178.80	3127.25
179.02	2842.58
179.24	3123.15
179.46	2815.96
179.68	2879.44
179.90	3231.69
180.13	3295.18
180.35	2684.89
180.57	2734.04
180.79	3442.64
181.01	3219.41
181.23	2863.06
181.45	2977.75
181.67	3362.76
181.90	3418.06
182.12	2881.49
182.34	2805.72
182.56	3397.58
182.78	3385.29
183.00	2811.86
183.22	2885.59
183.44	2893.78
183.66	3821.51
183.89	3002.32
184.11	2877.40
184.33	3413.96
184.55	3602.38
184.77	2803.67
184.99	2883.54
185.21	3198.93
185.43	3835.85
185.65	2820.05
185.87	2797.53
186.10	3817.41
186.32	3753.93
186.54	2947.03
186.76	2951.12
186.98	3491.79
187.20	3182.54
187.42	2889.68
187.64	2797.53
187.86	3389.39
188.08	3475.40
188.30	2785.24
188.52	2879.44
188.75	3577.80
188.97	3442.64
189.19	2826.20
189.41	2772.95
189.63	3432.40
189.85	3196.88
190.07	2713.56
190.29	2746.33
190.51	3352.52
190.73	2959.31
190.95	3043.28
191.17	2959.31
191.39	2996.18
191.61	3225.55
191.84	2885.59
192.06	3061.71
192.28	2971.60
192.50	3981.25
192.72	2973.65
192.94	2922.45
193.16	3524.55
193.38	3305.42
193.60	2766.81
193.82	3049.43
194.04	3399.63
194.26	3293.13
194.48	2848.72
194.70	2869.20
194.92	3221.45
195.14	3368.91
195.36	2840.53
195.58	2949.08
195.80	3321.81
196.02	3196.88
196.24	2762.71
196.46	2955.22
196.69	3200.98
196.91	3712.97
197.13	2906.07
197.35	2895.83
197.57	3590.09
197.79	3475.40
198.01	2904.02
198.23	2887.64
198.45	3393.48
198.67	3049.43
198.89	2650.07
199.11	2998.23
199.33	3160.02
199.55	2783.19
199.77	2764.76
199.99	3030.99
200.21	3207.12
200.43	3262.41
200.65	2791.38
200.87	2713.56
201.09	3303.37
201.31	3211.22
201.53	2926.55
201.75	2969.55
201.97	3305.42
202.19	3274.70
202.41	3028.95
202.63	2944.98
202.85	3418.06
203.07	3401.68
203.29	3004.37
203.51	2803.67
203.73	3098.58
203.95	3917.76
204.17	2854.87
204.39	2918.36
204.61	3278.80
204.83	3252.17
205.05	3041.23
205.27	2815.96
205.49	3639.24
205.71	3246.03
205.93	2660.31
206.15	2811.86
206.37	3344.33
206.59	3213.26
206.81	2695.13
207.03	2799.57
207.25	3135.44
207.47	3475.40
207.69	2848.72
207.91	3076.05
208.13	3624.90
208.34	3176.40
208.56	2852.82
208.78	2924.50
209.00	3160.02
209.22	3286.99
209.44	2942.93
209.66	2877.40
209.88	3286.99
210.10	3215.31
210.32	2803.67
210.54	2877.40
210.76	3168.21
210.98	3489.74
211.20	2770.90
211.42	3024.85
211.64	3583.95
211.86	3418.06
212.08	2947.03
212.30	2910.16
212.52	3250.13
212.74	3356.62
212.96	2951.12
213.17	3022.80
213.39	3495.88
213.61	3633.10
213.83	2885.59
214.05	2740.18
214.27	3528.65
214.49	3053.52
214.71	2750.42
214.93	2994.13
215.15	3305.42
215.37	3452.88
215.59	2740.18
215.81	2942.93
216.03	3563.47
216.24	3225.55
216.46	2850.77
216.68	2947.03
216.90	3452.88
217.12	3411.92
217.34	2840.53
217.56	2983.89
217.78	3631.05
218.00	3416.01
218.22	2940.88
218.44	2983.89
218.66	3317.71
218.87	3661.77
219.09	2904.02
219.31	2820.05
219.53	3327.95
219.75	3225.55
219.97	2912.21
220.19	2885.59
220.41	3237.84
220.63	3583.95
220.85	2881.49
221.06	2842.58
221.28	3477.45
221.50	3401.68
221.72	2840.53
221.94	2787.29
222.16	3270.61
222.38	3616.71
222.60	2813.91
222.82	2967.51
223.03	3528.65
223.25	3043.28
223.47	2820.05
223.69	3030.99
223.91	3342.28
224.13	3336.14
224.35	2748.37
224.57	3030.99
224.78	3600.33
225.00	3121.10
225.22	2992.08
225.44	2811.86
225.66	3442.64
225.88	3176.40
226.10	2975.70
226.32	2873.30
226.53	3579.85
226.75	3229.65
226.97	2955.22
227.19	2901.97
227.41	3063.76
227.63	3221.45
227.85	2725.85
228.06	2992.08
228.28	3286.99
228.50	3555.27
228.72	2711.51
228.94	2820.05
229.16	2965.46
229.37	3067.86
229.59	2752.47
229.81	3176.40
230.03	3209.17
230.25	3033.04
230.47	2742.23
230.69	2842.58
230.90	3452.88
231.12	3131.34
231.34	2959.31
231.56	2901.97
231.78	3092.43
232.00	3264.46
232.21	2906.07
232.43	2895.83
232.65	2869.20
232.87	3377.10
233.09	2717.65
233.30	2717.65
233.52	3497.93
233.74	3295.18
233.96	2828.24
234.18	3067.86
234.40	3286.99
234.61	3815.37
234.83	2738.13
235.05	2897.88
235.27	3737.54
235.49	3565.51
235.70	2781.14
235.92	2922.45
236.14	3426.25
236.36	3721.16
236.58	2822.10
236.79	2985.94
237.01	3315.66
237.23	3254.22
237.45	3071.95
237.67	2858.96
237.88	3385.29
238.10	3672.01
238.32	2785.24
238.54	2836.44
238.76	3264.46
238.97	3123.15
239.19	2832.34
239.41	2904.02
239.63	3454.92
239.85	3209.17
240.06	2877.40
240.28	2879.44
240.50	3512.27
240.72	3219.41
240.93	2824.15
241.15	2959.31
241.37	3332.05
241.59	3549.13
241.81	2852.82
242.02	2969.55
242.24	3303.37
242.46	3436.49
242.68	2754.52
242.89	2822.10
243.11	3446.73
243.33	3200.98
243.55	2889.68
243.76	2877.40
243.98	3215.31
244.20	3182.54
244.42	2906.07
244.64	2848.72
244.85	3033.04
245.07	3108.82
245.29	2885.59
245.51	2926.55
245.72	3338.19
245.94	3569.61
246.16	2803.67
246.38	2871.25
246.59	3178.45
246.81	3194.83
247.03	2844.63
247.24	2815.96
247.46	3205.07
247.68	3278.80
247.90	2840.53
248.11	2869.20
248.33	3426.25
248.55	3297.23
248.77	2906.07
248.98	2961.36
249.20	3528.65
249.42	3389.39
249.64	2865.11
249.85	2897.88
250.07	3186.64
250.29	3395.53
250.50	2951.12
250.72	2830.29
250.94	3295.18
251.16	3811.27
251.37	2844.63
251.59	2830.29
251.81	3391.44
252.02	3608.52
252.24	2775.00
252.46	3022.80
252.68	3149.78
252.89	3127.25
253.11	2703.32
253.33	2951.12
253.54	3571.66
253.76	3086.29
253.98	2889.68
254.20	2756.57
254.41	3080.14
254.63	3323.85
254.85	2684.89
255.06	2971.60
255.28	3368.91
255.50	3192.78
255.71	2768.85
255.93	2664.41
256.15	3305.42
256.36	3426.25
256.58	2756.57
256.80	2836.44
257.02	3270.61
257.23	3143.63
257.45	2807.77
257.67	3008.47
257.88	3213.26
258.10	3299.28
258.32	2889.68
258.53	2957.27
258.75	3631.05
258.97	3110.86
259.18	2738.13
259.40	2844.63
259.62	3639.24
259.83	3553.23
260.05	2920.40
260.27	3846.09
260.48	3456.97
260.70	3092.43
260.92	2727.89
261.13	2887.64
261.35	3352.52
261.57	3354.57
261.78	2779.09
262.00	2820.05
262.22	3479.50
262.43	3123.15
262.65	2836.44
262.86	2895.83
263.08	3780.55
263.30	3293.13
263.51	2723.80
263.73	2811.86
263.95	3588.04
264.16	3143.63
264.38	2676.70
264.60	2807.77
264.81	3299.28
265.03	3467.21
265.25	3274.70
265.46	2813.91
265.68	3440.59
265.89	3442.64
266.11	2729.94
266.33	2789.33
266.54	3575.75
266.76	3377.10
266.98	2973.65
267.19	3084.24
267.41	3516.36
267.62	3278.80
267.84	2709.46
268.06	3004.37
268.27	3323.85
268.49	3483.59
268.70	2949.08
268.92	2944.98
269.14	3155.92
269.35	2994.13
269.57	2979.79
269.79	2877.40
270.00	3129.30
270.22	3620.81
270.43	2672.60
270.65	2791.38
270.87	3368.91
271.08	3483.59
271.30	2983.89
271.51	2877.40
271.73	3413.96
271.95	3600.33
272.16	2803.67
272.38	3006.42
272.59	3250.13
272.81	3399.63
273.02	2818.00
273.24	2891.73
273.46	3514.31
273.67	3035.09
273.89	2734.04
274.10	2783.19
274.32	3561.42
274.54	3340.24
274.75	2944.98
274.97	3051.47
275.18	3444.68
275.40	3266.51
275.61	2815.96
275.83	3004.37
276.05	3143.63
276.26	3207.12
276.48	3004.37
276.69	3049.43
276.91	3147.73
277.12	3551.18
277.34	3002.32
277.55	3157.97
277.77	3256.27
277.99	3246.03
278.20	2979.79
278.42	2920.40
278.63	3098.58
278.85	3010.51
279.06	3000.27
279.28	3043.28
279.49	3432.40
279.71	3411.92
279.93	3074.00
280.14	3092.43
280.36	3076.05
280.57	3467.21
280.79	3098.58
281.00	2926.55
281.22	3182.54
281.43	3522.51
281.65	2766.81
281.86	2861.01
282.08	3377.10
282.29	3710.92
282.51	2885.59
282.73	2877.40
282.94	2992.08
283.16	3385.29
283.37	3071.95
283.59	3055.57
283.80	3315.66
284.02	3229.65
284.23	2975.70
284.45	3061.71
284.66	3188.69
284.88	3123.15
285.09	2934.74
285.31	3084.24
285.52	3338.19
285.74	2983.89
285.95	3119.06
286.17	3049.43
286.38	3518.41
286.60	3106.77
286.81	3026.90
287.03	2924.50
287.24	3246.03
287.46	3344.33
287.67	3074.00
287.89	3215.31
288.10	3225.55
288.32	3274.70
288.53	3223.50
288.75	3110.86
288.96	3442.64
289.18	3180.50
289.39	2889.68
289.61	3024.85
289.82	3774.41
290.04	3657.67
290.25	2947.03
290.47	3094.48
290.68	3213.26
290.90	3475.40
291.11	2809.81
291.33	3147.73
291.54	3137.49
291.76	3133.39
291.97	3065.81
292.18	3026.90
292.40	3176.40
292.61	3166.16
292.83	3272.65
293.04	2953.17
293.26	3323.85
293.47	3180.50
293.69	2985.94
293.90	2930.64
294.12	3516.36
294.33	3301.33
294.55	3088.34
294.76	3223.50
294.97	3530.70
295.19	3721.16
295.40	2947.03
295.62	3000.27
295.83	3409.87
296.05	3131.34
296.26	3182.54
296.48	2959.31
296.69	3317.71
296.90	3260.37
297.12	3157.97
297.33	3127.25
297.55	3260.37
297.76	3368.91
297.98	3090.38
298.19	3250.13
298.41	3274.70
298.62	3117.01
298.83	3215.31
299.05	3094.48
299.26	3209.17
299.48	3094.48
299.69	3000.27
299.90	3090.38
300.12	3129.30
300.33	3436.49
300.55	3016.66
300.76	2983.89
300.98	2998.23
301.19	3381.20
301.40	3018.71
301.62	3026.90
301.83	3338.19
302.05	3323.85
302.26	2897.88
302.47	3098.58
302.69	3055.57
302.90	3254.22
303.12	2912.21
303.33	3041.23
303.54	3729.35
303.76	3160.02
303.97	2959.31
304.19	3178.45
304.40	3110.86
304.61	3364.81
304.83	3086.29
305.04	3061.71
305.26	3450.83
305.47	3127.25
305.68	3028.95
305.90	2912.21
306.11	3532.75
306.33	3330.00
306.54	2873.30
306.75	3004.37
306.97	3012.56
307.18	3033.04
307.39	3047.38
307.61	3108.82
307.82	3313.61
308.04	3422.16
308.25	2869.20
308.46	3149.78
308.68	3266.51
308.89	3258.32
309.10	3045.33
309.32	2947.03
309.53	3284.94
309.74	3352.52
309.96	2942.93
310.17	3098.58
310.39	3196.88
310.60	3426.25
310.81	3071.95
311.03	2973.65
311.24	3418.06
311.45	3246.03
311.67	3229.65
311.88	3121.10
312.09	3221.45
312.31	3139.54
312.52	2883.54
312.73	2910.16
312.95	3030.99
313.16	3084.24
313.37	3241.93
313.59	3112.91
313.80	3483.59
314.01	3559.37
314.23	2981.84
314.44	2910.16
314.65	3018.71
314.87	3129.30
315.08	2904.02
315.29	2990.03
315.51	3078.10
315.72	2963.41
315.93	3045.33
316.15	3028.95
316.36	3223.50
316.57	3311.57
316.79	3022.80
317.00	2930.64
317.21	3340.24
317.43	3129.30
317.64	3096.53
317.85	2887.64
318.07	3213.26
318.28	3119.06
318.49	3090.38
318.70	3243.98
318.92	3344.33
319.13	3311.57
319.34	3205.07
319.56	3045.33
319.77	3418.06
319.98	3471.31
320.20	3250.13
320.41	3125.20
320.62	3426.25
320.83	3074.00
321.05	3205.07
321.26	3129.30
321.47	3305.42
321.69	3512.27
321.90	2914.26
322.11	2936.79
322.32	3418.06
322.54	3524.55
322.75	2953.17
322.96	4018.11
323.18	2961.36
323.39	2920.40
323.60	2912.21
323.81	3190.74
324.03	3205.07
324.24	3190.74
324.45	3168.21
324.66	2973.65
324.88	3491.79
325.09	3643.34
325.30	2947.03
325.52	2850.77
325.73	3432.40
325.94	3114.96
326.15	2832.34
326.37	2881.49
326.58	3389.39
326.79	3661.77
327.00	2901.97
327.22	2996.18
327.43	3200.98
327.64	3016.66
327.85	3108.82
328.07	3006.42
328.28	3667.91
328.49	3207.12
328.70	2987.99
328.92	2977.75
329.13	3278.80
329.34	3352.52
329.55	3203.02
329.76	3090.38
329.98	3282.89
330.19	3540.94
330.40	3080.14
330.61	3117.01
330.83	3420.11
331.04	3051.47
331.25	3082.19
331.46	3049.43
331.68	3086.29
331.89	3524.55
332.10	3041.23
332.31	2828.24
332.52	3254.22
332.74	3567.56
332.95	2828.24
333.16	2983.89
333.37	3454.92
333.58	3125.20
333.80	3012.56
334.01	2846.68
334.22	3325.90
334.43	3155.92
334.64	2910.16
334.86	2975.70
335.07	3082.19
335.28	3565.51
335.49	2912.21
335.70	3033.04
335.92	3631.05
336.13	3723.21
336.34	3063.76
336.55	3002.32
336.76	3403.72
336.98	2938.84
337.19	3028.95
337.40	3090.38
337.61	3934.15
337.82	3250.13
338.04	3030.99
338.25	2861.01
338.46	3286.99
338.67	3280.85
338.88	2979.79
339.09	2942.93
339.31	3276.75
339.52	2967.51
339.73	2951.12
339.94	3053.52
340.15	3448.78
340.36	3110.86
340.58	3000.27
340.79	2904.02
341.00	3411.92
341.21	3059.67
341.42	3237.84
341.63	3033.04
341.85	3475.40
342.06	3356.62
342.27	3002.32
342.48	3221.45
342.69	2983.89
342.90	3403.72
343.12	3432.40
343.33	2957.27
343.54	3493.83
343.75	3614.66
343.96	3121.10
344.17	2881.49
344.38	3225.55
344.60	3059.67
344.81	2944.98
345.02	3004.37
345.23	3508.17
345.44	3766.21
345.65	3053.52
345.86	3094.48
346.07	3297.23
346.29	3129.30
346.50	3028.95
346.71	3082.19
346.92	3571.66
347.13	3733.45
347.34	3028.95
347.55	2846.68
347.76	3305.42
347.98	2951.12
348.19	3123.15
348.40	3139.54
348.61	3182.54
348.82	3567.56
349.03	3092.43
349.24	2885.59
349.45	3663.82
349.66	2928.60
349.88	2992.08
350.09	2944.98
350.30	3567.56
350.51	3549.13
350.72	3127.25
350.93	2990.03
351.14	3231.69
351.35	3293.13
351.56	3030.99
351.77	2992.08
351.99	3426.25
352.20	3600.33
352.41	3078.10
352.62	2879.44
352.83	3278.80
353.04	3229.65
353.25	2930.64
353.46	3041.23
353.67	3413.96
353.88	2912.21
354.09	2942.93
354.30	3033.04
354.52	3426.25
354.73	3188.69
354.94	2967.51
355.15	3127.25
355.36	3643.34
355.57	3198.93
355.78	2873.30
355.99	3020.75
356.20	3194.83
356.41	3524.55
356.62	3221.45
356.83	3082.19
357.04	3528.65
357.25	2832.34
357.46	2979.79
357.68	2869.20
357.89	3110.86
358.10	3286.99
358.31	2957.27
358.52	3041.23
358.73	3035.09
358.94	3037.14
359.15	2975.70
359.36	3037.14
359.57	3274.70
359.78	3207.12
359.99	3239.89
360.20	2908.12
360.41	3174.35
360.62	3450.83
360.83	3037.14
361.04	2992.08
361.25	3389.39
361.46	3583.95
361.67	3151.82
361.88	2975.70
362.09	3465.16
362.30	3332.05
362.51	2899.92
362.72	3114.96
362.93	3438.54
363.14	3391.44
363.35	3106.77
363.56	2879.44
363.78	3549.13
363.99	3547.08
364.20	2959.31
364.41	3049.43
364.62	3676.10
364.83	3254.22
365.04	2981.84
365.25	3018.71
365.46	3715.02
365.67	3155.92
365.88	3180.50
366.09	2985.94
366.30	3155.92
366.51	3332.05
366.72	2930.64
366.93	2944.98
367.14	3282.89
367.35	3598.28
367.56	3008.47
367.77	3108.82
367.98	3237.84
368.18	3389.39
368.39	3153.87
368.60	2983.89
368.81	3424.20
369.02	3358.67
369.23	2959.31
369.44	2820.05
369.65	3196.88
369.86	3356.62
370.07	3139.54
370.28	2887.64
370.49	3344.33
370.70	3381.20
370.91	2936.79
371.12	2918.36
371.33	3542.99
371.54	3112.91
371.75	3145.68
371.96	2717.65
372.17	3213.26
372.38	3264.46
372.59	3010.51
372.80	2953.17
373.01	3231.69
373.22	3373.00
373.43	2947.03
373.64	2871.25
373.85	3475.40
374.06	3608.52
374.26	3184.59
374.47	3147.73
374.68	3581.90
374.89	3354.57
375.10	2961.36
375.31	3123.15
375.52	3291.09
375.73	3291.09
375.94	2809.81
376.15	3100.62
376.36	3090.38
376.57	3112.91
376.78	3047.38
376.99	3094.48
377.20	3577.80
377.40	3209.17
377.61	3344.33
377.82	2928.60
378.03	3622.86
378.24	3334.09
378.45	3121.10
378.66	3112.91
378.87	2865.11
379.08	2924.50
379.29	3102.67
379.50	3160.02
379.71	3198.93
379.91	3438.54
380.12	2992.08
380.33	3219.41
380.54	3219.41
380.75	3203.02
380.96	3016.66
381.17	3065.81
381.38	3278.80
381.59	3278.80
381.80	3057.62
382.00	3164.11
382.21	3354.57
382.42	3585.99
382.63	3426.25
382.84	3213.26
383.05	3416.01
383.26	3565.51
383.47	3119.06
383.68	2947.03
383.88	3368.91
384.09	3317.71
384.30	3286.99
384.51	3100.62
384.72	3225.55
384.93	3069.91
385.14	3049.43
385.35	3327.95
385.55	3047.38
385.76	3418.06
385.97	3043.28
386.18	2914.26
386.39	3164.11
386.60	3170.26
386.81	2985.94
387.02	2863.06
387.22	3061.71
387.43	3422.16
387.64	3129.30
387.85	3205.07
388.06	3336.14
388.27	4247.49
388.48	7712.65
388.68	12085.06
388.89	15097.63
389.10	16367.37
389.31	15961.87
389.52	12808.00
389.73	11085.65
389.93	10278.76
390.14	9142.13
390.35	8320.90
390.56	7788.43
390.77	6524.83
390.98	5042.10
391.18	4114.37
391.39	3858.37
391.60	3385.29
391.81	3370.96
392.02	3033.04
392.23	3723.21
392.43	3319.76
392.64	3151.82
392.85	3117.01
393.06	3600.33
393.27	3258.32
393.47	2942.93
393.68	3151.82
393.89	3258.32
394.10	3540.94
394.31	2969.55
394.52	3041.23
394.72	3162.06
394.93	3600.33
395.14	2889.68
395.35	3127.25
395.56	3139.54
395.76	3272.65
395.97	3065.81
396.18	3215.31
396.39	3344.33
396.60	3909.57
396.80	3430.35
397.01	3311.57
397.22	3422.16
397.43	3545.03
397.64	3059.67
397.84	3133.39
398.05	3723.21
398.26	3246.03
398.47	3180.50
398.67	3260.37
398.88	3256.27
399.09	3475.40
399.30	2985.94
399.51	3088.34
399.71	3178.45
399.92	3227.60
400.13	3086.29
400.34	3067.86
400.54	3348.43
400.75	3481.55
400.96	3266.51
401.17	3350.48
401.37	3381.20
401.58	3215.31
401.79	3033.04
402.00	3106.77
402.21	3829.70
402.41	3555.27
402.62	3368.91
402.83	3547.08
403.04	3704.78
403.24	4057.03
403.45	3231.69
403.66	3282.89
403.87	3475.40
404.07	3594.19
404.28	3207.12
404.49	3428.30
404.70	3373.00
404.90	3409.87
405.11	3037.14
405.32	3129.30
405.52	3139.54
405.73	3241.93
405.94	2928.60
406.15	3117.01
406.35	3381.20
406.56	3465.16
406.77	3049.43
406.98	3055.57
407.18	3137.49
407.39	3551.18
407.60	3041.23
407.80	3131.34
408.01	3174.35
408.22	3362.76
408.43	2985.94
408.63	3164.11
408.84	3416.01
409.05	3516.36
409.25	2885.59
409.46	3061.71
409.67	3282.89
409.88	3188.69
410.08	3057.62
410.29	3057.62
410.50	3459.02
410.70	3454.92
410.91	2959.31
411.12	3035.09
411.32	3223.50
411.53	3172.30
411.74	3033.04
411.95	3059.67
412.15	3330.00
412.36	3491.79
412.57	3315.66
412.77	3207.12
412.98	3207.12
413.19	3270.61
413.39	3143.63
413.60	3133.39
413.81	3487.69
414.01	3090.38
414.22	3067.86
414.43	3205.07
414.63	3184.59
414.84	3364.81
415.05	3141.58
415.25	2906.07
415.46	3358.67
415.67	3200.98
415.87	3071.95
416.08	3053.52
416.29	3190.74
416.49	3407.82
416.70	3051.47
416.91	2983.89
417.11	3188.69
417.32	3463.12
417.53	3114.96
417.73	3133.39
417.94	3252.17
418.15	3327.95
418.35	3051.47
418.56	3076.05
418.77	3672.01
418.97	3293.13
419.18	3157.97
419.38	2740.18
419.59	3237.84
419.80	3526.60
420.00	2967.51
420.21	3039.19
420.42	3573.71
420.62	3315.66
420.83	3049.43
421.04	3008.47
421.24	3274.70
421.45	3379.15
421.65	3080.14
421.86	3080.14
422.07	3442.64
422.27	3346.38
422.48	2969.55
422.69	2858.96
422.89	3319.76
423.10	3203.02
423.30	3000.27
423.51	3043.28
423.72	3315.66
423.92	3391.44
424.13	2959.31
424.33	3182.54
424.54	3530.70
424.75	3272.65
424.95	3268.56
425.16	2947.03
425.36	3188.69
425.57	3499.98
425.78	3256.27
425.98	3157.97
426.19	3213.26
426.39	3139.54
426.60	3108.82
426.81	3176.40
427.01	3323.85
427.22	3065.81
427.42	2893.78
427.63	3049.43
427.83	3485.64
428.04	3659.72
428.25	3155.92
428.45	3186.64
428.66	3561.42
428.86	3237.84
429.07	3074.00
429.28	3096.53
429.48	3293.13
429.69	3059.67
429.89	3102.67
430.10	3084.24
430.30	3401.68
430.51	3469.26
430.71	2940.88
430.92	3082.19
431.13	3231.69
431.33	3368.91
431.54	3127.25
431.74	3219.41
431.95	3776.45
432.15	3076.05
432.36	3090.38
432.56	3047.38
432.77	3753.93
432.98	3633.10
433.18	3076.05
433.39	2930.64
433.59	3200.98
433.80	3663.82
434.00	3213.26
434.21	3125.20
434.41	3166.16
434.62	3737.54
434.82	3000.27
435.03	3000.27
435.23	3348.43
435.44	2969.55
435.64	2949.08
435.85	3059.67
436.06	3395.53
436.26	3522.51
436.47	3117.01
436.67	3037.14
436.88	3205.07
437.08	3526.60
437.29	3135.44
437.49	3196.88
437.70	3467.21
437.90	3196.88
438.11	3299.28
438.31	3098.58
438.52	3571.66
438.72	3493.83
438.93	3344.33
439.13	3231.69
439.34	3379.15
439.54	3135.44
439.75	3241.93
439.95	3200.98
440.16	3149.78
440.36	3286.99
440.57	3094.48
440.77	3053.52
440.98	3289.04
441.18	3411.92
441.39	2893.78
441.59	2959.31
441.80	3712.97
442.00	3239.89
442.21	3110.86
442.41	2893.78
442.62	3416.01
442.82	3065.81
443.02	3059.67
443.23	3090.38
443.43	3143.63
443.64	3561.42
443.84	2934.74
444.05	3104.72
444.25	3274.70
444.46	3260.37
444.66	3026.90
444.87	3237.84
445.07	2981.84
445.28	3221.45
445.48	3243.98
445.69	3135.44
445.89	3866.56
446.09	3280.85
446.30	3379.15
446.50	3440.59
446.71	5070.77
446.91	6250.40
447.12	7102.36
447.32	7561.10
447.53	7585.68
447.73	6391.71
447.93	5496.75
448.14	5187.50
448.34	5470.12
448.55	4413.37
448.75	4519.87
448.96	4192.19
449.16	4122.56
449.36	3928.00
449.57	3319.76
449.77	3213.26
449.98	3180.50
450.18	3297.23
450.39	2985.94
450.59	3207.12
450.79	3231.69
451.00	3174.35
451.20	3368.91
451.41	3024.85
451.61	3344.33
451.81	3254.22
452.02	3000.27
452.22	3172.30
452.43	3108.82
