SpectraSuite Data File
++++++++++++++++++++++++++++++++++++
Date: Fri May 06 08:13:52 CEST 2016
User: root
Dark Spectrum Present: No
Reference Spectrum Present: No
Number of Sampled Component Spectra: 1
Spectrometers: USB4C02835
Integration Time (usec): 100000 (USB4C02835)
Spectra Averaged: 1 (USB4C02835)
Boxcar Smoothing: 0 (USB4C02835)
Correct for Electrical Dark: No (USB4C02835)
Strobe/Lamp Enabled: No (USB4C02835)
Correct for Detector Non-linearity: No (USB4C02835)
Correct for Stray Light: No (USB4C02835)
Number of Pixels in Processed Spectrum: 3648
>>>>>Begin Processed Spectral Data<<<<<
177.47	2217.95
177.69	2217.95
177.91	2217.95
178.13	2281.44
178.36	2263.01
178.58	3033.04
178.80	3194.83
179.02	3006.42
179.24	3033.04
179.46	2746.33
179.68	2795.48
179.90	3248.08
180.13	3360.72
180.35	2641.88
180.57	2766.81
180.79	3450.83
181.01	3293.13
181.23	2830.29
181.45	3045.33
181.67	3426.25
181.90	3467.21
182.12	2942.93
182.34	2725.85
182.56	3409.87
182.78	3348.43
183.00	2914.26
183.22	2932.69
183.44	2922.45
183.66	3895.24
183.89	3000.27
184.11	2883.54
184.33	3411.92
184.55	3377.10
184.77	2908.12
184.99	2850.77
185.21	3186.64
185.43	3839.94
185.65	2850.77
185.87	2865.11
186.10	3745.73
186.32	3811.27
186.54	2961.36
186.76	2953.17
186.98	3428.30
187.20	3241.93
187.42	2897.88
187.64	2836.44
187.86	3389.39
188.08	3473.36
188.30	2793.43
188.52	2854.87
188.75	3553.23
188.97	3524.55
189.19	2836.44
189.41	2822.10
189.63	3344.33
189.85	3211.22
190.07	2707.41
190.29	2721.75
190.51	3377.10
190.73	2947.03
190.95	3119.06
191.17	2910.16
191.39	3002.32
191.61	3239.89
191.84	2852.82
192.06	2994.13
192.28	2971.60
192.50	3876.80
192.72	3024.85
192.94	2928.60
193.16	3477.45
193.38	3344.33
193.60	2840.53
193.82	3008.47
194.04	3608.52
194.26	3330.00
194.48	2863.06
194.70	2850.77
194.92	3182.54
195.14	3420.11
195.36	2822.10
195.58	2967.51
195.80	3243.98
196.02	3176.40
196.24	2844.63
196.46	2936.79
196.69	3149.78
196.91	3790.79
197.13	2906.07
197.35	2975.70
197.57	3594.19
197.79	3493.83
198.01	2932.69
198.23	2899.92
198.45	3377.10
198.67	3033.04
198.89	2656.22
199.11	2895.83
199.33	3168.21
199.55	2881.49
199.77	2803.67
199.99	2967.51
200.21	3211.22
200.43	3264.46
200.65	2711.51
200.87	2705.37
201.09	3301.33
201.31	3262.41
201.53	2889.68
201.75	2889.68
201.97	3350.48
202.19	3243.98
202.41	3014.61
202.63	3028.95
202.85	3405.77
203.07	3327.95
203.29	2904.02
203.51	2799.57
203.73	3147.73
203.95	3764.17
204.17	2830.29
204.39	3012.56
204.61	3256.27
204.83	3200.98
205.05	3039.19
205.27	2869.20
205.49	3770.31
205.71	3246.03
205.93	2779.09
206.15	2789.33
206.37	3311.57
206.59	3286.99
206.81	2705.37
207.03	2738.13
207.25	3176.40
207.47	3342.28
207.69	2883.54
207.91	3131.34
208.13	3645.38
208.34	3174.35
208.56	2815.96
208.78	2844.63
209.00	3164.11
209.22	3108.82
209.44	2899.92
209.66	2807.77
209.88	3377.10
210.10	3184.59
210.32	2891.73
210.54	2895.83
210.76	3196.88
210.98	3477.45
211.20	2775.00
211.42	2992.08
211.64	3532.75
211.86	3330.00
212.08	2951.12
212.30	2875.35
212.52	3235.79
212.74	3260.37
212.96	2975.70
213.17	2932.69
213.39	3424.20
213.61	3688.39
213.83	2766.81
214.05	2723.80
214.27	3491.79
214.49	3057.62
214.71	2811.86
214.93	3008.47
215.15	3268.56
215.37	3422.16
215.59	2729.94
215.81	2885.59
216.03	3540.94
216.24	3291.09
216.46	2834.39
216.68	2916.31
216.90	3385.29
217.12	3450.83
217.34	2869.20
217.56	3012.56
217.78	3573.71
218.00	3426.25
218.22	2910.16
218.44	2967.51
218.66	3291.09
218.87	3749.83
219.09	2947.03
219.31	2881.49
219.53	3282.89
219.75	3190.74
219.97	2865.11
220.19	2949.08
220.41	3215.31
220.63	3559.37
220.85	2940.88
221.06	2944.98
221.28	3585.99
221.50	3491.79
221.72	2811.86
221.94	2781.14
222.16	3379.15
222.38	3545.03
222.60	2797.53
222.82	2887.64
223.03	3485.64
223.25	3024.85
223.47	2830.29
223.69	3106.77
223.91	3481.55
224.13	3377.10
224.35	2760.66
224.57	2901.97
224.78	3413.96
225.00	3164.11
225.22	2959.31
225.44	2850.77
225.66	3497.93
225.88	3241.93
226.10	3026.90
226.32	2877.40
226.53	3616.71
226.75	3188.69
226.97	2987.99
227.19	2852.82
227.41	3102.67
227.63	3108.82
227.85	2707.41
228.06	3000.27
228.28	3327.95
228.50	3534.79
228.72	2762.71
228.94	2779.09
229.16	2820.05
229.37	3014.61
229.59	2713.56
229.81	3076.05
230.03	3243.98
230.25	3049.43
230.47	2715.61
230.69	2795.48
230.90	3467.21
231.12	3117.01
231.34	3012.56
231.56	2947.03
231.78	3104.72
232.00	3280.85
232.21	2865.11
232.43	2889.68
232.65	2867.16
232.87	3368.91
233.09	2686.94
233.30	2844.63
233.52	3598.28
233.74	3256.27
233.96	2783.19
234.18	3049.43
234.40	3270.61
234.61	3706.82
234.83	2764.76
235.05	2926.55
235.27	3690.44
235.49	3557.32
235.70	2746.33
235.92	2959.31
236.14	3360.72
236.36	3704.78
236.58	2756.57
236.79	2926.55
237.01	3352.52
237.23	3256.27
237.45	3028.95
237.67	2912.21
237.88	3512.27
238.10	3602.38
238.32	2719.70
238.54	2787.29
238.76	3256.27
238.97	3094.48
239.19	2772.95
239.41	2914.26
239.63	3489.74
239.85	3172.30
240.06	2869.20
240.28	2824.15
240.50	3557.32
240.72	3272.65
240.93	2740.18
241.15	3028.95
241.37	3311.57
241.59	3549.13
241.81	2752.47
242.02	2930.64
242.24	3336.14
242.46	3418.06
242.68	2779.09
242.89	2822.10
243.11	3452.88
243.33	3241.93
243.55	2979.79
243.76	2918.36
243.98	3151.82
244.20	3278.80
244.42	2891.73
244.64	2748.37
244.85	2951.12
245.07	3057.62
245.29	2957.27
245.51	2897.88
245.72	3330.00
245.94	3461.07
246.16	2848.72
246.38	2852.82
246.59	3205.07
246.81	3157.97
247.03	2846.68
247.24	2758.61
247.46	3164.11
247.68	3413.96
247.90	2830.29
248.11	2871.25
248.33	3465.16
248.55	3270.61
248.77	2893.78
248.98	2981.84
249.20	3674.06
249.42	3305.42
249.64	2719.70
249.85	2787.29
250.07	3196.88
250.29	3432.40
250.50	2897.88
250.72	2797.53
250.94	3350.48
251.16	3776.45
251.37	2848.72
251.59	2967.51
251.81	3295.18
252.02	3534.79
252.24	2807.77
252.46	3012.56
252.68	3117.01
252.89	3149.78
253.11	2736.09
253.33	3012.56
253.54	3581.90
253.76	3035.09
253.98	2822.10
254.20	2779.09
254.41	2975.70
254.63	3176.40
254.85	2742.23
255.06	2990.03
255.28	3264.46
255.50	3205.07
255.71	2846.68
255.93	2713.56
256.15	3233.74
256.36	3364.81
256.58	2754.52
256.80	2770.90
257.02	3213.26
257.23	3231.69
257.45	2910.16
257.67	2930.64
257.88	3200.98
258.10	3424.20
258.32	2877.40
258.53	2908.12
258.75	3583.95
258.97	3180.50
259.18	2758.61
259.40	2856.92
259.62	3663.82
259.83	3583.95
260.05	2949.08
260.27	3792.84
260.48	3483.59
260.70	3069.91
260.92	2748.37
261.13	2856.92
261.35	3377.10
261.57	3373.00
261.78	2807.77
262.00	2746.33
262.22	3375.05
262.43	3135.44
262.65	2867.16
262.86	2846.68
263.08	3755.97
263.30	3346.38
263.51	2754.52
263.73	2793.43
263.95	3639.24
264.16	3125.20
264.38	2662.36
264.60	2777.05
264.81	3221.45
265.03	3434.44
265.25	3311.57
265.46	2815.96
265.68	3520.46
265.89	3426.25
266.11	2746.33
266.33	2873.30
266.54	3516.36
266.76	3436.49
266.98	2959.31
267.19	3082.19
267.41	3485.64
267.62	3250.13
267.84	2699.22
268.06	3026.90
268.27	3424.20
268.49	3489.74
268.70	2965.46
268.92	2852.82
269.14	3051.47
269.35	3043.28
269.57	2934.74
269.79	2869.20
270.00	3108.82
270.22	3659.72
270.43	2775.00
270.65	2779.09
270.87	3303.37
271.08	3403.72
271.30	2928.60
271.51	2772.95
271.73	3422.16
271.95	3516.36
272.16	2863.06
272.38	3008.47
272.59	3143.63
272.81	3403.72
273.02	2768.85
273.24	2906.07
273.46	3504.07
273.67	3045.33
273.89	2682.84
274.10	2904.02
274.32	3553.23
274.54	3377.10
274.75	3043.28
274.97	3000.27
275.18	3420.11
275.40	3422.16
275.61	2904.02
275.83	3018.71
276.05	3033.04
276.26	3254.22
276.48	3020.75
276.69	3039.19
276.91	3215.31
277.12	3565.51
277.34	3022.80
277.55	3182.54
277.77	3307.47
277.99	3286.99
278.20	3055.57
278.42	2893.78
278.63	3127.25
278.85	3151.82
279.06	2971.60
279.28	3102.67
279.49	3440.59
279.71	3395.53
279.93	3084.24
280.14	3026.90
280.36	3162.06
280.57	3549.13
280.79	3125.20
281.00	2863.06
281.22	3184.59
281.43	3463.12
281.65	2770.90
281.86	2983.89
282.08	3393.48
282.29	3708.87
282.51	2861.01
282.73	2856.92
282.94	2912.21
283.16	3559.37
283.37	3133.39
283.59	3045.33
283.80	3426.25
284.02	3231.69
284.23	2971.60
284.45	3035.09
284.66	3057.62
284.88	3094.48
285.09	2889.68
285.31	3125.20
285.52	3375.05
285.74	2994.13
285.95	3088.34
286.17	3026.90
286.38	3459.02
286.60	3151.82
286.81	2969.55
287.03	2947.03
287.24	3254.22
287.46	3389.39
287.67	3162.06
287.89	3176.40
288.10	3248.08
288.32	3303.37
288.53	3137.49
288.75	3041.23
288.96	3426.25
289.18	3143.63
289.39	2947.03
289.61	3104.72
289.82	3710.92
290.04	3719.11
290.25	2895.83
290.47	3012.56
290.68	3286.99
290.90	3516.36
291.11	2787.29
291.33	3143.63
291.54	3155.92
291.76	3133.39
291.97	3051.47
292.18	3155.92
292.40	3145.68
292.61	3137.49
292.83	3291.09
293.04	3117.01
293.26	3332.05
293.47	3209.17
293.69	2881.49
293.90	2938.84
294.12	3545.03
294.33	3258.32
294.55	3090.38
294.76	3114.96
294.97	3590.09
295.19	3696.58
295.40	2940.88
295.62	3041.23
295.83	3399.63
296.05	3168.21
296.26	3286.99
296.48	2949.08
296.69	3286.99
296.90	3205.07
297.12	3157.97
297.33	3123.15
297.55	3311.57
297.76	3385.29
297.98	3125.20
298.19	3170.26
298.41	3215.31
298.62	3149.78
298.83	3196.88
299.05	3131.34
299.26	3237.84
299.48	2942.93
299.69	3037.14
299.90	3000.27
300.12	3170.26
300.33	3442.64
300.55	3053.52
300.76	3057.62
300.98	3074.00
301.19	3413.96
301.40	2992.08
301.62	2985.94
301.83	3377.10
302.05	3327.95
302.26	3065.81
302.47	3086.29
302.69	3041.23
302.90	3295.18
303.12	2770.90
303.33	3069.91
303.54	3626.95
303.76	3160.02
303.97	2985.94
304.19	3194.83
304.40	2979.79
304.61	3364.81
304.83	3076.05
305.04	3059.67
305.26	3493.83
305.47	3168.21
305.68	3033.04
305.90	2861.01
306.11	3467.21
306.33	3223.50
306.54	2867.16
306.75	3012.56
306.97	3002.32
307.18	3098.58
307.39	2971.60
307.61	3139.54
307.82	3141.58
308.04	3385.29
308.25	2914.26
308.46	3114.96
308.68	3211.22
308.89	3239.89
309.10	3100.62
309.32	3002.32
309.53	3274.70
309.74	3364.81
309.96	2856.92
310.17	3074.00
310.39	3291.09
310.60	3471.31
310.81	3065.81
311.03	2992.08
311.24	3430.35
311.45	3303.37
311.67	3200.98
311.88	3051.47
312.09	3143.63
312.31	3135.44
312.52	2932.69
312.73	2987.99
312.95	3008.47
313.16	3024.85
313.37	3192.78
313.59	3243.98
313.80	3391.44
314.01	3585.99
314.23	3028.95
314.44	2924.50
314.65	3043.28
314.87	3219.41
315.08	2967.51
315.29	2981.84
315.51	3088.34
315.72	3045.33
315.93	3061.71
316.15	2979.79
316.36	3256.27
316.57	3280.85
316.79	2967.51
317.00	2967.51
317.21	3516.36
317.43	3092.43
317.64	3086.29
317.85	2979.79
318.07	3078.10
318.28	3174.35
318.49	3080.14
318.70	3176.40
318.92	3379.15
319.13	3409.87
319.34	3188.69
319.56	3018.71
319.77	3426.25
319.98	3448.78
320.20	3350.48
320.41	3200.98
320.62	3424.20
320.83	3080.14
321.05	3166.16
321.26	3049.43
321.47	3323.85
321.69	3555.27
321.90	2947.03
322.11	2932.69
322.32	3360.72
322.54	3604.42
322.75	2979.79
322.96	3999.68
323.18	2953.17
323.39	2861.01
323.60	2944.98
323.81	3102.67
324.03	3168.21
324.24	3262.41
324.45	3078.10
324.66	2934.74
324.88	3463.12
325.09	3594.19
325.30	3022.80
325.52	2899.92
325.73	3377.10
325.94	3088.34
326.15	2852.82
326.37	2961.36
326.58	3497.93
326.79	3629.00
327.00	2873.30
327.22	3033.04
327.43	3176.40
327.64	3037.14
327.85	3127.25
328.07	2987.99
328.28	3667.91
328.49	3246.03
328.70	3008.47
328.92	2959.31
329.13	3268.56
329.34	3334.09
329.55	3266.51
329.76	3098.58
329.98	3252.17
330.19	3557.32
330.40	3049.43
330.61	3028.95
330.83	3397.58
331.04	3076.05
331.25	3137.49
331.46	3057.62
331.68	3176.40
331.89	3479.50
332.10	2938.84
332.31	2893.78
332.52	3309.52
332.74	3583.95
332.95	2838.48
333.16	2908.12
333.37	3436.49
333.58	3174.35
333.80	2983.89
334.01	2795.48
334.22	3246.03
334.43	3114.96
334.64	2936.79
334.86	2887.64
335.07	3088.34
335.28	3542.99
335.49	2863.06
335.70	3108.82
335.92	3594.19
336.13	3715.02
336.34	3141.58
336.55	2961.36
336.76	3352.52
336.98	2967.51
337.19	3039.19
337.40	3082.19
337.61	3755.97
337.82	3184.59
338.04	3078.10
338.25	2795.48
338.46	3260.37
338.67	3284.94
338.88	2891.73
339.09	2899.92
339.31	3153.87
339.52	3053.52
339.73	2955.22
339.94	2924.50
340.15	3465.16
340.36	3180.50
340.58	3057.62
340.79	2947.03
341.00	3358.67
341.21	3057.62
341.42	3256.27
341.63	3055.57
341.85	3489.74
342.06	3377.10
342.27	2979.79
342.48	3198.93
342.69	3016.66
342.90	3370.96
343.12	3377.10
343.33	2967.51
343.54	3463.12
343.75	3502.03
343.96	3059.67
344.17	2977.75
344.38	3256.27
344.60	3112.91
344.81	3000.27
345.02	3024.85
345.23	3469.26
345.44	3792.84
345.65	3135.44
345.86	3094.48
346.07	3325.90
346.29	3149.78
346.50	3213.26
346.71	3178.45
346.92	3510.22
347.13	3696.58
347.34	3065.81
347.55	2885.59
347.76	3370.96
347.98	2967.51
348.19	3131.34
348.40	3123.15
348.61	3151.82
348.82	3569.61
349.03	3059.67
349.24	2846.68
349.45	3641.29
349.66	2904.02
349.88	2973.65
350.09	2871.25
350.30	3575.75
350.51	3528.65
350.72	3237.84
350.93	2965.46
351.14	3209.17
351.35	3373.00
351.56	2957.27
351.77	3065.81
351.99	3407.82
352.20	3512.27
352.41	3137.49
352.62	2781.14
352.83	3286.99
353.04	3303.37
353.25	2971.60
353.46	3065.81
353.67	3452.88
353.88	2844.63
354.09	2947.03
354.30	3076.05
354.52	3383.24
354.73	3221.45
354.94	3026.90
355.15	3026.90
355.36	3653.58
355.57	3084.24
355.78	2879.44
355.99	3037.14
356.20	3211.22
356.41	3469.26
356.62	3096.53
356.83	3071.95
357.04	3518.41
357.25	3002.32
357.46	3065.81
357.68	2926.55
357.89	3160.02
358.10	3225.55
358.31	2994.13
358.52	3065.81
358.73	3049.43
358.94	3108.82
359.15	2955.22
359.36	3065.81
359.57	3305.42
359.78	3239.89
359.99	3190.74
360.20	2908.12
360.41	3268.56
360.62	3381.20
360.83	3164.11
361.04	3061.71
361.25	3344.33
361.46	3682.25
361.67	3117.01
361.88	3033.04
362.09	3446.73
362.30	3405.77
362.51	2975.70
362.72	3098.58
362.93	3430.35
363.14	3385.29
363.35	3102.67
363.56	2926.55
363.78	3475.40
363.99	3467.21
364.20	3008.47
364.41	3133.39
364.62	3620.81
364.83	3401.68
365.04	2959.31
365.25	3035.09
365.46	3688.39
365.67	3190.74
365.88	3176.40
366.09	2953.17
366.30	3237.84
366.51	3278.80
366.72	2936.79
366.93	2934.74
367.14	3291.09
367.35	3590.09
367.56	2924.50
367.77	3131.34
367.98	3217.36
368.18	3366.86
368.39	3162.06
368.60	2910.16
368.81	3411.92
369.02	3344.33
369.23	3020.75
369.44	2871.25
369.65	3268.56
369.86	3381.20
370.07	3121.10
370.28	2820.05
370.49	3416.01
370.70	3319.76
370.91	2926.55
371.12	2916.31
371.33	3547.08
371.54	3227.60
371.75	3127.25
371.96	2766.81
372.17	3391.44
372.38	3237.84
372.59	3055.57
372.80	2944.98
373.01	3203.02
373.22	3286.99
373.43	2963.41
373.64	2879.44
373.85	3491.79
374.06	3614.66
374.26	3211.22
374.47	3088.34
374.68	3512.27
374.89	3352.52
375.10	2901.97
375.31	3045.33
375.52	3313.61
375.73	3274.70
375.94	2897.88
376.15	3155.92
376.36	3123.15
376.57	3203.02
376.78	3076.05
376.99	3078.10
377.20	3497.93
377.40	3235.79
377.61	3307.47
377.82	2938.84
378.03	3583.95
378.24	3401.68
378.45	3088.34
378.66	3090.38
378.87	2926.55
379.08	2981.84
379.29	2987.99
379.50	3178.45
379.71	3223.50
379.91	3317.71
380.12	2967.51
380.33	3117.01
380.54	3319.76
380.75	3229.65
380.96	2983.89
381.17	3026.90
381.38	3237.84
381.59	3342.28
381.80	3092.43
382.00	3266.51
382.21	3375.05
382.42	3680.20
382.63	3377.10
382.84	3117.01
383.05	3422.16
383.26	3516.36
383.47	3157.97
383.68	3008.47
383.88	3450.83
384.09	3323.85
384.30	3336.14
384.51	3123.15
384.72	3194.83
384.93	3053.52
385.14	3117.01
385.35	3330.00
385.55	2983.89
385.76	3483.59
385.97	3059.67
386.18	2897.88
386.39	3147.73
386.60	3121.10
386.81	3014.61
387.02	2869.20
387.22	3049.43
387.43	3385.29
387.64	3160.02
387.85	3291.09
388.06	3389.39
388.27	4497.34
388.48	7919.50
388.68	12209.99
388.89	15062.81
389.10	16635.65
389.31	16156.43
389.52	13125.43
389.73	11312.98
389.93	10323.81
390.14	9203.57
390.35	8632.19
390.56	7905.16
390.77	6627.23
390.98	5023.67
391.18	4186.05
391.39	3868.61
391.60	3426.25
391.81	3352.52
392.02	3164.11
392.23	3710.92
392.43	3317.71
392.64	3059.67
392.85	3141.58
393.06	3661.77
393.27	3266.51
393.47	2998.23
393.68	3074.00
393.89	3172.30
394.10	3516.36
394.31	2934.74
394.52	2936.79
394.72	3205.07
394.93	3504.07
395.14	2914.26
395.35	3155.92
395.56	3102.67
395.76	3176.40
395.97	2959.31
396.18	3123.15
396.39	3164.11
396.60	3829.70
396.80	3399.63
397.01	3260.37
397.22	3434.44
397.43	3569.61
397.64	3035.09
397.84	3106.77
398.05	3663.82
398.26	3289.04
398.47	3114.96
398.67	3248.08
398.88	3254.22
399.09	3418.06
399.30	3114.96
399.51	3102.67
399.71	3172.30
399.92	3196.88
400.13	3164.11
400.34	3033.04
400.54	3264.46
400.75	3672.01
400.96	3184.59
401.17	3338.19
401.37	3319.76
401.58	3291.09
401.79	2947.03
402.00	3180.50
402.21	3807.17
402.41	3598.28
402.62	3354.57
402.83	3499.98
403.04	3698.63
403.24	4061.12
403.45	3207.12
403.66	3395.53
403.87	3524.55
404.07	3598.28
404.28	3278.80
404.49	3428.30
404.70	3391.44
404.90	3416.01
405.11	3074.00
405.32	3069.91
405.52	3209.17
405.73	3110.86
405.94	2994.13
406.15	3100.62
406.35	3452.88
406.56	3434.44
406.77	3104.72
406.98	3004.37
407.18	3114.96
407.39	3618.76
407.60	3106.77
407.80	3200.98
408.01	3217.36
408.22	3418.06
408.43	2871.25
408.63	3209.17
408.84	3452.88
409.05	3430.35
409.25	2944.98
409.46	2959.31
409.67	3200.98
409.88	3178.45
410.08	3086.29
410.29	3024.85
410.50	3434.44
410.70	3383.24
410.91	2908.12
411.12	3112.91
411.32	3332.05
411.53	3131.34
411.74	2990.03
411.95	3143.63
412.15	3364.81
412.36	3440.59
412.57	3315.66
412.77	3260.37
412.98	3207.12
413.19	3135.44
413.39	3217.36
413.60	3053.52
413.81	3553.23
414.01	3123.15
414.22	3090.38
414.43	3262.41
414.63	3184.59
414.84	3383.24
415.05	3123.15
415.25	2893.78
415.46	3465.16
415.67	3149.78
415.87	3082.19
416.08	3043.28
416.29	3209.17
416.49	3387.34
416.70	3114.96
416.91	3049.43
417.11	3192.78
417.32	3520.46
417.53	3065.81
417.73	3149.78
417.94	3194.83
418.15	3350.48
418.35	3069.91
418.56	3110.86
418.77	3733.45
418.97	3346.38
419.18	3108.82
419.38	2682.84
419.59	3246.03
419.80	3549.13
420.00	2951.12
420.21	3043.28
420.42	3569.61
420.62	3393.48
420.83	3037.14
421.04	3002.32
421.24	3286.99
421.45	3436.49
421.65	3102.67
421.86	3106.77
422.07	3452.88
422.27	3352.52
422.48	2979.79
422.69	2854.87
422.89	3319.76
423.10	3229.65
423.30	2932.69
423.51	3147.73
423.72	3311.57
423.92	3465.16
424.13	2901.97
424.33	3121.10
424.54	3440.59
424.75	3264.46
424.95	3375.05
425.16	3014.61
425.36	3311.57
425.57	3493.83
425.78	3135.44
425.98	3133.39
426.19	3180.50
426.39	3162.06
426.60	3205.07
426.81	3262.41
427.01	3330.00
427.22	3110.86
427.42	2904.02
427.63	3000.27
427.83	3379.15
428.04	3737.54
428.25	3098.58
428.45	3184.59
428.66	3571.66
428.86	3282.89
429.07	3080.14
429.28	3104.72
429.48	3278.80
429.69	3114.96
429.89	3149.78
430.10	3028.95
430.30	3391.44
430.51	3422.16
430.71	3069.91
430.92	3137.49
431.13	3254.22
431.33	3397.58
431.54	3133.39
431.74	3254.22
431.95	3755.97
432.15	3086.29
432.36	3043.28
432.56	3104.72
432.77	3725.26
432.98	3682.25
433.18	3127.25
433.39	2914.26
433.59	3241.93
433.80	3753.93
434.00	3319.76
434.21	3049.43
434.41	3147.73
434.62	3731.40
434.82	2938.84
435.03	3008.47
435.23	3364.81
435.44	3000.27
435.64	3000.27
435.85	3149.78
436.06	3393.48
436.26	3469.26
436.47	3026.90
436.67	3041.23
436.88	3203.02
437.08	3418.06
437.29	3108.82
437.49	3223.50
437.70	3483.59
437.90	3221.45
438.11	3297.23
438.31	3057.62
438.52	3555.27
438.72	3487.69
438.93	3336.14
439.13	3143.63
439.34	3518.41
439.54	3149.78
439.75	3129.30
439.95	3213.26
440.16	3129.30
440.36	3327.95
440.57	3076.05
440.77	3026.90
440.98	3217.36
441.18	3336.14
441.39	3006.42
441.59	2910.16
441.80	3672.01
442.00	3188.69
442.21	3192.78
442.41	2992.08
442.62	3485.64
442.82	3217.36
443.02	3030.99
443.23	3065.81
443.43	3211.22
443.64	3551.18
443.84	2930.64
444.05	3092.43
444.25	3356.62
444.46	3215.31
444.66	3033.04
444.87	3241.93
445.07	3016.66
445.28	3205.07
445.48	3297.23
445.69	3155.92
445.89	3809.22
446.09	3213.26
446.30	3368.91
446.50	3473.36
446.71	5070.77
446.91	6268.83
447.12	7149.46
447.32	7669.64
447.53	7731.08
447.73	6479.77
447.93	5506.99
448.14	5279.66
448.34	5449.64
448.55	4661.18
448.75	4505.53
448.96	4112.32
449.16	4050.88
449.36	3975.11
449.57	3342.28
449.77	3155.92
449.98	3211.22
450.18	3362.76
450.39	2985.94
450.59	3196.88
450.79	3162.06
451.00	3100.62
451.20	3260.37
451.41	3092.43
451.61	3385.29
451.81	3246.03
452.02	3057.62
452.22	3041.23
452.43	3133.39
