SpectraSuite Data File
++++++++++++++++++++++++++++++++++++
Date: Fri May 06 08:13:44 CEST 2016
User: root
Dark Spectrum Present: No
Reference Spectrum Present: No
Number of Sampled Component Spectra: 1
Spectrometers: USB4C02835
Integration Time (usec): 100000 (USB4C02835)
Spectra Averaged: 1 (USB4C02835)
Boxcar Smoothing: 0 (USB4C02835)
Correct for Electrical Dark: No (USB4C02835)
Strobe/Lamp Enabled: No (USB4C02835)
Correct for Detector Non-linearity: No (USB4C02835)
Correct for Stray Light: No (USB4C02835)
Number of Pixels in Processed Spectrum: 3648
>>>>>Begin Processed Spectral Data<<<<<
177.47	2252.77
177.69	2252.77
177.91	2252.77
178.13	2269.15
178.36	2267.10
178.58	2990.03
178.80	3168.21
179.02	2961.36
179.24	3030.99
179.46	2729.94
179.68	2797.53
179.90	3182.54
180.13	3282.89
180.35	2701.27
180.57	2795.48
180.79	3395.53
181.01	3258.32
181.23	2854.87
181.45	2983.89
181.67	3364.81
181.90	3422.16
182.12	2914.26
182.34	2707.41
182.56	3360.72
182.78	3344.33
183.00	2824.15
183.22	2852.82
183.44	2879.44
183.66	3909.57
183.89	2987.99
184.11	2854.87
184.33	3403.72
184.55	3540.94
184.77	2852.82
184.99	2891.73
185.21	3221.45
185.43	3803.08
185.65	2889.68
185.87	2793.43
186.10	3784.65
186.32	3729.35
186.54	2985.94
186.76	2947.03
186.98	3569.61
187.20	3325.90
187.42	2893.78
187.64	2889.68
187.86	3278.80
188.08	3530.70
188.30	2805.72
188.52	2881.49
188.75	3479.50
188.97	3499.98
189.19	2779.09
189.41	2830.29
189.63	3358.67
189.85	3168.21
190.07	2785.24
190.29	2684.89
190.51	3313.61
190.73	3045.33
190.95	3065.81
191.17	2926.55
191.39	2981.84
191.61	3248.08
191.84	2836.44
192.06	2971.60
192.28	3016.66
192.50	3917.76
192.72	3047.38
192.94	2975.70
193.16	3528.65
193.38	3301.33
193.60	2768.85
193.82	3059.67
194.04	3508.17
194.26	3454.92
194.48	2889.68
194.70	2875.35
194.92	3139.54
195.14	3377.10
195.36	2846.68
195.58	2934.74
195.80	3219.41
196.02	3188.69
196.24	2768.85
196.46	2981.84
196.69	3209.17
196.91	3837.89
197.13	2981.84
197.35	2891.73
197.57	3672.01
197.79	3477.45
198.01	2873.30
198.23	2842.58
198.45	3346.38
198.67	3041.23
198.89	2770.90
199.11	2926.55
199.33	3102.67
199.55	2877.40
199.77	2793.43
199.99	2963.41
200.21	3239.89
200.43	3413.96
200.65	2738.13
200.87	2707.41
201.09	3332.05
201.31	3246.03
201.53	2971.60
201.75	2899.92
201.97	3377.10
202.19	3344.33
202.41	2922.45
202.63	2920.40
202.85	3405.77
203.07	3319.76
203.29	2955.22
203.51	2775.00
203.73	3110.86
203.95	3831.75
204.17	2850.77
204.39	3033.04
204.61	3266.51
204.83	3182.54
205.05	3008.47
205.27	2877.40
205.49	3895.24
205.71	3219.41
205.93	2770.90
206.15	2754.52
206.37	3266.51
206.59	3239.89
206.81	2713.56
207.03	2699.22
207.25	3106.77
207.47	3426.25
207.69	2897.88
207.91	3102.67
208.13	3610.57
208.34	3139.54
208.56	2795.48
208.78	2832.34
209.00	3211.22
209.22	3205.07
209.44	2885.59
209.66	2820.05
209.88	3381.20
210.10	3215.31
210.32	2846.68
210.54	2912.21
210.76	3250.13
210.98	3450.83
211.20	2770.90
211.42	3049.43
211.64	3487.69
211.86	3352.52
212.08	2920.40
212.30	2879.44
212.52	3231.69
212.74	3325.90
212.96	2969.55
213.17	2893.78
213.39	3387.34
213.61	3653.58
213.83	2820.05
214.05	2746.33
214.27	3497.93
214.49	2979.79
214.71	2854.87
214.93	2987.99
215.15	3246.03
215.37	3471.31
215.59	2717.65
215.81	2959.31
216.03	3559.37
216.24	3192.78
216.46	2879.44
216.68	2858.96
216.90	3440.59
217.12	3536.84
217.34	2815.96
217.56	2971.60
217.78	3600.33
218.00	3401.68
218.22	2936.79
218.44	3014.61
218.66	3293.13
218.87	3672.01
219.09	2924.50
219.31	2916.31
219.53	3264.46
219.75	3174.35
219.97	2987.99
220.19	2975.70
220.41	3278.80
220.63	3669.96
220.85	2854.87
221.06	2820.05
221.28	3573.71
221.50	3319.76
221.72	2854.87
221.94	2783.19
222.16	3360.72
222.38	3448.78
222.60	2901.97
222.82	2865.11
223.03	3413.96
223.25	3033.04
223.47	2820.05
223.69	3084.24
223.91	3524.55
224.13	3260.37
224.35	2764.76
224.57	3059.67
224.78	3489.74
225.00	3094.48
225.22	3004.37
225.44	2822.10
225.66	3497.93
225.88	3241.93
226.10	3014.61
226.32	2924.50
226.53	3536.84
226.75	3180.50
226.97	2942.93
227.19	2877.40
227.41	3147.73
227.63	3112.91
227.85	2627.54
228.06	2949.08
228.28	3364.81
228.50	3475.40
228.72	2715.61
228.94	2901.97
229.16	2904.02
229.37	3092.43
229.59	2736.09
229.81	3069.91
230.03	3164.11
230.25	3069.91
230.47	2648.02
230.69	2848.72
230.90	3524.55
231.12	3127.25
231.34	2981.84
231.56	2877.40
231.78	3084.24
232.00	3246.03
232.21	2918.36
232.43	2893.78
232.65	2947.03
232.87	3385.29
233.09	2738.13
233.30	2861.01
233.52	3559.37
233.74	3254.22
233.96	2873.30
234.18	3076.05
234.40	3235.79
234.61	3794.89
234.83	2775.00
235.05	2818.00
235.27	3833.80
235.49	3536.84
235.70	2744.28
235.92	2977.75
236.14	3327.95
236.36	3745.73
236.58	2756.57
236.79	3024.85
237.01	3319.76
237.23	3340.24
237.45	3018.71
237.67	2852.82
237.88	3403.72
238.10	3585.99
238.32	2811.86
238.54	2838.48
238.76	3286.99
238.97	3018.71
239.19	2781.14
239.41	2889.68
239.63	3547.08
239.85	3174.35
240.06	2867.16
240.28	2959.31
240.50	3532.75
240.72	3215.31
240.93	2772.95
241.15	2967.51
241.37	3311.57
241.59	3585.99
241.81	2863.06
242.02	2963.41
242.24	3266.51
242.46	3426.25
242.68	2662.36
242.89	2895.83
243.11	3450.83
243.33	3196.88
243.55	2883.54
243.76	2926.55
243.98	3133.39
244.20	3286.99
244.42	2834.39
244.64	2893.78
244.85	3008.47
245.07	3184.59
245.29	2848.72
245.51	2985.94
245.72	3366.86
245.94	3524.55
246.16	2830.29
246.38	2944.98
246.59	3198.93
246.81	3086.29
247.03	2781.14
247.24	2699.22
247.46	3174.35
247.68	3360.72
247.90	2820.05
248.11	2908.12
248.33	3456.97
248.55	3297.23
248.77	2873.30
248.98	2947.03
249.20	3620.81
249.42	3385.29
249.64	2875.35
249.85	2781.14
250.07	3174.35
250.29	3407.82
250.50	2942.93
250.72	2807.77
250.94	3327.95
251.16	3749.83
251.37	2889.68
251.59	2897.88
251.81	3364.81
252.02	3516.36
252.24	2777.05
252.46	3030.99
252.68	3078.10
252.89	3069.91
253.11	2709.46
253.33	3010.51
253.54	3608.52
253.76	3094.48
253.98	2811.86
254.20	2875.35
254.41	3012.56
254.63	3196.88
254.85	2734.04
255.06	2998.23
255.28	3307.47
255.50	3264.46
255.71	2865.11
255.93	2650.07
256.15	3227.60
256.36	3401.68
256.58	2676.70
256.80	2795.48
257.02	3286.99
257.23	3237.84
257.45	2912.21
257.67	3123.15
257.88	3196.88
258.10	3319.76
258.32	2858.96
258.53	2926.55
258.75	3637.19
258.97	3178.45
259.18	2709.46
259.40	2781.14
259.62	3594.19
259.83	3592.14
260.05	2858.96
260.27	3762.12
260.48	3409.87
260.70	3149.78
260.92	2801.62
261.13	2865.11
261.35	3422.16
261.57	3360.72
261.78	2721.75
262.00	2807.77
262.22	3368.91
262.43	3106.77
262.65	2922.45
262.86	2901.97
263.08	3805.13
263.30	3295.18
263.51	2674.65
263.73	2807.77
263.95	3616.71
264.16	3176.40
264.38	2852.82
264.60	2809.81
264.81	3270.61
265.03	3495.88
265.25	3319.76
265.46	2861.01
265.68	3542.99
265.89	3424.20
266.11	2731.99
266.33	2861.01
266.54	3542.99
266.76	3336.14
266.98	2947.03
267.19	3094.48
267.41	3559.37
267.62	3256.27
267.84	2607.06
268.06	2944.98
268.27	3272.65
268.49	3483.59
268.70	2947.03
268.92	2895.83
269.14	3121.10
269.35	3016.66
269.57	3035.09
269.79	2930.64
270.00	3157.97
270.22	3631.05
270.43	2820.05
270.65	2674.65
270.87	3348.43
271.08	3450.83
271.30	2936.79
271.51	2781.14
271.73	3368.91
271.95	3592.14
272.16	2787.29
272.38	3053.52
272.59	3117.01
272.81	3360.72
273.02	2764.76
273.24	3008.47
273.46	3510.22
273.67	3041.23
273.89	2727.89
274.10	2822.10
274.32	3540.94
274.54	3346.38
274.75	2848.72
274.97	2977.75
275.18	3483.59
275.40	3393.48
275.61	2879.44
275.83	2963.41
276.05	3155.92
276.26	3303.37
276.48	3022.80
276.69	3033.04
276.91	3196.88
277.12	3598.28
277.34	3006.42
277.55	3108.82
277.77	3268.56
277.99	3207.12
278.20	3020.75
278.42	2838.48
278.63	3174.35
278.85	3069.91
279.06	2895.83
279.28	3088.34
279.49	3542.99
279.71	3360.72
279.93	3010.51
280.14	3045.33
280.36	3180.50
280.57	3483.59
280.79	3127.25
281.00	2875.35
281.22	3188.69
281.43	3577.80
281.65	2805.72
281.86	2871.25
282.08	3385.29
282.29	3712.97
282.51	2846.68
282.73	2863.06
282.94	2979.79
283.16	3430.35
283.37	3045.33
283.59	2930.64
283.80	3278.80
284.02	3225.55
284.23	2965.46
284.45	3018.71
284.66	3106.77
284.88	3119.06
285.09	2928.60
285.31	3033.04
285.52	3389.39
285.74	2914.26
285.95	3182.54
286.17	3057.62
286.38	3577.80
286.60	3125.20
286.81	2930.64
287.03	3010.51
287.24	3373.00
287.46	3469.26
287.67	3098.58
287.89	3141.58
288.10	3280.85
288.32	3397.58
288.53	3114.96
288.75	2996.18
288.96	3434.44
289.18	3147.73
289.39	2885.59
289.61	3106.77
289.82	3782.60
290.04	3733.45
290.25	2895.83
290.47	3065.81
290.68	3278.80
290.90	3428.30
291.11	2795.48
291.33	3123.15
291.54	3219.41
291.76	3080.14
291.97	3098.58
292.18	3106.77
292.40	3074.00
292.61	3207.12
292.83	3307.47
293.04	2947.03
293.26	3274.70
293.47	3262.41
293.69	2912.21
293.90	2936.79
294.12	3534.79
294.33	3254.22
294.55	3086.29
294.76	3270.61
294.97	3491.79
295.19	3715.02
295.40	2944.98
295.62	3090.38
295.83	3401.68
296.05	3149.78
296.26	3219.41
296.48	3016.66
296.69	3291.09
296.90	3291.09
297.12	3108.82
297.33	3112.91
297.55	3325.90
297.76	3338.19
297.98	3157.97
298.19	3205.07
298.41	3260.37
298.62	3135.44
298.83	3286.99
299.05	3133.39
299.26	3203.02
299.48	3123.15
299.69	3045.33
299.90	2969.55
300.12	3119.06
300.33	3465.16
300.55	3051.47
300.76	3039.19
300.98	3147.73
301.19	3420.11
301.40	2983.89
301.62	2949.08
301.83	3420.11
302.05	3356.62
302.26	2983.89
302.47	3153.87
302.69	3106.77
302.90	3362.76
303.12	2770.90
303.33	3049.43
303.54	3608.52
303.76	3117.01
303.97	2979.79
304.19	3219.41
304.40	3106.77
304.61	3297.23
304.83	3121.10
305.04	3076.05
305.26	3540.94
305.47	3125.20
305.68	3041.23
305.90	2906.07
306.11	3569.61
306.33	3229.65
306.54	2908.12
306.75	2994.13
306.97	2998.23
307.18	3114.96
307.39	2951.12
307.61	3096.53
307.82	3221.45
308.04	3346.38
308.25	2820.05
308.46	3160.02
308.68	3334.09
308.89	3352.52
309.10	3133.39
309.32	3057.62
309.53	3229.65
309.74	3393.48
309.96	2901.97
310.17	3209.17
310.39	3243.98
310.60	3385.29
310.81	2961.36
311.03	2938.84
311.24	3352.52
311.45	3280.85
311.67	3243.98
311.88	3078.10
312.09	3260.37
312.31	3182.54
312.52	2912.21
312.73	2936.79
312.95	3020.75
313.16	3053.52
313.37	3168.21
313.59	3166.16
313.80	3424.20
314.01	3665.86
314.23	3039.19
314.44	2955.22
314.65	3049.43
314.87	3123.15
315.08	2983.89
315.29	3004.37
315.51	3078.10
315.72	2953.17
315.93	3051.47
316.15	3098.58
316.36	3284.94
316.57	3307.47
316.79	3041.23
317.00	2944.98
317.21	3348.43
317.43	3123.15
317.64	3059.67
317.85	2858.96
318.07	3141.58
318.28	3125.20
318.49	3080.14
318.70	3272.65
318.92	3399.63
319.13	3370.96
319.34	3160.02
319.56	3067.86
319.77	3350.48
319.98	3422.16
320.20	3262.41
320.41	3176.40
320.62	3418.06
320.83	3123.15
321.05	3237.84
321.26	3049.43
321.47	3319.76
321.69	3567.56
321.90	2873.30
322.11	2891.73
322.32	3307.47
322.54	3608.52
322.75	3024.85
322.96	4007.87
323.18	3010.51
323.39	2922.45
323.60	2926.55
323.81	3090.38
324.03	3149.78
324.24	3256.27
324.45	3123.15
324.66	2963.41
324.88	3575.75
325.09	3643.34
325.30	2944.98
325.52	2887.64
325.73	3373.00
325.94	3194.83
326.15	2861.01
326.37	2848.72
326.58	3497.93
326.79	3633.10
327.00	2924.50
327.22	2985.94
327.43	3160.02
327.64	3039.19
327.85	3166.16
328.07	3045.33
328.28	3762.12
328.49	3196.88
328.70	3096.53
328.92	2967.51
329.13	3262.41
329.34	3368.91
329.55	3233.74
329.76	3141.58
329.98	3219.41
330.19	3569.61
330.40	3133.39
330.61	3164.11
330.83	3426.25
331.04	3108.82
331.25	3117.01
331.46	3012.56
331.68	3026.90
331.89	3510.22
332.10	3114.96
332.31	2803.67
332.52	3342.28
332.74	3510.22
332.95	2768.85
333.16	2990.03
333.37	3530.70
333.58	3100.62
333.80	3053.52
334.01	2775.00
334.22	3241.93
334.43	3106.77
334.64	2891.73
334.86	2854.87
335.07	3157.97
335.28	3631.05
335.49	2867.16
335.70	3098.58
335.92	3545.03
336.13	3733.45
336.34	3067.86
336.55	2969.55
336.76	3295.18
336.98	2893.78
337.19	2971.60
337.40	3106.77
337.61	3858.37
337.82	3198.93
338.04	3125.20
338.25	2865.11
338.46	3223.50
338.67	3164.11
338.88	2863.06
339.09	2867.16
339.31	3203.02
339.52	2959.31
339.73	2963.41
339.94	3037.14
340.15	3377.10
340.36	3180.50
340.58	3004.37
340.79	2895.83
341.00	3401.68
341.21	3127.25
341.42	3190.74
341.63	3055.57
341.85	3442.64
342.06	3311.57
342.27	2904.02
342.48	3127.25
342.69	3026.90
342.90	3401.68
343.12	3315.66
343.33	2893.78
343.54	3483.59
343.75	3577.80
343.96	3151.82
344.17	2914.26
344.38	3235.79
344.60	3106.77
344.81	2938.84
345.02	3035.09
345.23	3528.65
345.44	3866.56
345.65	2965.46
345.86	3121.10
346.07	3286.99
346.29	3164.11
346.50	3200.98
346.71	3090.38
346.92	3491.79
347.13	3704.78
347.34	3098.58
347.55	2818.00
347.76	3387.34
347.98	3000.27
348.19	3014.61
348.40	3243.98
348.61	3196.88
348.82	3626.95
349.03	3121.10
349.24	2899.92
349.45	3725.26
349.66	2912.21
349.88	2983.89
350.09	2947.03
350.30	3598.28
350.51	3504.07
350.72	3182.54
350.93	2967.51
351.14	3205.07
351.35	3366.86
351.56	3028.95
351.77	3026.90
351.99	3346.38
352.20	3553.23
352.41	3164.11
352.62	2836.44
352.83	3231.69
353.04	3309.52
353.25	2994.13
353.46	2983.89
353.67	3545.03
353.88	2838.48
354.09	2910.16
354.30	3033.04
354.52	3366.86
354.73	3293.13
354.94	2996.18
355.15	3065.81
355.36	3696.58
355.57	3223.50
355.78	2944.98
355.99	3074.00
356.20	3221.45
356.41	3557.32
356.62	3051.47
356.83	3024.85
357.04	3499.98
357.25	3008.47
357.46	2973.65
357.68	2820.05
357.89	3082.19
358.10	3278.80
358.31	2924.50
358.52	3090.38
358.73	3157.97
358.94	3039.19
359.15	3033.04
359.36	3065.81
359.57	3254.22
359.78	3252.17
359.99	3207.12
360.20	2883.54
360.41	3303.37
360.62	3418.06
360.83	3155.92
361.04	3000.27
361.25	3299.28
361.46	3639.24
361.67	3063.76
361.88	2998.23
362.09	3438.54
362.30	3332.05
362.51	2924.50
362.72	3110.86
362.93	3516.36
363.14	3336.14
363.35	3049.43
363.56	2934.74
363.78	3559.37
363.99	3518.41
364.20	3069.91
364.41	3076.05
364.62	3661.77
364.83	3303.37
365.04	2983.89
365.25	2942.93
365.46	3723.21
365.67	3151.82
365.88	3205.07
366.09	3008.47
366.30	3229.65
366.51	3319.76
366.72	2961.36
366.93	2957.27
367.14	3274.70
367.35	3542.99
367.56	2994.13
367.77	3157.97
367.98	3321.81
368.18	3407.82
368.39	3100.62
368.60	2987.99
368.81	3413.96
369.02	3397.58
369.23	3028.95
369.44	2854.87
369.65	3190.74
369.86	3332.05
370.07	3125.20
370.28	2861.01
370.49	3338.19
370.70	3315.66
370.91	2963.41
371.12	2910.16
371.33	3577.80
371.54	3129.30
371.75	3160.02
371.96	2717.65
372.17	3360.72
372.38	3174.35
372.59	3010.51
372.80	2955.22
373.01	3221.45
373.22	3278.80
373.43	3006.42
373.64	2932.69
373.85	3547.08
374.06	3653.58
374.26	3182.54
374.47	3139.54
374.68	3561.42
374.89	3264.46
375.10	2904.02
375.31	3059.67
375.52	3348.43
375.73	3403.72
375.94	2834.39
376.15	3082.19
376.36	3174.35
376.57	3231.69
376.78	2969.55
376.99	3041.23
377.20	3512.27
377.40	3233.74
377.61	3278.80
377.82	3000.27
378.03	3567.56
378.24	3524.55
378.45	3057.62
378.66	3119.06
378.87	2994.13
379.08	2969.55
379.29	3000.27
379.50	3188.69
379.71	3289.04
379.91	3461.07
380.12	3010.51
380.33	3145.68
380.54	3254.22
380.75	3239.89
380.96	2922.45
381.17	3043.28
381.38	3243.98
381.59	3295.18
381.80	3074.00
382.00	3123.15
382.21	3311.57
382.42	3542.99
382.63	3344.33
382.84	3123.15
383.05	3479.50
383.26	3590.09
383.47	3223.50
383.68	2967.51
383.88	3475.40
384.09	3370.96
384.30	3090.38
384.51	3006.42
384.72	3252.17
384.93	3069.91
385.14	3051.47
385.35	3250.13
385.55	2983.89
385.76	3452.88
385.97	3012.56
386.18	2916.31
386.39	3098.58
386.60	3188.69
386.81	2957.27
387.02	2897.88
387.22	3012.56
387.43	3418.06
387.64	3067.86
387.85	3241.93
388.06	3346.38
388.27	4351.93
388.48	7841.67
388.68	12035.91
388.89	15253.27
389.10	16453.38
389.31	16326.41
389.52	12961.59
389.73	11194.20
389.93	10403.68
390.14	9185.14
390.35	8724.35
390.56	7923.59
390.77	6510.49
390.98	4990.90
391.18	4198.34
391.39	3831.75
391.60	3315.66
391.81	3332.05
392.02	3057.62
392.23	3770.31
392.43	3352.52
392.64	3192.78
392.85	3162.06
393.06	3635.14
393.27	3174.35
393.47	3014.61
393.68	3059.67
393.89	3215.31
394.10	3528.65
394.31	2963.41
394.52	2953.17
394.72	3106.77
394.93	3592.14
395.14	2957.27
395.35	3106.77
395.56	3166.16
395.76	3252.17
395.97	3014.61
396.18	3121.10
396.39	3209.17
396.60	3971.01
396.80	3389.39
397.01	3299.28
397.22	3487.69
397.43	3368.91
397.64	3030.99
397.84	3123.15
398.05	3731.40
398.26	3256.27
398.47	3172.30
398.67	3235.79
398.88	3246.03
399.09	3379.15
399.30	2990.03
399.51	3059.67
399.71	3221.45
399.92	3256.27
400.13	3172.30
400.34	3008.47
400.54	3319.76
400.75	3629.00
400.96	3164.11
401.17	3313.61
401.37	3489.74
401.58	3274.70
401.79	2938.84
402.00	3196.88
402.21	3778.50
402.41	3344.33
402.62	3352.52
402.83	3516.36
403.04	3772.36
403.24	4138.94
403.45	3123.15
403.66	3403.72
403.87	3565.51
404.07	3663.82
404.28	3319.76
404.49	3295.18
404.70	3426.25
404.90	3381.20
405.11	3014.61
405.32	3166.16
405.52	3209.17
405.73	3157.97
405.94	2891.73
406.15	3112.91
406.35	3350.48
406.56	3352.52
406.77	3041.23
406.98	2992.08
407.18	3157.97
407.39	3614.66
407.60	3108.82
407.80	3139.54
408.01	3237.84
408.22	3389.39
408.43	2901.97
408.63	3186.64
408.84	3422.16
409.05	3401.68
409.25	2944.98
409.46	2971.60
409.67	3151.82
409.88	3168.21
410.08	3104.72
410.29	3090.38
410.50	3540.94
410.70	3383.24
410.91	2979.79
411.12	3078.10
411.32	3299.28
411.53	3168.21
411.74	3008.47
411.95	3106.77
412.15	3336.14
412.36	3483.59
412.57	3172.30
412.77	3213.26
412.98	3295.18
413.19	3168.21
413.39	3100.62
413.60	3067.86
413.81	3542.99
414.01	3020.75
414.22	3010.51
414.43	3239.89
414.63	3213.26
414.84	3397.58
415.05	3114.96
415.25	2934.74
415.46	3370.96
415.67	3125.20
415.87	3041.23
416.08	3076.05
416.29	3205.07
416.49	3491.79
416.70	3110.86
416.91	3090.38
417.11	3219.41
417.32	3450.83
417.53	3123.15
417.73	3145.68
417.94	3336.14
418.15	3307.47
418.35	3104.72
418.56	3129.30
418.77	3798.98
418.97	3377.10
419.18	3074.00
419.38	2758.61
419.59	3291.09
419.80	3594.19
420.00	2926.55
420.21	3143.63
420.42	3565.51
420.62	3334.09
420.83	2996.18
421.04	3039.19
421.24	3229.65
421.45	3416.01
421.65	3076.05
421.86	3092.43
422.07	3401.68
422.27	3407.82
422.48	2932.69
422.69	2951.12
422.89	3344.33
423.10	3282.89
423.30	3010.51
423.51	3065.81
423.72	3413.96
423.92	3438.54
424.13	2910.16
424.33	3196.88
424.54	3432.40
424.75	3321.81
424.95	3246.03
425.16	2996.18
425.36	3221.45
425.57	3600.33
425.78	3170.26
425.98	3205.07
426.19	3184.59
426.39	3125.20
426.60	3178.45
426.81	3166.16
427.01	3305.42
427.22	3155.92
427.42	2850.77
427.63	2963.41
427.83	3577.80
428.04	3583.95
428.25	3078.10
428.45	3127.25
428.66	3520.46
428.86	3164.11
429.07	3084.24
429.28	3051.47
429.48	3260.37
429.69	3129.30
429.89	3168.21
430.10	3004.37
430.30	3471.31
430.51	3522.51
430.71	3016.66
430.92	3129.30
431.13	3213.26
431.33	3336.14
431.54	3248.08
431.74	3360.72
431.95	3682.25
432.15	3186.64
432.36	3059.67
432.56	3151.82
432.77	3665.86
432.98	3665.86
433.18	3125.20
433.39	2947.03
433.59	3346.38
433.80	3747.78
434.00	3188.69
434.21	3074.00
434.41	3141.58
434.62	3852.23
434.82	2897.88
435.03	3012.56
435.23	3366.86
435.44	2979.79
435.64	2875.35
435.85	3151.82
436.06	3434.44
436.26	3512.27
436.47	3106.77
436.67	3028.95
436.88	3221.45
437.08	3532.75
437.29	3188.69
437.49	3151.82
437.70	3491.79
437.90	3299.28
438.11	3272.65
438.31	3139.54
438.52	3573.71
438.72	3557.32
438.93	3311.57
439.13	3155.92
439.34	3456.97
439.54	3291.09
439.75	3256.27
439.95	3047.38
440.16	3172.30
440.36	3262.41
440.57	3084.24
440.77	3045.33
440.98	3178.45
441.18	3403.72
441.39	2924.50
441.59	2975.70
441.80	3710.92
442.00	3184.59
442.21	3170.26
442.41	2869.20
442.62	3516.36
442.82	3160.02
443.02	3043.28
443.23	3045.33
443.43	3215.31
443.64	3432.40
443.84	2944.98
444.05	3123.15
444.25	3309.52
444.46	3135.44
444.66	3059.67
444.87	3284.94
445.07	2920.40
445.28	3194.83
445.48	3241.93
445.69	3149.78
445.89	3807.17
446.09	3299.28
446.30	3393.48
446.50	3432.40
446.71	5023.67
446.91	6330.27
447.12	7169.94
447.32	7583.63
447.53	7751.56
447.73	6334.37
447.93	5541.80
448.14	5326.77
448.34	5568.43
448.55	4515.77
448.75	4464.57
448.96	4280.25
449.16	4163.52
449.36	3979.20
449.57	3332.05
449.77	3114.96
449.98	3248.08
450.18	3424.20
450.39	3008.47
450.59	3303.37
450.79	3311.57
451.00	3168.21
451.20	3241.93
451.41	3074.00
451.61	3282.89
451.81	3223.50
452.02	2983.89
452.22	3092.43
452.43	3223.50
