SpectraSuite Data File
++++++++++++++++++++++++++++++++++++
Date: Fri May 06 08:13:47 CEST 2016
User: root
Dark Spectrum Present: No
Reference Spectrum Present: No
Number of Sampled Component Spectra: 1
Spectrometers: USB4C02835
Integration Time (usec): 100000 (USB4C02835)
Spectra Averaged: 1 (USB4C02835)
Boxcar Smoothing: 0 (USB4C02835)
Correct for Electrical Dark: No (USB4C02835)
Strobe/Lamp Enabled: No (USB4C02835)
Correct for Detector Non-linearity: No (USB4C02835)
Correct for Stray Light: No (USB4C02835)
Number of Pixels in Processed Spectrum: 3648
>>>>>Begin Processed Spectral Data<<<<<
177.47	2269.15
177.69	2269.15
177.91	2269.15
178.13	2252.77
178.36	2199.52
178.58	2969.55
178.80	3139.54
179.02	2953.17
179.24	3078.10
179.46	2775.00
179.68	2795.48
179.90	3229.65
180.13	3352.52
180.35	2727.89
180.57	2818.00
180.79	3459.02
181.01	3246.03
181.23	2844.63
181.45	3033.04
181.67	3428.30
181.90	3438.54
182.12	2947.03
182.34	2672.60
182.56	3497.93
182.78	3352.52
183.00	2861.01
183.22	2885.59
183.44	2955.22
183.66	3991.49
183.89	3041.23
184.11	2918.36
184.33	3356.62
184.55	3506.12
184.77	2803.67
184.99	2906.07
185.21	3209.17
185.43	3778.50
185.65	2877.40
185.87	2815.96
186.10	3825.61
186.32	3753.93
186.54	2932.69
186.76	2951.12
186.98	3461.07
187.20	3252.17
187.42	2885.59
187.64	2811.86
187.86	3399.63
188.08	3557.32
188.30	2770.90
188.52	2967.51
188.75	3598.28
188.97	3557.32
189.19	2891.73
189.41	2861.01
189.63	3377.10
189.85	3196.88
190.07	2785.24
190.29	2795.48
190.51	3385.29
190.73	3037.14
190.95	3018.71
191.17	2906.07
191.39	2975.70
191.61	3217.36
191.84	2809.81
192.06	3002.32
192.28	2973.65
192.50	3966.92
192.72	3010.51
192.94	2969.55
193.16	3508.17
193.38	3403.72
193.60	2865.11
193.82	3102.67
194.04	3469.26
194.26	3387.34
194.48	2848.72
194.70	2918.36
194.92	3250.13
195.14	3346.38
195.36	2824.15
195.58	2979.79
195.80	3223.50
196.02	3092.43
196.24	2805.72
196.46	2926.55
196.69	3172.30
196.91	3739.59
197.13	2942.93
197.35	2828.24
197.57	3655.62
197.79	3403.72
198.01	2901.97
198.23	2910.16
198.45	3368.91
198.67	3092.43
198.89	2711.51
199.11	2955.22
199.33	3114.96
199.55	2930.64
199.77	2846.68
199.99	3055.57
200.21	3225.55
200.43	3327.95
200.65	2713.56
200.87	2772.95
201.09	3295.18
201.31	3280.85
201.53	2924.50
201.75	2963.41
201.97	3413.96
202.19	3266.51
202.41	2932.69
202.63	2996.18
202.85	3330.00
203.07	3309.52
203.29	2975.70
203.51	2723.80
203.73	3114.96
203.95	3747.78
204.17	2885.59
204.39	2971.60
204.61	3295.18
204.83	3225.55
205.05	3049.43
205.27	2828.24
205.49	3885.00
205.71	3278.80
205.93	2779.09
206.15	2742.23
206.37	3360.72
206.59	3260.37
206.81	2752.47
207.03	2795.48
207.25	3059.67
207.47	3422.16
207.69	2918.36
207.91	3147.73
208.13	3641.29
208.34	3145.68
208.56	2848.72
208.78	2893.78
209.00	3149.78
209.22	3211.22
209.44	2901.97
209.66	2807.77
209.88	3327.95
210.10	3289.04
210.32	2877.40
210.54	2936.79
210.76	3168.21
210.98	3485.64
211.20	2738.13
211.42	2955.22
211.64	3545.03
211.86	3387.34
212.08	2942.93
212.30	2942.93
212.52	3213.26
212.74	3389.39
212.96	2961.36
213.17	2916.31
213.39	3436.49
213.61	3637.19
213.83	2803.67
214.05	2688.98
214.27	3475.40
214.49	3028.95
214.71	2815.96
214.93	2992.08
215.15	3229.65
215.37	3403.72
215.59	2777.05
215.81	2918.36
216.03	3575.75
216.24	3209.17
216.46	2861.01
216.68	2912.21
216.90	3430.35
217.12	3530.70
217.34	2895.83
217.56	3006.42
217.78	3585.99
218.00	3379.15
218.22	2965.46
218.44	2981.84
218.66	3252.17
218.87	3649.48
219.09	2959.31
219.31	2895.83
219.53	3297.23
219.75	3311.57
219.97	2936.79
220.19	2883.54
220.41	3366.86
220.63	3592.14
220.85	2951.12
221.06	2918.36
221.28	3538.89
221.50	3512.27
221.72	2828.24
221.94	2797.53
222.16	3381.20
222.38	3430.35
222.60	2879.44
222.82	2949.08
223.03	3411.92
223.25	3104.72
223.47	2795.48
223.69	3096.53
223.91	3428.30
224.13	3307.47
224.35	2721.75
224.57	3100.62
224.78	3448.78
225.00	3121.10
225.22	3000.27
225.44	2830.29
225.66	3401.68
225.88	3182.54
226.10	3016.66
226.32	2893.78
226.53	3616.71
226.75	3246.03
226.97	2895.83
227.19	2850.77
227.41	3133.39
227.63	3207.12
227.85	2666.46
228.06	2889.68
228.28	3319.76
228.50	3450.83
228.72	2705.37
228.94	2901.97
229.16	2940.88
229.37	3026.90
229.59	2754.52
229.81	3135.44
230.03	3190.74
230.25	3037.14
230.47	2766.81
230.69	2779.09
230.90	3522.51
231.12	3053.52
231.34	3002.32
231.56	2918.36
231.78	2990.03
232.00	3235.79
232.21	2867.16
232.43	2877.40
232.65	2910.16
232.87	3352.52
233.09	2619.35
233.30	2791.38
233.52	3561.42
233.74	3278.80
233.96	2752.47
234.18	3059.67
234.40	3280.85
234.61	3798.98
234.83	2863.06
235.05	2777.05
235.27	3885.00
235.49	3553.23
235.70	2746.33
235.92	2928.60
236.14	3393.48
236.36	3782.60
236.58	2738.13
236.79	3000.27
237.01	3289.04
237.23	3190.74
237.45	3082.19
237.67	2881.49
237.88	3366.86
238.10	3573.71
238.32	2764.76
238.54	2858.96
238.76	3276.75
238.97	3110.86
239.19	2793.43
239.41	2940.88
239.63	3485.64
239.85	3153.87
240.06	2850.77
240.28	2863.06
240.50	3493.83
240.72	3346.38
240.93	2740.18
241.15	2992.08
241.37	3262.41
241.59	3465.16
241.81	2768.85
242.02	2899.92
242.24	3309.52
242.46	3438.54
242.68	2723.80
242.89	2854.87
243.11	3491.79
243.33	3239.89
243.55	2889.68
243.76	2891.73
243.98	3170.26
244.20	3327.95
244.42	2834.39
244.64	2865.11
244.85	3051.47
245.07	3033.04
245.29	2772.95
245.51	2856.92
245.72	3356.62
245.94	3475.40
246.16	2809.81
246.38	2912.21
246.59	3194.83
246.81	3147.73
247.03	2809.81
247.24	2746.33
247.46	3254.22
247.68	3295.18
247.90	2813.91
248.11	2897.88
248.33	3409.87
248.55	3209.17
248.77	2922.45
248.98	3014.61
249.20	3583.95
249.42	3299.28
249.64	2828.24
249.85	2762.71
250.07	3215.31
250.29	3346.38
250.50	2901.97
250.72	2768.85
250.94	3381.20
251.16	3692.49
251.37	2791.38
251.59	2934.74
251.81	3354.57
252.02	3510.22
252.24	2762.71
252.46	3018.71
252.68	3215.31
252.89	3182.54
253.11	2713.56
253.33	2969.55
253.54	3598.28
253.76	3039.19
253.98	2875.35
254.20	2848.72
254.41	3051.47
254.63	3250.13
254.85	2815.96
255.06	3016.66
255.28	3352.52
255.50	3282.89
255.71	2791.38
255.93	2713.56
256.15	3248.08
256.36	3416.01
256.58	2729.94
256.80	2865.11
257.02	3268.56
257.23	3123.15
257.45	2910.16
257.67	3037.14
257.88	3172.30
258.10	3366.86
258.32	2815.96
258.53	2951.12
258.75	3565.51
258.97	3121.10
259.18	2779.09
259.40	2850.77
259.62	3594.19
259.83	3516.36
260.05	2883.54
260.27	3790.79
260.48	3508.17
260.70	3090.38
260.92	2756.57
261.13	2852.82
261.35	3387.34
261.57	3309.52
261.78	2719.70
262.00	2748.37
262.22	3395.53
262.43	3123.15
262.65	2926.55
262.86	2895.83
263.08	3821.51
263.30	3301.33
263.51	2686.94
263.73	2854.87
263.95	3639.24
264.16	3133.39
264.38	2781.14
264.60	2822.10
264.81	3264.46
265.03	3475.40
265.25	3364.81
265.46	2820.05
265.68	3559.37
265.89	3489.74
266.11	2791.38
266.33	2893.78
266.54	3565.51
266.76	3409.87
266.98	3067.86
267.19	3037.14
267.41	3499.98
267.62	3213.26
267.84	2672.60
268.06	2940.88
268.27	3282.89
268.49	3545.03
268.70	2914.26
268.92	2820.05
269.14	3145.68
269.35	3008.47
269.57	3014.61
269.79	2971.60
270.00	3149.78
270.22	3610.57
270.43	2688.98
270.65	2684.89
270.87	3340.24
271.08	3418.06
271.30	2981.84
271.51	2942.93
271.73	3393.48
271.95	3516.36
272.16	2746.33
272.38	2987.99
272.59	3262.41
272.81	3436.49
273.02	2770.90
273.24	2977.75
273.46	3575.75
273.67	3010.51
273.89	2770.90
274.10	2822.10
274.32	3567.56
274.54	3262.41
274.75	2940.88
274.97	2969.55
275.18	3428.30
275.40	3286.99
275.61	2951.12
275.83	3057.62
276.05	3119.06
276.26	3221.45
276.48	2967.51
276.69	3000.27
276.91	3137.49
277.12	3598.28
277.34	2996.18
277.55	3137.49
277.77	3246.03
277.99	3252.17
278.20	2938.84
278.42	2877.40
278.63	3166.16
278.85	3028.95
279.06	2926.55
279.28	3100.62
279.49	3573.71
279.71	3422.16
279.93	3051.47
280.14	3045.33
280.36	3043.28
280.57	3489.74
280.79	3069.91
281.00	2805.72
281.22	3143.63
281.43	3483.59
281.65	2836.44
281.86	2867.16
282.08	3442.64
282.29	3688.39
282.51	2867.16
282.73	2867.16
282.94	3063.76
283.16	3469.26
283.37	3149.78
283.59	3053.52
283.80	3342.28
284.02	3237.84
284.23	3033.04
284.45	3047.38
284.66	3065.81
284.88	3155.92
285.09	2861.01
285.31	3104.72
285.52	3305.42
285.74	2955.22
285.95	3227.60
286.17	3028.95
286.38	3526.60
286.60	3207.12
286.81	2963.41
287.03	3024.85
287.24	3307.47
287.46	3420.11
287.67	3176.40
287.89	3221.45
288.10	3246.03
288.32	3280.85
288.53	3063.76
288.75	3086.29
288.96	3391.44
289.18	3090.38
289.39	2879.44
289.61	3071.95
289.82	3731.40
290.04	3682.25
290.25	2897.88
290.47	3121.10
290.68	3241.93
290.90	3463.12
291.11	2781.14
291.33	3143.63
291.54	3157.97
291.76	3145.68
291.97	3096.53
292.18	3098.58
292.40	3155.92
292.61	3180.50
292.83	3338.19
293.04	3008.47
293.26	3303.37
293.47	3215.31
293.69	2869.20
293.90	2826.20
294.12	3594.19
294.33	3254.22
294.55	3018.71
294.76	3139.54
294.97	3495.88
295.19	3706.82
295.40	2983.89
295.62	3098.58
295.83	3434.44
296.05	3184.59
296.26	3176.40
296.48	3020.75
296.69	3229.65
296.90	3117.01
297.12	3078.10
297.33	3219.41
297.55	3344.33
297.76	3395.53
297.98	3071.95
298.19	3182.54
298.41	3229.65
298.62	3127.25
298.83	3157.97
299.05	3108.82
299.26	3209.17
299.48	3037.14
299.69	3096.53
299.90	3016.66
300.12	3147.73
300.33	3286.99
300.55	2987.99
300.76	3100.62
300.98	3082.19
301.19	3477.45
301.40	2951.12
301.62	3024.85
301.83	3422.16
302.05	3319.76
302.26	2916.31
302.47	3098.58
302.69	3020.75
302.90	3235.79
303.12	2822.10
303.33	3106.77
303.54	3635.14
303.76	3162.06
303.97	2922.45
304.19	3160.02
304.40	3051.47
304.61	3418.06
304.83	3127.25
305.04	3012.56
305.26	3411.92
305.47	3157.97
305.68	3082.19
305.90	2803.67
306.11	3528.65
306.33	3172.30
306.54	2877.40
306.75	2953.17
306.97	3037.14
307.18	2987.99
307.39	3045.33
307.61	3110.86
307.82	3196.88
308.04	3336.14
308.25	2871.25
308.46	3155.92
308.68	3278.80
308.89	3215.31
309.10	3110.86
309.32	2998.23
309.53	3303.37
309.74	3411.92
309.96	2926.55
310.17	3114.96
310.39	3139.54
310.60	3385.29
310.81	3088.34
311.03	2934.74
311.24	3424.20
311.45	3256.27
311.67	3284.94
311.88	3125.20
312.09	3256.27
312.31	3123.15
312.52	2930.64
312.73	2967.51
312.95	3018.71
313.16	3041.23
313.37	3239.89
313.59	3192.78
313.80	3551.18
314.01	3526.60
314.23	3037.14
314.44	2920.40
314.65	3028.95
314.87	3090.38
315.08	3018.71
315.29	2975.70
315.51	3086.29
315.72	2910.16
315.93	3098.58
316.15	3049.43
316.36	3166.16
316.57	3254.22
316.79	3010.51
317.00	2840.53
317.21	3411.92
317.43	3030.99
317.64	3076.05
317.85	2953.17
318.07	3155.92
318.28	3246.03
318.49	3090.38
318.70	3160.02
318.92	3286.99
319.13	3393.48
319.34	3176.40
319.56	3043.28
319.77	3418.06
319.98	3416.01
320.20	3299.28
320.41	3141.58
320.62	3430.35
320.83	3112.91
321.05	3188.69
321.26	3016.66
321.47	3284.94
321.69	3483.59
321.90	2908.12
322.11	2922.45
322.32	3395.53
322.54	3573.71
322.75	2965.46
322.96	4001.73
323.18	2996.18
323.39	2914.26
323.60	2887.64
323.81	3106.77
324.03	3227.60
324.24	3297.23
324.45	3174.35
324.66	2959.31
324.88	3450.83
325.09	3653.58
325.30	2914.26
325.52	2981.84
325.73	3397.58
325.94	3067.86
326.15	2869.20
326.37	2871.25
326.58	3489.74
326.79	3598.28
327.00	2924.50
327.22	3012.56
327.43	3266.51
327.64	3123.15
327.85	3055.57
328.07	3100.62
328.28	3518.41
328.49	3168.21
328.70	3041.23
328.92	3020.75
329.13	3354.57
329.34	3420.11
329.55	3227.60
329.76	3180.50
329.98	3045.33
330.19	3549.13
330.40	3114.96
330.61	3125.20
330.83	3461.07
331.04	3078.10
331.25	3086.29
331.46	3082.19
331.68	3086.29
331.89	3434.44
332.10	3035.09
332.31	2822.10
332.52	3327.95
332.74	3563.47
332.95	2797.53
333.16	2967.51
333.37	3407.82
333.58	3145.68
333.80	3139.54
334.01	2850.77
334.22	3254.22
334.43	3182.54
334.64	2949.08
334.86	3016.66
335.07	3053.52
335.28	3579.85
335.49	2848.72
335.70	3069.91
335.92	3606.47
336.13	3762.12
336.34	3141.58
336.55	3000.27
336.76	3342.28
336.98	2795.48
337.19	3049.43
337.40	3127.25
337.61	3819.46
337.82	3207.12
338.04	3086.29
338.25	2834.39
338.46	3196.88
338.67	3172.30
338.88	2887.64
339.09	2959.31
339.31	3166.16
339.52	3092.43
339.73	2906.07
339.94	3041.23
340.15	3434.44
340.36	3194.83
340.58	3041.23
340.79	2922.45
341.00	3368.91
341.21	3035.09
341.42	3217.36
341.63	3020.75
341.85	3444.68
342.06	3385.29
342.27	2951.12
342.48	3108.82
342.69	3000.27
342.90	3338.19
343.12	3340.24
343.33	2936.79
343.54	3465.16
343.75	3545.03
343.96	3164.11
344.17	3014.61
344.38	3299.28
344.60	3051.47
344.81	2992.08
345.02	2932.69
345.23	3538.89
345.44	3801.03
345.65	3121.10
345.86	3067.86
346.07	3420.11
346.29	3131.34
346.50	3172.30
346.71	3065.81
346.92	3565.51
347.13	3813.32
347.34	3076.05
347.55	2865.11
347.76	3276.75
347.98	2971.60
348.19	3004.37
348.40	3143.63
348.61	3223.50
348.82	3692.49
349.03	3088.34
349.24	2918.36
349.45	3635.14
349.66	2881.49
349.88	2936.79
350.09	2873.30
350.30	3467.21
350.51	3551.18
350.72	3157.97
350.93	2985.94
351.14	3108.82
351.35	3344.33
351.56	3063.76
351.77	3139.54
351.99	3325.90
352.20	3491.79
352.41	3104.72
352.62	2840.53
352.83	3295.18
353.04	3198.93
353.25	2963.41
353.46	3071.95
353.67	3489.74
353.88	2951.12
354.09	2918.36
354.30	3084.24
354.52	3422.16
354.73	3235.79
354.94	2938.84
355.15	3119.06
355.36	3553.23
355.57	3108.82
355.78	2904.02
355.99	3088.34
356.20	3225.55
356.41	3495.88
356.62	3110.86
356.83	3026.90
357.04	3551.18
357.25	3000.27
357.46	2969.55
357.68	2895.83
357.89	3065.81
358.10	3180.50
358.31	2963.41
358.52	2959.31
358.73	3137.49
358.94	3096.53
359.15	3033.04
359.36	2998.23
359.57	3276.75
359.78	3213.26
359.99	3227.60
360.20	2891.73
360.41	3235.79
360.62	3389.39
360.83	3002.32
361.04	3061.71
361.25	3354.57
361.46	3577.80
361.67	3102.67
361.88	3069.91
362.09	3438.54
362.30	3379.15
362.51	2953.17
362.72	3106.77
362.93	3418.06
363.14	3350.48
363.35	3002.32
363.56	2985.94
363.78	3549.13
363.99	3499.98
364.20	2998.23
364.41	3069.91
364.62	3647.43
364.83	3321.81
365.04	3043.28
365.25	3028.95
365.46	3708.87
365.67	3133.39
365.88	3166.16
366.09	2971.60
366.30	3162.06
366.51	3266.51
366.72	2901.97
366.93	3053.52
367.14	3313.61
367.35	3504.07
367.56	2940.88
367.77	3114.96
367.98	3188.69
368.18	3477.45
368.39	3121.10
368.60	2992.08
368.81	3477.45
369.02	3409.87
369.23	3047.38
369.44	2863.06
369.65	3229.65
369.86	3426.25
370.07	3100.62
370.28	2865.11
370.49	3397.58
370.70	3291.09
370.91	2858.96
371.12	2895.83
371.33	3491.79
371.54	3223.50
371.75	3074.00
371.96	2734.04
372.17	3243.98
372.38	3289.04
372.59	2979.79
372.80	3012.56
373.01	3264.46
373.22	3239.89
373.43	3010.51
373.64	2869.20
373.85	3471.31
374.06	3530.70
374.26	3172.30
374.47	3139.54
374.68	3616.71
374.89	3289.04
375.10	2879.44
375.31	3166.16
375.52	3305.42
375.73	3299.28
375.94	2887.64
376.15	3065.81
376.36	3147.73
376.57	3162.06
376.78	3020.75
376.99	3037.14
377.20	3530.70
377.40	3315.66
377.61	3274.70
377.82	3004.37
378.03	3504.07
378.24	3321.81
378.45	3149.78
378.66	3117.01
378.87	2889.68
379.08	2983.89
379.29	3030.99
379.50	3160.02
379.71	3299.28
379.91	3422.16
380.12	3014.61
380.33	3108.82
380.54	3307.47
380.75	3196.88
380.96	3035.09
381.17	3047.38
381.38	3225.55
381.59	3243.98
381.80	3133.39
382.00	3221.45
382.21	3317.71
382.42	3592.14
382.63	3403.72
382.84	3184.59
383.05	3442.64
383.26	3540.94
383.47	3080.14
383.68	2967.51
383.88	3413.96
384.09	3319.76
384.30	3233.74
384.51	3203.02
384.72	3170.26
384.93	3008.47
385.14	3059.67
385.35	3213.26
385.55	3002.32
385.76	3559.37
385.97	3006.42
386.18	2832.34
386.39	3198.93
386.60	3239.89
386.81	2987.99
387.02	2920.40
387.22	3035.09
387.43	3416.01
387.64	3117.01
387.85	3229.65
388.06	3282.89
388.27	4419.52
388.48	7657.36
388.68	11958.09
388.89	14999.32
389.10	16357.13
389.31	16027.40
389.52	12859.20
389.73	11179.86
389.93	10293.09
390.14	9279.35
390.35	8537.98
390.56	7808.90
390.77	6614.94
390.98	4968.37
391.18	4270.01
391.39	3868.61
391.60	3327.95
391.81	3313.61
392.02	2994.13
392.23	3743.69
392.43	3330.00
392.64	3166.16
392.85	3151.82
393.06	3557.32
393.27	3280.85
393.47	2932.69
393.68	3049.43
393.89	3219.41
394.10	3592.14
394.31	2936.79
394.52	2951.12
394.72	3155.92
394.93	3510.22
395.14	2938.84
395.35	3127.25
395.56	3141.58
395.76	3350.48
395.97	3024.85
396.18	3151.82
396.39	3303.37
396.60	3987.40
396.80	3401.68
397.01	3305.42
397.22	3454.92
397.43	3432.40
397.64	3018.71
397.84	3190.74
398.05	3657.67
398.26	3157.97
398.47	3182.54
398.67	3205.07
398.88	3373.00
399.09	3393.48
399.30	3024.85
399.51	3110.86
399.71	3104.72
399.92	3270.61
400.13	3129.30
400.34	3024.85
400.54	3307.47
400.75	3565.51
400.96	3258.32
401.17	3377.10
401.37	3344.33
401.58	3278.80
401.79	3051.47
402.00	3157.97
402.21	3796.93
402.41	3565.51
402.62	3348.43
402.83	3545.03
403.04	3694.54
403.24	4069.31
403.45	3227.60
403.66	3418.06
403.87	3454.92
404.07	3592.14
404.28	3315.66
404.49	3356.62
404.70	3434.44
404.90	3336.14
405.11	3049.43
405.32	3174.35
405.52	3133.39
405.73	3135.44
405.94	2942.93
406.15	3125.20
406.35	3364.81
406.56	3495.88
406.77	3002.32
406.98	3076.05
407.18	3162.06
407.39	3579.85
407.60	3104.72
407.80	3174.35
408.01	3094.48
408.22	3481.55
408.43	3018.71
408.63	3084.24
408.84	3499.98
409.05	3518.41
409.25	3014.61
409.46	3069.91
409.67	3217.36
409.88	3155.92
410.08	3094.48
410.29	3041.23
410.50	3438.54
410.70	3405.77
410.91	2940.88
411.12	3108.82
411.32	3264.46
411.53	3082.19
411.74	3000.27
411.95	3223.50
412.15	3321.81
412.36	3454.92
412.57	3250.13
412.77	3233.74
412.98	3180.50
413.19	3155.92
413.39	3143.63
413.60	3153.87
413.81	3608.52
414.01	3082.19
414.22	3049.43
414.43	3305.42
414.63	3149.78
414.84	3557.32
415.05	3035.09
415.25	2877.40
415.46	3483.59
415.67	3178.45
415.87	3051.47
416.08	3024.85
416.29	3227.60
416.49	3344.33
416.70	3112.91
416.91	3061.71
417.11	3145.68
417.32	3567.56
417.53	3147.73
417.73	3180.50
417.94	3340.24
418.15	3297.23
418.35	3127.25
418.56	3065.81
418.77	3719.11
418.97	3293.13
419.18	3143.63
419.38	2787.29
419.59	3260.37
419.80	3512.27
420.00	2934.74
420.21	3063.76
420.42	3555.27
420.62	3409.87
420.83	3071.95
421.04	3092.43
421.24	3250.13
421.45	3411.92
421.65	3000.27
421.86	3057.62
422.07	3616.71
422.27	3332.05
422.48	2963.41
422.69	2914.26
422.89	3164.11
423.10	3223.50
423.30	3004.37
423.51	3110.86
423.72	3438.54
423.92	3422.16
424.13	2930.64
424.33	3065.81
424.54	3442.64
424.75	3354.57
424.95	3323.85
425.16	2979.79
425.36	3254.22
425.57	3463.12
425.78	3215.31
425.98	3082.19
426.19	3264.46
426.39	3123.15
426.60	3125.20
426.81	3229.65
427.01	3465.16
427.22	3043.28
427.42	2836.44
427.63	2969.55
427.83	3467.21
428.04	3672.01
428.25	3106.77
428.45	3108.82
428.66	3526.60
428.86	3278.80
429.07	3063.76
429.28	3078.10
429.48	3274.70
429.69	3102.67
429.89	3082.19
430.10	2977.75
430.30	3430.35
430.51	3491.79
430.71	2983.89
430.92	3024.85
431.13	3184.59
431.33	3463.12
431.54	3166.16
431.74	3221.45
431.95	3745.73
432.15	3149.78
432.36	3033.04
432.56	3139.54
432.77	3747.78
432.98	3641.29
433.18	3176.40
433.39	2942.93
433.59	3268.56
433.80	3663.82
434.00	3297.23
434.21	3155.92
434.41	3090.38
434.62	3760.07
434.82	2922.45
435.03	2938.84
435.23	3399.63
435.44	3028.95
435.64	3028.95
435.85	3157.97
436.06	3440.59
436.26	3516.36
436.47	3012.56
436.67	3014.61
436.88	3248.08
437.08	3542.99
437.29	3162.06
437.49	3196.88
437.70	3604.42
437.90	3200.98
438.11	3264.46
438.31	3131.34
438.52	3604.42
438.72	3491.79
438.93	3373.00
439.13	3239.89
439.34	3413.96
439.54	3168.21
439.75	3231.69
439.95	3172.30
440.16	3094.48
440.36	3266.51
440.57	3082.19
440.77	3051.47
440.98	3297.23
441.18	3454.92
441.39	2914.26
441.59	2994.13
441.80	3751.88
442.00	3266.51
442.21	3231.69
442.41	2926.55
442.62	3424.20
442.82	3061.71
443.02	3100.62
443.23	3080.14
443.43	3203.02
443.64	3504.07
443.84	2949.08
444.05	3160.02
444.25	3303.37
444.46	3125.20
444.66	3080.14
444.87	3221.45
445.07	3033.04
445.28	3190.74
445.48	3330.00
445.69	3164.11
445.89	3753.93
446.09	3278.80
446.30	3370.96
446.50	3499.98
446.71	5060.53
446.91	6205.35
447.12	7034.77
447.32	7528.33
447.53	7657.36
447.73	6266.78
447.93	5447.60
448.14	5369.77
448.34	5384.11
448.55	4401.08
448.75	4392.89
448.96	4227.01
449.16	4134.85
449.36	3893.19
449.57	3323.85
449.77	3108.82
449.98	3155.92
450.18	3362.76
450.39	2963.41
450.59	3248.08
450.79	3295.18
451.00	3221.45
451.20	3342.28
451.41	3088.34
451.61	3346.38
451.81	3237.84
452.02	2963.41
452.22	3121.10
452.43	3160.02
