SpectraSuite Data File
++++++++++++++++++++++++++++++++++++
Date: Fri May 06 08:13:45 CEST 2016
User: root
Dark Spectrum Present: No
Reference Spectrum Present: No
Number of Sampled Component Spectra: 1
Spectrometers: USB4C02835
Integration Time (usec): 100000 (USB4C02835)
Spectra Averaged: 1 (USB4C02835)
Boxcar Smoothing: 0 (USB4C02835)
Correct for Electrical Dark: No (USB4C02835)
Strobe/Lamp Enabled: No (USB4C02835)
Correct for Detector Non-linearity: No (USB4C02835)
Correct for Stray Light: No (USB4C02835)
Number of Pixels in Processed Spectrum: 3648
>>>>>Begin Processed Spectral Data<<<<<
177.47	2273.25
177.69	2273.25
177.91	2273.25
178.13	2289.63
178.36	2279.39
178.58	3069.91
178.80	3143.63
179.02	3065.81
179.24	3067.86
179.46	2828.24
179.68	2830.29
179.90	3227.60
180.13	3233.74
180.35	2754.52
180.57	2805.72
180.79	3506.12
181.01	3321.81
181.23	2899.92
181.45	3033.04
181.67	3395.53
181.90	3332.05
182.12	2889.68
182.34	2697.17
182.56	3489.74
182.78	3405.77
183.00	2828.24
183.22	2863.06
183.44	2904.02
183.66	3948.48
183.89	3008.47
184.11	2838.48
184.33	3405.77
184.55	3526.60
184.77	2779.09
184.99	2852.82
185.21	3239.89
185.43	3809.22
185.65	2873.30
185.87	2852.82
186.10	3835.85
186.32	3762.12
186.54	2934.74
186.76	2983.89
186.98	3495.88
187.20	3176.40
187.42	2899.92
187.64	2873.30
187.86	3418.06
188.08	3547.08
188.30	2781.14
188.52	2887.64
188.75	3553.23
188.97	3432.40
189.19	2838.48
189.41	2852.82
189.63	3291.09
189.85	3092.43
190.07	2736.09
190.29	2729.94
190.51	3405.77
190.73	3065.81
190.95	3119.06
191.17	2897.88
191.39	3018.71
191.61	3174.35
191.84	2861.01
192.06	3014.61
192.28	3004.37
192.50	3968.96
192.72	2975.70
192.94	2942.93
193.16	3491.79
193.38	3362.76
193.60	2799.57
193.82	3004.37
194.04	3528.65
194.26	3358.67
194.48	2936.79
194.70	2887.64
194.92	3274.70
195.14	3450.83
195.36	2879.44
195.58	2957.27
195.80	3256.27
196.02	3096.53
196.24	2781.14
196.46	2994.13
196.69	3108.82
196.91	3807.17
197.13	2920.40
197.35	2820.05
197.57	3624.90
197.79	3401.68
198.01	2983.89
198.23	2869.20
198.45	3381.20
198.67	3010.51
198.89	2693.08
199.11	2961.36
199.33	3063.76
199.55	2867.16
199.77	2834.39
199.99	3020.75
200.21	3207.12
200.43	3461.07
200.65	2772.95
200.87	2697.17
201.09	3221.45
201.31	3246.03
201.53	2934.74
201.75	2877.40
201.97	3352.52
202.19	3325.90
202.41	2951.12
202.63	2985.94
202.85	3346.38
203.07	3385.29
203.29	2975.70
203.51	2766.81
203.73	3151.82
203.95	3788.74
204.17	2873.30
204.39	3014.61
204.61	3213.26
204.83	3215.31
205.05	3000.27
205.27	2936.79
205.49	3835.85
205.71	3307.47
205.93	2729.94
206.15	2789.33
206.37	3286.99
206.59	3155.92
206.81	2707.41
207.03	2820.05
207.25	3160.02
207.47	3442.64
207.69	2893.78
207.91	3086.29
208.13	3588.04
208.34	3065.81
208.56	2762.71
208.78	2858.96
209.00	3211.22
209.22	3219.41
209.44	2887.64
209.66	2836.44
209.88	3229.65
210.10	3233.74
210.32	2850.77
210.54	2947.03
210.76	3217.36
210.98	3524.55
211.20	2678.74
211.42	3004.37
211.64	3626.95
211.86	3473.36
212.08	2871.25
212.30	2893.78
212.52	3264.46
212.74	3340.24
212.96	2971.60
213.17	2951.12
213.39	3434.44
213.61	3706.82
213.83	2803.67
214.05	2748.37
214.27	3551.18
214.49	3049.43
214.71	2772.95
214.93	2930.64
215.15	3282.89
215.37	3534.79
215.59	2721.75
215.81	2926.55
216.03	3475.40
216.24	3297.23
216.46	2844.63
216.68	2893.78
216.90	3504.07
217.12	3426.25
217.34	2822.10
217.56	3106.77
217.78	3561.42
218.00	3395.53
218.22	2953.17
218.44	3020.75
218.66	3311.57
218.87	3592.14
219.09	2869.20
219.31	2850.77
219.53	3373.00
219.75	3301.33
219.97	2922.45
220.19	2963.41
220.41	3241.93
220.63	3559.37
220.85	2936.79
221.06	2861.01
221.28	3573.71
221.50	3477.45
221.72	2906.07
221.94	2795.48
222.16	3272.65
222.38	3483.59
222.60	2824.15
222.82	2861.01
223.03	3491.79
223.25	3082.19
223.47	2813.91
223.69	3092.43
223.91	3442.64
224.13	3254.22
224.35	2815.96
224.57	3000.27
224.78	3491.79
225.00	3080.14
225.22	3078.10
225.44	2836.44
225.66	3370.96
225.88	3192.78
226.10	2979.79
226.32	2881.49
226.53	3590.09
226.75	3182.54
226.97	2906.07
227.19	2861.01
227.41	3155.92
227.63	3190.74
227.85	2674.65
228.06	2965.46
228.28	3301.33
228.50	3502.03
228.72	2705.37
228.94	2877.40
229.16	2942.93
229.37	3172.30
229.59	2793.43
229.81	3170.26
230.03	3219.41
230.25	3082.19
230.47	2691.03
230.69	2801.62
230.90	3487.69
231.12	3186.64
231.34	2940.88
231.56	2912.21
231.78	3127.25
232.00	3223.50
232.21	2916.31
232.43	2994.13
232.65	2846.68
232.87	3325.90
233.09	2709.46
233.30	2813.91
233.52	3583.95
233.74	3272.65
233.96	2844.63
234.18	3028.95
234.40	3286.99
234.61	3801.03
234.83	2748.37
235.05	2858.96
235.27	3770.31
235.49	3571.66
235.70	2768.85
235.92	2926.55
236.14	3395.53
236.36	3801.03
236.58	2789.33
236.79	2949.08
237.01	3205.07
237.23	3401.68
237.45	3053.52
237.67	2957.27
237.88	3342.28
238.10	3651.53
238.32	2799.57
238.54	2770.90
238.76	3254.22
238.97	3151.82
239.19	2838.48
239.41	2955.22
239.63	3510.22
239.85	3270.61
240.06	2856.92
240.28	2910.16
240.50	3497.93
240.72	3256.27
240.93	2748.37
241.15	3004.37
241.37	3198.93
241.59	3495.88
241.81	2879.44
242.02	3014.61
242.24	3399.63
242.46	3377.10
242.68	2703.32
242.89	2830.29
243.11	3475.40
243.33	3223.50
243.55	2836.44
243.76	2762.71
243.98	3155.92
244.20	3317.71
244.42	2861.01
244.64	2865.11
244.85	3049.43
245.07	3074.00
245.29	2830.29
245.51	2942.93
245.72	3332.05
245.94	3524.55
246.16	2807.77
246.38	2869.20
246.59	3180.50
246.81	3112.91
247.03	2809.81
247.24	2770.90
247.46	3100.62
247.68	3401.68
247.90	2746.33
248.11	2877.40
248.33	3428.30
248.55	3278.80
248.77	2951.12
248.98	2887.64
249.20	3592.14
249.42	3305.42
249.64	2811.86
249.85	2846.68
250.07	3139.54
250.29	3370.96
250.50	2926.55
250.72	2801.62
250.94	3348.43
251.16	3727.30
251.37	2910.16
251.59	2928.60
251.81	3403.72
252.02	3661.77
252.24	2740.18
252.46	2985.94
252.68	3145.68
252.89	3117.01
253.11	2693.08
253.33	3053.52
253.54	3545.03
253.76	3061.71
253.98	2844.63
254.20	2883.54
254.41	3002.32
254.63	3295.18
254.85	2838.48
255.06	2936.79
255.28	3401.68
255.50	3229.65
255.71	2789.33
255.93	2711.51
256.15	3215.31
256.36	3364.81
256.58	2717.65
256.80	2777.05
257.02	3241.93
257.23	3235.79
257.45	2906.07
257.67	3014.61
257.88	3139.54
258.10	3375.05
258.32	2904.02
258.53	2912.21
258.75	3633.10
258.97	3182.54
259.18	2766.81
259.40	2750.42
259.62	3663.82
259.83	3608.52
260.05	2822.10
260.27	3729.35
260.48	3508.17
260.70	3065.81
260.92	2762.71
261.13	2832.34
261.35	3254.22
261.57	3364.81
261.78	2770.90
262.00	2754.52
262.22	3373.00
262.43	3178.45
262.65	2848.72
262.86	2811.86
263.08	3774.41
263.30	3299.28
263.51	2648.02
263.73	2781.14
263.95	3659.72
264.16	3104.72
264.38	2723.80
264.60	2779.09
264.81	3284.94
265.03	3532.75
265.25	3198.93
265.46	2797.53
265.68	3479.50
265.89	3362.76
266.11	2746.33
266.33	2865.11
266.54	3538.89
266.76	3330.00
266.98	2985.94
267.19	2985.94
267.41	3485.64
267.62	3336.14
267.84	2582.49
268.06	3061.71
268.27	3293.13
268.49	3581.90
268.70	2938.84
268.92	2904.02
269.14	2983.89
269.35	3006.42
269.57	3002.32
269.79	2912.21
270.00	3098.58
270.22	3598.28
270.43	2795.48
270.65	2672.60
270.87	3291.09
271.08	3330.00
271.30	3022.80
271.51	2850.77
271.73	3473.36
271.95	3542.99
272.16	2848.72
272.38	3018.71
272.59	3196.88
272.81	3381.20
273.02	2863.06
273.24	2840.53
273.46	3471.31
273.67	3018.71
273.89	2748.37
274.10	2906.07
274.32	3565.51
274.54	3330.00
274.75	2934.74
274.97	2936.79
275.18	3473.36
275.40	3375.05
275.61	2865.11
275.83	3037.14
276.05	3080.14
276.26	3276.75
276.48	2955.22
276.69	3049.43
276.91	3166.16
277.12	3569.61
277.34	3022.80
277.55	3108.82
277.77	3381.20
277.99	3229.65
278.20	2998.23
278.42	2861.01
278.63	3125.20
278.85	3114.96
279.06	2979.79
279.28	3069.91
279.49	3672.01
279.71	3356.62
279.93	3114.96
280.14	3076.05
280.36	3074.00
280.57	3465.16
280.79	3133.39
281.00	2895.83
281.22	3205.07
281.43	3553.23
281.65	2815.96
281.86	2858.96
282.08	3323.85
282.29	3557.32
282.51	2861.01
282.73	2820.05
282.94	2992.08
283.16	3454.92
283.37	3080.14
283.59	2951.12
283.80	3360.72
284.02	3276.75
284.23	3059.67
284.45	2969.55
284.66	3102.67
284.88	3141.58
285.09	2891.73
285.31	3080.14
285.52	3315.66
285.74	2996.18
285.95	3248.08
286.17	3078.10
286.38	3520.46
286.60	3196.88
286.81	2953.17
287.03	3041.23
287.24	3252.17
287.46	3459.02
287.67	3125.20
287.89	3225.55
288.10	3276.75
288.32	3270.61
288.53	3086.29
288.75	3024.85
288.96	3467.21
289.18	3250.13
289.39	2875.35
289.61	3035.09
289.82	3702.73
290.04	3678.15
290.25	2877.40
290.47	3074.00
290.68	3260.37
290.90	3502.03
291.11	2781.14
291.33	3180.50
291.54	3149.78
291.76	3162.06
291.97	3071.95
292.18	3053.52
292.40	3110.86
292.61	3147.73
292.83	3280.85
293.04	3139.54
293.26	3309.52
293.47	3196.88
293.69	2869.20
293.90	2863.06
294.12	3532.75
294.33	3235.79
294.55	2969.55
294.76	3235.79
294.97	3561.42
295.19	3723.21
295.40	2981.84
295.62	3084.24
295.83	3473.36
296.05	3088.34
296.26	3243.98
296.48	2971.60
296.69	3315.66
296.90	3227.60
297.12	3110.86
297.33	3147.73
297.55	3303.37
297.76	3362.76
297.98	3102.67
298.19	3254.22
298.41	3270.61
298.62	3098.58
298.83	3215.31
299.05	3110.86
299.26	3172.30
299.48	3086.29
299.69	3092.43
299.90	2953.17
300.12	3127.25
300.33	3315.66
300.55	3063.76
300.76	3020.75
300.98	3074.00
301.19	3438.54
301.40	2990.03
301.62	3012.56
301.83	3370.96
302.05	3286.99
302.26	2951.12
302.47	3114.96
302.69	3033.04
302.90	3272.65
303.12	2807.77
303.33	3053.52
303.54	3639.24
303.76	3110.86
303.97	3000.27
304.19	3266.51
304.40	3106.77
304.61	3360.72
304.83	3110.86
305.04	3098.58
305.26	3452.88
305.47	3157.97
305.68	3020.75
305.90	2850.77
306.11	3540.94
306.33	3280.85
306.54	2877.40
306.75	3016.66
306.97	2963.41
307.18	3076.05
307.39	3043.28
307.61	3016.66
307.82	3151.82
308.04	3411.92
308.25	2838.48
308.46	3039.19
308.68	3276.75
308.89	3317.71
309.10	3127.25
309.32	3033.04
309.53	3395.53
309.74	3362.76
309.96	2867.16
310.17	3100.62
310.39	3176.40
310.60	3385.29
310.81	3143.63
311.03	2955.22
311.24	3405.77
311.45	3309.52
311.67	3291.09
311.88	3098.58
312.09	3209.17
312.31	3174.35
312.52	2912.21
312.73	2955.22
312.95	2938.84
313.16	3135.44
313.37	3143.63
313.59	3166.16
313.80	3397.58
314.01	3508.17
314.23	3014.61
314.44	2910.16
314.65	2985.94
314.87	3143.63
315.08	2893.78
315.29	3028.95
315.51	3127.25
315.72	2996.18
315.93	3051.47
316.15	3127.25
316.36	3266.51
316.57	3297.23
316.79	3049.43
317.00	2885.59
317.21	3368.91
317.43	3106.77
317.64	3088.34
317.85	2885.59
318.07	3149.78
318.28	3174.35
318.49	3102.67
318.70	3217.36
318.92	3344.33
319.13	3467.21
319.34	3215.31
319.56	3006.42
319.77	3418.06
319.98	3469.26
320.20	3286.99
320.41	3176.40
320.62	3330.00
320.83	3063.76
321.05	3291.09
321.26	3065.81
321.47	3266.51
321.69	3567.56
321.90	2918.36
322.11	2975.70
322.32	3332.05
322.54	3649.48
322.75	2994.13
322.96	4018.11
323.18	3000.27
323.39	2820.05
323.60	2908.12
323.81	3141.58
324.03	3102.67
324.24	3323.85
324.45	3119.06
324.66	2897.88
324.88	3491.79
325.09	3583.95
325.30	2944.98
325.52	2906.07
325.73	3323.85
325.94	3098.58
326.15	2844.63
326.37	2961.36
326.58	3381.20
326.79	3639.24
327.00	2910.16
327.22	2914.26
327.43	3145.68
327.64	3026.90
327.85	3078.10
328.07	3110.86
328.28	3659.72
328.49	3184.59
328.70	2944.98
328.92	2967.51
329.13	3360.72
329.34	3354.57
329.55	3186.64
329.76	3135.44
329.98	3231.69
330.19	3485.64
330.40	3047.38
330.61	3102.67
330.83	3471.31
331.04	3164.11
331.25	3022.80
331.46	3035.09
331.68	3006.42
331.89	3409.87
332.10	2996.18
332.31	2887.64
332.52	3295.18
332.74	3459.02
332.95	2750.42
333.16	2992.08
333.37	3448.78
333.58	3147.73
333.80	3047.38
334.01	2795.48
334.22	3278.80
334.43	3141.58
334.64	2912.21
334.86	2985.94
335.07	3112.91
335.28	3626.95
335.49	2795.48
335.70	3008.47
335.92	3459.02
336.13	3710.92
336.34	3037.14
336.55	2992.08
336.76	3295.18
336.98	2951.12
337.19	2985.94
337.40	3076.05
337.61	3741.64
337.82	3205.07
338.04	3082.19
338.25	2797.53
338.46	3301.33
338.67	3254.22
338.88	2910.16
339.09	2844.63
339.31	3196.88
339.52	3053.52
339.73	2977.75
339.94	3078.10
340.15	3405.77
340.36	3153.87
340.58	3045.33
340.79	2924.50
341.00	3413.96
341.21	2910.16
341.42	3209.17
341.63	2967.51
341.85	3459.02
342.06	3293.13
342.27	2949.08
342.48	3229.65
342.69	2949.08
342.90	3377.10
343.12	3375.05
343.33	2893.78
343.54	3377.10
343.75	3565.51
343.96	3131.34
344.17	2934.74
344.38	3250.13
344.60	3131.34
344.81	2947.03
345.02	3004.37
345.23	3602.38
345.44	3827.65
345.65	3008.47
345.86	3063.76
346.07	3364.81
346.29	3024.85
346.50	3119.06
346.71	3053.52
346.92	3575.75
347.13	3848.13
347.34	3039.19
347.55	2828.24
347.76	3399.63
347.98	3033.04
348.19	3010.51
348.40	3168.21
348.61	3209.17
348.82	3608.52
349.03	3098.58
349.24	2967.51
349.45	3698.63
349.66	2893.78
349.88	3010.51
350.09	2893.78
350.30	3596.23
350.51	3557.32
350.72	3176.40
350.93	2985.94
351.14	3157.97
351.35	3315.66
351.56	2977.75
351.77	3086.29
351.99	3477.45
352.20	3495.88
352.41	3176.40
352.62	2871.25
352.83	3252.17
353.04	3203.02
353.25	2987.99
353.46	3030.99
353.67	3416.01
353.88	2885.59
354.09	2832.34
354.30	3055.57
354.52	3440.59
354.73	3246.03
354.94	2908.12
355.15	3049.43
355.36	3659.72
355.57	3186.64
355.78	2947.03
355.99	3049.43
356.20	3250.13
356.41	3487.69
356.62	3086.29
356.83	3000.27
357.04	3493.83
357.25	2992.08
357.46	2965.46
357.68	2957.27
357.89	3094.48
358.10	3217.36
358.31	3014.61
358.52	3059.67
358.73	3067.86
358.94	3039.19
359.15	3059.67
359.36	3020.75
359.57	3362.76
359.78	3286.99
359.99	3209.17
360.20	2877.40
360.41	3233.74
360.62	3471.31
360.83	3170.26
361.04	3088.34
361.25	3379.15
361.46	3549.13
361.67	3065.81
361.88	2990.03
362.09	3344.33
362.30	3344.33
362.51	2920.40
362.72	3168.21
362.93	3559.37
363.14	3399.63
363.35	3071.95
363.56	2934.74
363.78	3459.02
363.99	3493.83
364.20	3035.09
364.41	3076.05
364.62	3672.01
364.83	3366.86
365.04	2965.46
365.25	3008.47
365.46	3663.82
365.67	3133.39
365.88	3221.45
366.09	3004.37
366.30	3203.02
366.51	3278.80
366.72	2940.88
366.93	2912.21
367.14	3325.90
367.35	3545.03
367.56	2955.22
367.77	3135.44
367.98	3323.85
368.18	3430.35
368.39	3227.60
368.60	2967.51
368.81	3381.20
369.02	3373.00
369.23	2969.55
369.44	2846.68
369.65	3266.51
369.86	3450.83
370.07	3147.73
370.28	2926.55
370.49	3385.29
370.70	3319.76
370.91	2885.59
371.12	2856.92
371.33	3510.22
371.54	3205.07
371.75	3069.91
371.96	2854.87
372.17	3270.61
372.38	3264.46
372.59	2955.22
372.80	2947.03
373.01	3205.07
373.22	3274.70
373.43	3006.42
373.64	2858.96
373.85	3471.31
374.06	3608.52
374.26	3160.02
374.47	3137.49
374.68	3639.24
374.89	3289.04
375.10	2926.55
375.31	3055.57
375.52	3297.23
375.73	3313.61
375.94	2828.24
376.15	3092.43
376.36	3133.39
376.57	3178.45
376.78	3049.43
376.99	3098.58
377.20	3553.23
377.40	3184.59
377.61	3289.04
377.82	2850.77
378.03	3524.55
378.24	3418.06
378.45	3098.58
378.66	3112.91
378.87	2922.45
379.08	2940.88
379.29	2990.03
379.50	3164.11
379.71	3205.07
379.91	3375.05
380.12	2969.55
380.33	3078.10
380.54	3270.61
380.75	3254.22
380.96	3096.53
381.17	3037.14
381.38	3319.76
381.59	3319.76
381.80	3049.43
382.00	3221.45
382.21	3377.10
382.42	3618.76
382.63	3368.91
382.84	3168.21
383.05	3522.51
383.26	3592.14
383.47	3092.43
383.68	2959.31
383.88	3424.20
384.09	3190.74
384.30	3258.32
384.51	3198.93
384.72	3239.89
384.93	2977.75
385.14	3053.52
385.35	3299.28
385.55	3051.47
385.76	3444.68
385.97	2981.84
386.18	2926.55
386.39	3110.86
386.60	3180.50
386.81	3008.47
387.02	2904.02
387.22	3078.10
387.43	3385.29
387.64	3053.52
387.85	3336.14
388.06	3313.61
388.27	4333.50
388.48	7954.31
388.68	12019.53
388.89	15267.61
389.10	16498.44
389.31	16238.34
389.52	13297.46
389.73	11235.16
389.93	10274.66
390.14	9402.22
390.35	8599.42
390.56	7999.37
390.77	6623.13
390.98	5074.87
391.18	4237.25
391.39	3844.04
391.60	3315.66
391.81	3334.09
392.02	3043.28
392.23	3733.45
392.43	3319.76
392.64	3137.49
392.85	3100.62
393.06	3592.14
393.27	3256.27
393.47	2893.78
393.68	3110.86
393.89	3149.78
394.10	3516.36
394.31	3045.33
394.52	2912.21
394.72	3108.82
394.93	3594.19
395.14	3008.47
395.35	3121.10
395.56	3102.67
395.76	3227.60
395.97	3016.66
396.18	3246.03
396.39	3293.13
396.60	3903.43
396.80	3430.35
397.01	3342.28
397.22	3389.39
397.43	3493.83
397.64	3143.63
397.84	3094.48
398.05	3698.63
398.26	3145.68
398.47	3170.26
398.67	3252.17
398.88	3241.93
399.09	3360.72
399.30	2959.31
399.51	3082.19
399.71	3196.88
399.92	3356.62
400.13	3096.53
400.34	3106.77
400.54	3332.05
400.75	3614.66
400.96	3239.89
401.17	3397.58
401.37	3430.35
401.58	3274.70
401.79	3024.85
402.00	3217.36
402.21	3792.84
402.41	3461.07
402.62	3346.38
402.83	3540.94
403.04	3717.06
403.24	4126.66
403.45	3188.69
403.66	3409.87
403.87	3471.31
404.07	3592.14
404.28	3276.75
404.49	3325.90
404.70	3397.58
404.90	3477.45
405.11	3033.04
405.32	3106.77
405.52	3102.67
405.73	3100.62
405.94	2961.36
406.15	3096.53
406.35	3391.44
406.56	3502.03
406.77	3162.06
406.98	2985.94
407.18	3076.05
407.39	3663.82
407.60	3119.06
407.80	3168.21
408.01	3149.78
408.22	3395.53
408.43	2883.54
408.63	3092.43
408.84	3508.17
409.05	3409.87
409.25	2957.27
409.46	3041.23
409.67	3119.06
409.88	3211.22
410.08	3114.96
410.29	2983.89
410.50	3426.25
410.70	3454.92
410.91	3071.95
411.12	3063.76
411.32	3342.28
411.53	2998.23
411.74	3080.14
411.95	3098.58
412.15	3219.41
412.36	3491.79
412.57	3254.22
412.77	3213.26
412.98	3219.41
413.19	3143.63
413.39	3200.98
413.60	3127.25
413.81	3608.52
414.01	3055.57
414.22	3090.38
414.43	3250.13
414.63	3198.93
414.84	3469.26
415.05	3041.23
415.25	2869.20
415.46	3352.52
415.67	3178.45
415.87	3123.15
416.08	3002.32
416.29	3270.61
416.49	3452.88
416.70	3065.81
416.91	3078.10
417.11	3135.44
417.32	3542.99
417.53	3170.26
417.73	3184.59
417.94	3286.99
418.15	3233.74
418.35	3088.34
418.56	3117.01
418.77	3819.46
418.97	3389.39
419.18	3196.88
419.38	2740.18
419.59	3338.19
419.80	3575.75
420.00	2990.03
420.21	3022.80
420.42	3516.36
420.62	3409.87
420.83	3000.27
421.04	3057.62
421.24	3282.89
421.45	3483.59
421.65	3100.62
421.86	3014.61
422.07	3512.27
422.27	3411.92
422.48	2975.70
422.69	2930.64
422.89	3299.28
423.10	3278.80
423.30	2920.40
423.51	3139.54
423.72	3303.37
423.92	3407.82
424.13	2930.64
424.33	3049.43
424.54	3389.39
424.75	3352.52
424.95	3286.99
425.16	2975.70
425.36	3250.13
425.57	3452.88
425.78	3174.35
425.98	3102.67
426.19	3172.30
426.39	3114.96
426.60	3186.64
426.81	3131.34
427.01	3344.33
427.22	3104.72
427.42	2848.72
427.63	2977.75
427.83	3553.23
428.04	3633.10
428.25	3129.30
428.45	3223.50
428.66	3524.55
428.86	3180.50
429.07	3082.19
429.28	3053.52
429.48	3231.69
429.69	3125.20
429.89	3059.67
430.10	2975.70
430.30	3426.25
430.51	3497.93
430.71	2936.79
430.92	3096.53
431.13	3127.25
431.33	3403.72
431.54	3172.30
431.74	3243.98
431.95	3751.88
432.15	3057.62
432.36	3090.38
432.56	3110.86
432.77	3700.68
432.98	3663.82
433.18	3098.58
433.39	2914.26
433.59	3131.34
433.80	3708.87
434.00	3248.08
434.21	3119.06
434.41	3082.19
434.62	3778.50
434.82	2987.99
435.03	2930.64
435.23	3297.23
435.44	2934.74
435.64	3016.66
435.85	3155.92
436.06	3377.10
436.26	3516.36
436.47	3110.86
436.67	3045.33
436.88	3182.54
437.08	3508.17
437.29	3241.93
437.49	3260.37
437.70	3487.69
437.90	3225.55
438.11	3262.41
438.31	3162.06
438.52	3559.37
438.72	3551.18
438.93	3403.72
439.13	3104.72
439.34	3477.45
439.54	3067.86
439.75	3278.80
439.95	3143.63
440.16	3147.73
440.36	3256.27
440.57	3104.72
440.77	3121.10
440.98	3286.99
441.18	3409.87
441.39	2918.36
441.59	2959.31
441.80	3731.40
442.00	3250.13
442.21	3190.74
442.41	2920.40
442.62	3514.31
442.82	3190.74
443.02	3071.95
443.23	3131.34
443.43	3237.84
443.64	3549.13
443.84	2965.46
444.05	3186.64
444.25	3237.84
444.46	3229.65
444.66	3041.23
444.87	3330.00
445.07	2924.50
445.28	3256.27
445.48	3180.50
445.69	3166.16
445.89	3829.70
446.09	3213.26
446.30	3358.67
446.50	3418.06
446.71	4992.95
446.91	6352.80
447.12	7055.25
447.32	7559.05
447.53	7706.51
447.73	6430.62
447.93	5496.75
448.14	5359.53
448.34	5474.22
448.55	4599.74
448.75	4423.61
448.96	4206.53
449.16	4171.71
449.36	3964.87
449.57	3387.34
449.77	3186.64
449.98	3172.30
450.18	3360.72
450.39	3010.51
450.59	3280.85
450.79	3291.09
451.00	3272.65
451.20	3229.65
451.41	3071.95
451.61	3356.62
451.81	3200.98
452.02	3037.14
452.22	3067.86
452.43	3196.88
