SpectraSuite Data File
++++++++++++++++++++++++++++++++++++
Date: Fri May 06 08:13:42 CEST 2016
User: root
Dark Spectrum Present: No
Reference Spectrum Present: No
Number of Sampled Component Spectra: 1
Spectrometers: USB4C02835
Integration Time (usec): 100000 (USB4C02835)
Spectra Averaged: 1 (USB4C02835)
Boxcar Smoothing: 0 (USB4C02835)
Correct for Electrical Dark: No (USB4C02835)
Strobe/Lamp Enabled: No (USB4C02835)
Correct for Detector Non-linearity: No (USB4C02835)
Correct for Stray Light: No (USB4C02835)
Number of Pixels in Processed Spectrum: 3648
>>>>>Begin Processed Spectral Data<<<<<
177.47	2287.58
177.69	2287.58
177.91	2287.58
178.13	2299.87
178.36	2267.10
178.58	3020.75
178.80	3149.78
179.02	3008.47
179.24	3063.76
179.46	2826.20
179.68	2838.48
179.90	3178.45
180.13	3315.66
180.35	2652.12
180.57	2762.71
180.79	3387.34
181.01	3276.75
181.23	2881.49
181.45	3043.28
181.67	3436.49
181.90	3436.49
182.12	2998.23
182.34	2793.43
182.56	3315.66
182.78	3364.81
183.00	2861.01
183.22	2832.34
183.44	2852.82
183.66	3971.01
183.89	2938.84
184.11	2885.59
184.33	3426.25
184.55	3551.18
184.77	2828.24
184.99	2881.49
185.21	3250.13
185.43	3751.88
185.65	2918.36
185.87	2840.53
186.10	3846.09
186.32	3837.89
186.54	3045.33
186.76	2977.75
186.98	3483.59
187.20	3274.70
187.42	2916.31
187.64	2809.81
187.86	3395.53
188.08	3422.16
188.30	2768.85
188.52	2918.36
188.75	3610.57
188.97	3559.37
189.19	2871.25
189.41	2824.15
189.63	3338.19
189.85	3248.08
190.07	2766.81
190.29	2711.51
190.51	3401.68
190.73	3080.14
190.95	3117.01
191.17	2934.74
191.39	2979.79
191.61	3190.74
191.84	2916.31
192.06	3010.51
192.28	2961.36
192.50	3856.33
192.72	3010.51
192.94	2961.36
193.16	3600.33
193.38	3317.71
193.60	2750.42
193.82	3037.14
194.04	3338.19
194.26	3377.10
194.48	2846.68
194.70	2832.34
194.92	3297.23
195.14	3516.36
195.36	2861.01
195.58	2959.31
195.80	3270.61
196.02	3256.27
196.24	2809.81
196.46	2932.69
196.69	3180.50
196.91	3823.56
197.13	2826.20
197.35	2897.88
197.57	3563.47
197.79	3385.29
198.01	2987.99
198.23	2883.54
198.45	3399.63
198.67	3012.56
198.89	2754.52
199.11	3033.04
199.33	3200.98
199.55	2867.16
199.77	2781.14
199.99	2961.36
200.21	3227.60
200.43	3346.38
200.65	2695.13
200.87	2734.04
201.09	3198.93
201.31	3186.64
201.53	2885.59
201.75	2869.20
201.97	3393.48
202.19	3211.22
202.41	2918.36
202.63	3045.33
202.85	3389.39
203.07	3389.39
203.29	2930.64
203.51	2846.68
203.73	3176.40
203.95	3868.61
204.17	2840.53
204.39	3078.10
204.61	3235.79
204.83	3141.58
205.05	2983.89
205.27	2930.64
205.49	3889.09
205.71	3225.55
205.93	2729.94
206.15	2775.00
206.37	3311.57
206.59	3254.22
206.81	2705.37
207.03	2717.65
207.25	3164.11
207.47	3387.34
207.69	2844.63
207.91	3053.52
208.13	3594.19
208.34	3213.26
208.56	2901.97
208.78	2764.76
209.00	3196.88
209.22	3270.61
209.44	2947.03
209.66	2879.44
209.88	3305.42
210.10	3196.88
210.32	2861.01
210.54	2963.41
210.76	3106.77
210.98	3444.68
211.20	2684.89
211.42	2979.79
211.64	3502.03
211.86	3368.91
212.08	2955.22
212.30	2938.84
212.52	3278.80
212.74	3370.96
212.96	3000.27
213.17	2877.40
213.39	3452.88
213.61	3676.10
213.83	2789.33
214.05	2734.04
214.27	3495.88
214.49	3094.48
214.71	2840.53
214.93	2961.36
215.15	3348.43
215.37	3479.50
215.59	2744.28
215.81	2906.07
216.03	3497.93
216.24	3291.09
216.46	2897.88
216.68	2965.46
216.90	3413.96
217.12	3428.30
217.34	2828.24
217.56	3033.04
217.78	3594.19
218.00	3370.96
218.22	2916.31
218.44	3082.19
218.66	3291.09
218.87	3655.62
219.09	2906.07
219.31	2867.16
219.53	3463.12
219.75	3256.27
219.97	2932.69
220.19	2846.68
220.41	3190.74
220.63	3594.19
220.85	2836.44
221.06	2922.45
221.28	3624.90
221.50	3442.64
221.72	2824.15
221.94	2766.81
222.16	3309.52
222.38	3542.99
222.60	2895.83
222.82	2858.96
223.03	3444.68
223.25	3131.34
223.47	2854.87
223.69	3045.33
223.91	3487.69
224.13	3325.90
224.35	2764.76
224.57	3051.47
224.78	3397.58
225.00	3002.32
225.22	2979.79
225.44	2775.00
225.66	3434.44
225.88	3207.12
226.10	3049.43
226.32	2791.38
226.53	3614.66
226.75	3176.40
226.97	2932.69
227.19	2893.78
227.41	3069.91
227.63	3260.37
227.85	2684.89
228.06	3002.32
228.28	3260.37
228.50	3504.07
228.72	2699.22
228.94	2811.86
229.16	2940.88
229.37	3004.37
229.59	2770.90
229.81	3086.29
230.03	3162.06
230.25	3041.23
230.47	2705.37
230.69	2922.45
230.90	3471.31
231.12	3174.35
231.34	2934.74
231.56	2912.21
231.78	3049.43
232.00	3174.35
232.21	2895.83
232.43	2910.16
232.65	2899.92
232.87	3360.72
233.09	2764.76
233.30	2881.49
233.52	3469.26
233.74	3338.19
233.96	2840.53
234.18	3061.71
234.40	3346.38
234.61	3704.78
234.83	2754.52
235.05	2856.92
235.27	3885.00
235.49	3426.25
235.70	2791.38
235.92	2893.78
236.14	3325.90
236.36	3749.83
236.58	2768.85
236.79	2928.60
237.01	3334.09
237.23	3155.92
237.45	3139.54
237.67	2932.69
237.88	3352.52
238.10	3696.58
238.32	2729.94
238.54	2840.53
238.76	3221.45
238.97	3141.58
239.19	2826.20
239.41	2951.12
239.63	3520.46
239.85	3188.69
240.06	2953.17
240.28	2779.09
240.50	3438.54
240.72	3284.94
240.93	2895.83
241.15	2969.55
241.37	3278.80
241.59	3585.99
241.81	2807.77
242.02	2981.84
242.24	3258.32
242.46	3489.74
242.68	2695.13
242.89	2770.90
243.11	3518.41
243.33	3192.78
243.55	2928.60
243.76	2893.78
243.98	3180.50
244.20	3299.28
244.42	2854.87
244.64	2797.53
244.85	3059.67
245.07	3139.54
245.29	2815.96
245.51	2852.82
245.72	3444.68
245.94	3534.79
246.16	2846.68
246.38	2826.20
246.59	3145.68
246.81	3100.62
247.03	2719.70
247.24	2795.48
247.46	3205.07
247.68	3344.33
247.90	2772.95
248.11	2910.16
248.33	3370.96
248.55	3340.24
248.77	2975.70
248.98	2973.65
249.20	3583.95
249.42	3321.81
249.64	2838.48
249.85	2793.43
250.07	3135.44
250.29	3389.39
250.50	2975.70
250.72	2779.09
250.94	3487.69
251.16	3762.12
251.37	2920.40
251.59	2924.50
251.81	3346.38
252.02	3510.22
252.24	2807.77
252.46	2996.18
252.68	3133.39
252.89	3047.38
253.11	2770.90
253.33	3035.09
253.54	3629.00
253.76	3069.91
253.98	2861.01
254.20	2813.91
254.41	3024.85
254.63	3262.41
254.85	2729.94
255.06	2942.93
255.28	3364.81
255.50	3295.18
255.71	2805.72
255.93	2668.50
256.15	3221.45
256.36	3346.38
256.58	2693.08
256.80	2795.48
257.02	3166.16
257.23	3180.50
257.45	2904.02
257.67	3014.61
257.88	3153.87
258.10	3428.30
258.32	2914.26
258.53	2924.50
258.75	3655.62
258.97	3100.62
259.18	2779.09
259.40	2775.00
259.62	3565.51
259.83	3651.53
260.05	2893.78
260.27	3772.36
260.48	3508.17
260.70	3067.86
260.92	2803.67
261.13	2910.16
261.35	3307.47
261.57	3360.72
261.78	2723.80
262.00	2863.06
262.22	3436.49
262.43	3131.34
262.65	2805.72
262.86	2904.02
263.08	3786.69
263.30	3356.62
263.51	2746.33
263.73	2791.38
263.95	3598.28
264.16	3117.01
264.38	2758.61
264.60	2695.13
264.81	3262.41
265.03	3475.40
265.25	3264.46
265.46	2820.05
265.68	3559.37
265.89	3377.10
266.11	2787.29
266.33	2811.86
266.54	3479.50
266.76	3346.38
266.98	2912.21
267.19	3035.09
267.41	3506.12
267.62	3241.93
267.84	2641.88
268.06	2983.89
268.27	3352.52
268.49	3575.75
268.70	2924.50
268.92	2869.20
269.14	3104.72
269.35	2955.22
269.57	3030.99
269.79	2977.75
270.00	3098.58
270.22	3631.05
270.43	2811.86
270.65	2750.42
270.87	3385.29
271.08	3422.16
271.30	2990.03
271.51	2856.92
271.73	3387.34
271.95	3547.08
272.16	2783.19
272.38	3002.32
272.59	3168.21
272.81	3413.96
273.02	2865.11
273.24	2918.36
273.46	3532.75
273.67	3100.62
273.89	2809.81
274.10	2889.68
274.32	3504.07
274.54	3276.75
274.75	3002.32
274.97	3033.04
275.18	3342.28
275.40	3395.53
275.61	2938.84
275.83	2951.12
276.05	3057.62
276.26	3268.56
276.48	3059.67
276.69	3071.95
276.91	3213.26
277.12	3575.75
277.34	3024.85
277.55	3198.93
277.77	3309.52
277.99	3260.37
278.20	2979.79
278.42	2918.36
278.63	3155.92
278.85	3090.38
279.06	2992.08
279.28	3157.97
279.49	3559.37
279.71	3426.25
279.93	3026.90
280.14	3053.52
280.36	3125.20
280.57	3467.21
280.79	3082.19
281.00	2836.44
281.22	3235.79
281.43	3540.94
281.65	2756.57
281.86	2809.81
282.08	3321.81
282.29	3678.15
282.51	2861.01
282.73	2861.01
282.94	3024.85
283.16	3459.02
283.37	3200.98
283.59	2949.08
283.80	3426.25
284.02	3409.87
284.23	3000.27
284.45	3008.47
284.66	3110.86
284.88	3131.34
285.09	2928.60
285.31	3074.00
285.52	3272.65
285.74	2983.89
285.95	3155.92
286.17	3057.62
286.38	3508.17
286.60	3239.89
286.81	2967.51
287.03	2971.60
287.24	3243.98
287.46	3377.10
287.67	3164.11
287.89	3155.92
288.10	3348.43
288.32	3321.81
288.53	3106.77
288.75	3133.39
288.96	3413.96
289.18	3166.16
289.39	2953.17
289.61	3088.34
289.82	3594.19
290.04	3764.17
290.25	2818.00
290.47	3119.06
290.68	3274.70
290.90	3438.54
291.11	2852.82
291.33	3223.50
291.54	3117.01
291.76	3217.36
291.97	3123.15
292.18	3108.82
292.40	3168.21
292.61	3155.92
292.83	3334.09
293.04	2981.84
293.26	3258.32
293.47	3340.24
293.69	2936.79
293.90	2879.44
294.12	3491.79
294.33	3182.54
294.55	3004.37
294.76	3237.84
294.97	3493.83
295.19	3674.06
295.40	2928.60
295.62	3035.09
295.83	3471.31
296.05	3133.39
296.26	3213.26
296.48	2979.79
296.69	3254.22
296.90	3180.50
297.12	3135.44
297.33	3141.58
297.55	3286.99
297.76	3278.80
297.98	3074.00
298.19	3211.22
298.41	3231.69
298.62	3147.73
298.83	3166.16
299.05	3086.29
299.26	3221.45
299.48	3041.23
299.69	3004.37
299.90	2996.18
300.12	3098.58
300.33	3518.41
300.55	3033.04
300.76	3061.71
300.98	3084.24
301.19	3407.82
301.40	2975.70
301.62	2987.99
301.83	3432.40
302.05	3350.48
302.26	2887.64
302.47	3198.93
302.69	3067.86
302.90	3289.04
303.12	2867.16
303.33	3102.67
303.54	3647.43
303.76	3200.98
303.97	2975.70
304.19	3205.07
304.40	2971.60
304.61	3342.28
304.83	3100.62
305.04	3061.71
305.26	3446.73
305.47	3229.65
305.68	3035.09
305.90	2879.44
306.11	3588.04
306.33	3225.55
306.54	2815.96
306.75	2947.03
306.97	2922.45
307.18	3082.19
307.39	3014.61
307.61	3094.48
307.82	3254.22
308.04	3413.96
308.25	2899.92
308.46	3184.59
308.68	3151.82
308.89	3215.31
309.10	3059.67
309.32	3053.52
309.53	3309.52
309.74	3313.61
309.96	2908.12
310.17	3112.91
310.39	3233.74
310.60	3391.44
310.81	3012.56
311.03	2928.60
311.24	3395.53
311.45	3321.81
311.67	3231.69
311.88	3082.19
312.09	3233.74
312.31	3205.07
312.52	3014.61
312.73	2936.79
312.95	3018.71
313.16	3106.77
313.37	3149.78
313.59	3190.74
313.80	3409.87
314.01	3557.32
314.23	2938.84
314.44	2852.82
314.65	3053.52
314.87	3082.19
315.08	2981.84
315.29	2983.89
315.51	3139.54
315.72	2994.13
315.93	3059.67
316.15	2936.79
316.36	3133.39
316.57	3399.63
316.79	3008.47
317.00	2916.31
317.21	3352.52
317.43	3117.01
317.64	3037.14
317.85	2883.54
318.07	3166.16
318.28	3176.40
318.49	3135.44
318.70	3307.47
318.92	3362.76
319.13	3321.81
319.34	3207.12
319.56	3012.56
319.77	3426.25
319.98	3459.02
320.20	3266.51
320.41	3194.83
320.62	3401.68
320.83	3078.10
321.05	3209.17
321.26	2994.13
321.47	3401.68
321.69	3534.79
321.90	2908.12
322.11	2955.22
322.32	3262.41
322.54	3528.65
322.75	3028.95
322.96	4054.98
323.18	2998.23
323.39	2805.72
323.60	2922.45
323.81	3160.02
324.03	3219.41
324.24	3348.43
324.45	3065.81
324.66	2934.74
324.88	3456.97
325.09	3620.81
325.30	2961.36
325.52	2928.60
325.73	3377.10
325.94	3084.24
326.15	2815.96
326.37	2838.48
326.58	3368.91
326.79	3618.76
327.00	2881.49
327.22	2959.31
327.43	3268.56
327.64	3030.99
327.85	3192.78
328.07	3037.14
328.28	3721.16
328.49	3104.72
328.70	2959.31
328.92	2971.60
329.13	3168.21
329.34	3340.24
329.55	3225.55
329.76	3131.34
329.98	3217.36
330.19	3510.22
330.40	3143.63
330.61	3057.62
330.83	3405.77
331.04	3043.28
331.25	3086.29
331.46	3106.77
331.68	3080.14
331.89	3454.92
332.10	2983.89
332.31	2887.64
332.52	3207.12
332.74	3487.69
332.95	2824.15
333.16	3033.04
333.37	3411.92
333.58	3170.26
333.80	3114.96
334.01	2752.47
334.22	3164.11
334.43	3028.95
334.64	2930.64
334.86	2957.27
335.07	3110.86
335.28	3573.71
335.49	2965.46
335.70	3051.47
335.92	3577.80
336.13	3704.78
336.34	3028.95
336.55	3018.71
336.76	3373.00
336.98	2963.41
337.19	2985.94
337.40	3125.20
337.61	3848.13
337.82	3196.88
338.04	3151.82
338.25	2852.82
338.46	3307.47
338.67	3241.93
338.88	2926.55
339.09	2850.77
339.31	3184.59
339.52	3000.27
339.73	3010.51
339.94	3071.95
340.15	3411.92
340.36	3157.97
340.58	3055.57
340.79	2889.68
341.00	3393.48
341.21	3082.19
341.42	3205.07
341.63	3004.37
341.85	3526.60
342.06	3295.18
342.27	2901.97
342.48	3131.34
342.69	2998.23
342.90	3360.72
343.12	3338.19
343.33	2901.97
343.54	3459.02
343.75	3604.42
343.96	3127.25
344.17	2953.17
344.38	3227.60
344.60	3112.91
344.81	2971.60
345.02	3057.62
345.23	3499.98
345.44	3733.45
345.65	3094.48
345.86	3102.67
346.07	3237.84
346.29	3131.34
346.50	3164.11
346.71	3090.38
346.92	3497.93
347.13	3708.87
347.34	3018.71
347.55	2885.59
347.76	3313.61
347.98	2938.84
348.19	3006.42
348.40	3157.97
348.61	3157.97
348.82	3643.34
349.03	3078.10
349.24	2924.50
349.45	3715.02
349.66	2877.40
349.88	2971.60
350.09	2879.44
350.30	3557.32
350.51	3577.80
350.72	3231.69
350.93	3000.27
351.14	3211.22
351.35	3327.95
351.56	2983.89
351.77	3055.57
351.99	3373.00
352.20	3598.28
352.41	3065.81
352.62	2785.24
352.83	3254.22
353.04	3284.94
353.25	3000.27
353.46	3041.23
353.67	3571.66
353.88	2885.59
354.09	2920.40
354.30	3055.57
354.52	3459.02
354.73	3182.54
354.94	2967.51
355.15	2971.60
355.36	3690.44
355.57	3149.78
355.78	2924.50
355.99	2959.31
356.20	3254.22
356.41	3512.27
356.62	3084.24
356.83	3022.80
357.04	3557.32
357.25	2983.89
357.46	2990.03
357.68	2869.20
357.89	3100.62
358.10	3170.26
358.31	3024.85
358.52	3102.67
358.73	3108.82
358.94	3123.15
359.15	3035.09
359.36	2934.74
359.57	3239.89
359.78	3237.84
359.99	3178.45
360.20	2944.98
360.41	3237.84
360.62	3418.06
360.83	3117.01
361.04	3000.27
361.25	3381.20
361.46	3624.90
361.67	3145.68
361.88	3088.34
362.09	3504.07
362.30	3354.57
362.51	2912.21
362.72	3057.62
362.93	3446.73
363.14	3325.90
363.35	3076.05
363.56	2897.88
363.78	3459.02
363.99	3495.88
364.20	2971.60
364.41	3080.14
364.62	3766.21
364.83	3346.38
365.04	2967.51
365.25	3065.81
365.46	3708.87
365.67	3155.92
365.88	3149.78
366.09	2977.75
366.30	3151.82
366.51	3282.89
366.72	3065.81
366.93	2936.79
367.14	3315.66
367.35	3610.57
367.56	2947.03
367.77	3172.30
367.98	3293.13
368.18	3344.33
368.39	3078.10
368.60	2951.12
368.81	3571.66
369.02	3305.42
369.23	3022.80
369.44	2813.91
369.65	3233.74
369.86	3416.01
370.07	3176.40
370.28	2871.25
370.49	3338.19
370.70	3385.29
370.91	2893.78
371.12	2897.88
371.33	3475.40
371.54	3205.07
371.75	3149.78
371.96	2729.94
372.17	3323.85
372.38	3274.70
372.59	3008.47
372.80	2930.64
373.01	3164.11
373.22	3315.66
373.43	3016.66
373.64	2840.53
373.85	3534.79
374.06	3577.80
374.26	3180.50
374.47	3098.58
374.68	3639.24
374.89	3164.11
375.10	3020.75
375.31	3002.32
375.52	3311.57
375.73	3311.57
375.94	2889.68
376.15	3149.78
376.36	3090.38
376.57	3160.02
376.78	3084.24
376.99	3074.00
377.20	3499.98
377.40	3207.12
377.61	3182.54
377.82	2908.12
378.03	3706.82
378.24	3475.40
378.45	3114.96
378.66	3051.47
378.87	2967.51
379.08	2959.31
379.29	2998.23
379.50	3223.50
379.71	3305.42
379.91	3405.77
380.12	2934.74
380.33	3057.62
380.54	3239.89
380.75	3317.71
380.96	3006.42
381.17	3051.47
381.38	3221.45
381.59	3307.47
381.80	3059.67
382.00	3225.55
382.21	3348.43
382.42	3573.71
382.63	3424.20
382.84	3180.50
383.05	3491.79
383.26	3618.76
383.47	3104.72
383.68	2977.75
383.88	3354.57
384.09	3280.85
384.30	3223.50
384.51	3088.34
384.72	3227.60
384.93	3028.95
385.14	3061.71
385.35	3315.66
385.55	2987.99
385.76	3487.69
385.97	3049.43
386.18	2863.06
386.39	3117.01
386.60	3114.96
386.81	3024.85
387.02	2947.03
387.22	3067.86
387.43	3456.97
387.64	3127.25
387.85	3252.17
388.06	3330.00
388.27	4442.04
388.48	7790.47
388.68	12296.00
388.89	15134.49
389.10	16707.33
389.31	16082.70
389.52	13203.25
389.73	11538.26
389.93	10418.02
390.14	9252.72
390.35	8501.12
390.56	7862.15
390.77	6670.23
390.98	5042.10
391.18	4241.34
391.39	3813.32
391.60	3327.95
391.81	3268.56
392.02	3026.90
392.23	3766.21
392.43	3389.39
392.64	3151.82
392.85	3180.50
393.06	3637.19
393.27	3223.50
393.47	2959.31
393.68	3127.25
393.89	3192.78
394.10	3567.56
394.31	2955.22
394.52	2953.17
394.72	3151.82
394.93	3643.34
395.14	2854.87
395.35	3080.14
395.56	3119.06
395.76	3241.93
395.97	2961.36
396.18	3174.35
396.39	3332.05
396.60	3899.33
396.80	3426.25
397.01	3362.76
397.22	3491.79
397.43	3499.98
397.64	3108.82
397.84	3160.02
398.05	3678.15
398.26	3237.84
398.47	3151.82
398.67	3221.45
398.88	3338.19
399.09	3530.70
399.30	2942.93
399.51	3098.58
399.71	3129.30
399.92	3260.37
400.13	3026.90
400.34	3049.43
400.54	3356.62
400.75	3557.32
400.96	3217.36
401.17	3278.80
401.37	3397.58
401.58	3207.12
401.79	3035.09
402.00	3139.54
402.21	3762.12
402.41	3446.73
402.62	3360.72
402.83	3581.90
403.04	3737.54
403.24	4077.51
403.45	3262.41
403.66	3401.68
403.87	3540.94
404.07	3590.09
404.28	3295.18
404.49	3442.64
404.70	3420.11
404.90	3471.31
405.11	3061.71
405.32	3194.83
405.52	3133.39
405.73	3190.74
405.94	2916.31
406.15	3096.53
406.35	3332.05
406.56	3532.75
406.77	3100.62
406.98	3065.81
407.18	3168.21
407.39	3592.14
407.60	3051.47
407.80	3149.78
408.01	3182.54
408.22	3452.88
408.43	3000.27
408.63	3123.15
408.84	3432.40
409.05	3438.54
409.25	2979.79
409.46	3055.57
409.67	3153.87
409.88	3108.82
410.08	3018.71
410.29	2965.46
410.50	3448.78
410.70	3364.81
410.91	2930.64
411.12	3157.97
411.32	3205.07
411.53	3139.54
411.74	3061.71
411.95	3114.96
412.15	3330.00
412.36	3385.29
412.57	3121.10
412.77	3231.69
412.98	3344.33
413.19	3209.17
413.39	3131.34
413.60	3047.38
413.81	3549.13
414.01	3010.51
414.22	3049.43
414.43	3274.70
414.63	3211.22
414.84	3454.92
415.05	3106.77
415.25	2912.21
415.46	3362.76
415.67	3239.89
415.87	3100.62
416.08	3061.71
416.29	3135.44
416.49	3381.20
416.70	3016.66
416.91	3028.95
417.11	3149.78
417.32	3459.02
417.53	3076.05
417.73	3129.30
417.94	3354.57
418.15	3309.52
418.35	3104.72
418.56	3160.02
418.77	3694.54
418.97	3354.57
419.18	3155.92
419.38	2791.38
419.59	3246.03
419.80	3545.03
420.00	2922.45
420.21	3033.04
420.42	3594.19
420.62	3368.91
420.83	3000.27
421.04	3028.95
421.24	3239.89
421.45	3475.40
421.65	3106.77
421.86	3065.81
422.07	3436.49
422.27	3385.29
422.48	3030.99
422.69	2861.01
422.89	3301.33
423.10	3262.41
423.30	3049.43
423.51	3086.29
423.72	3416.01
423.92	3446.73
424.13	2938.84
424.33	3147.73
424.54	3428.30
424.75	3274.70
424.95	3286.99
425.16	3022.80
425.36	3203.02
425.57	3418.06
425.78	3157.97
425.98	3037.14
426.19	3260.37
426.39	3043.28
426.60	3155.92
426.81	3147.73
427.01	3403.72
427.22	3114.96
427.42	2904.02
427.63	3016.66
427.83	3497.93
428.04	3590.09
428.25	3024.85
428.45	3194.83
428.66	3524.55
428.86	3325.90
429.07	3037.14
429.28	3131.34
429.48	3205.07
429.69	3098.58
429.89	3123.15
430.10	2977.75
430.30	3510.22
430.51	3524.55
430.71	2979.79
430.92	3180.50
431.13	3155.92
431.33	3356.62
431.54	3205.07
431.74	3250.13
431.95	3852.23
432.15	3045.33
432.36	3063.76
432.56	3117.01
432.77	3635.14
432.98	3614.66
433.18	3147.73
433.39	2977.75
433.59	3221.45
433.80	3633.10
434.00	3215.31
434.21	3041.23
434.41	3147.73
434.62	3803.08
434.82	2987.99
435.03	3004.37
435.23	3336.14
435.44	3024.85
435.64	2981.84
435.85	3131.34
436.06	3440.59
436.26	3532.75
436.47	3053.52
436.67	3016.66
436.88	3278.80
437.08	3475.40
437.29	3205.07
437.49	3270.61
437.70	3512.27
437.90	3221.45
438.11	3284.94
438.31	3100.62
438.52	3565.51
438.72	3520.46
438.93	3356.62
439.13	3133.39
439.34	3479.50
439.54	3205.07
439.75	3125.20
439.95	3143.63
440.16	3164.11
440.36	3311.57
440.57	3071.95
440.77	3080.14
440.98	3264.46
441.18	3397.58
441.39	3041.23
441.59	2971.60
441.80	3682.25
442.00	3325.90
442.21	3123.15
442.41	2895.83
442.62	3512.27
442.82	3162.06
443.02	3065.81
443.23	3133.39
443.43	3207.12
443.64	3583.95
443.84	2944.98
444.05	3114.96
444.25	3319.76
444.46	3176.40
444.66	3078.10
444.87	3381.20
445.07	3002.32
445.28	3262.41
445.48	3309.52
445.69	3143.63
445.89	3809.22
446.09	3272.65
446.30	3405.77
446.50	3536.84
446.71	5072.82
446.91	6465.44
447.12	7075.73
447.32	7714.70
447.53	7593.87
447.73	6481.82
447.93	5597.10
448.14	5277.62
448.34	5554.09
448.55	4519.87
448.75	4505.53
448.96	4216.77
449.16	4112.32
449.36	3864.52
449.57	3258.32
449.77	3231.69
449.98	3293.13
450.18	3346.38
450.39	3016.66
450.59	3340.24
450.79	3229.65
451.00	3174.35
451.20	3215.31
451.41	3028.95
451.61	3401.68
451.81	3305.42
452.02	3033.04
452.22	3020.75
452.43	3160.02
