SpectraSuite Data File
++++++++++++++++++++++++++++++++++++
Date: Fri May 06 08:14:02 CEST 2016
User: root
Dark Spectrum Present: No
Reference Spectrum Present: No
Number of Sampled Component Spectra: 1
Spectrometers: USB4C02835
Integration Time (usec): 100000 (USB4C02835)
Spectra Averaged: 1 (USB4C02835)
Boxcar Smoothing: 0 (USB4C02835)
Correct for Electrical Dark: No (USB4C02835)
Strobe/Lamp Enabled: No (USB4C02835)
Correct for Detector Non-linearity: No (USB4C02835)
Correct for Stray Light: No (USB4C02835)
Number of Pixels in Processed Spectrum: 3648
>>>>>Begin Processed Spectral Data<<<<<
177.47	2248.67
177.69	2248.67
177.91	2248.67
178.13	2273.25
178.36	2263.01
178.58	2963.41
178.80	3063.76
179.02	2949.08
179.24	2992.08
179.46	2711.51
179.68	2858.96
179.90	3258.32
180.13	3246.03
180.35	2705.37
180.57	2832.34
180.79	3397.58
181.01	3254.22
181.23	2875.35
181.45	2973.65
181.67	3436.49
181.90	3418.06
182.12	2897.88
182.34	2645.98
182.56	3389.39
182.78	3407.82
183.00	2828.24
183.22	2871.25
183.44	2949.08
183.66	3925.96
183.89	3008.47
184.11	2848.72
184.33	3413.96
184.55	3479.50
184.77	2879.44
184.99	2877.40
185.21	3172.30
185.43	3817.41
185.65	2836.44
185.87	2832.34
186.10	3784.65
186.32	3819.46
186.54	3057.62
186.76	2912.21
186.98	3600.33
187.20	3291.09
187.42	2893.78
187.64	2846.68
187.86	3344.33
188.08	3549.13
188.30	2758.61
188.52	2889.68
188.75	3540.94
188.97	3487.69
189.19	2887.64
189.41	2807.77
189.63	3512.27
189.85	3272.65
190.07	2725.85
190.29	2748.37
190.51	3256.27
190.73	2944.98
190.95	3092.43
191.17	2967.51
191.39	2926.55
191.61	3233.74
191.84	2832.34
192.06	2969.55
192.28	2959.31
192.50	3844.04
192.72	3000.27
192.94	2869.20
193.16	3502.03
193.38	3434.44
193.60	2809.81
193.82	3092.43
194.04	3510.22
194.26	3346.38
194.48	2914.26
194.70	2856.92
194.92	3153.87
195.14	3418.06
195.36	2863.06
195.58	2942.93
195.80	3231.69
196.02	3213.26
196.24	2799.57
196.46	2944.98
196.69	3241.93
196.91	3874.76
197.13	2783.19
197.35	2850.77
197.57	3606.47
197.79	3448.78
198.01	2899.92
198.23	2871.25
198.45	3387.34
198.67	3051.47
198.89	2684.89
199.11	2947.03
199.33	3127.25
199.55	2834.39
199.77	2885.59
199.99	2967.51
200.21	3239.89
200.43	3379.15
200.65	2664.41
200.87	2760.66
201.09	3346.38
201.31	3243.98
201.53	2928.60
201.75	2901.97
201.97	3354.57
202.19	3186.64
202.41	3067.86
202.63	2975.70
202.85	3424.20
203.07	3270.61
203.29	2975.70
203.51	2770.90
203.73	3069.91
203.95	3735.50
204.17	2848.72
204.39	2969.55
204.61	3262.41
204.83	3117.01
205.05	2990.03
205.27	2942.93
205.49	3708.87
205.71	3254.22
205.93	2793.43
206.15	2740.18
206.37	3330.00
206.59	3360.72
206.81	2754.52
207.03	2676.70
207.25	3151.82
207.47	3424.20
207.69	2842.58
207.91	3016.66
208.13	3635.14
208.34	3182.54
208.56	2805.72
208.78	2893.78
209.00	3237.84
209.22	3262.41
209.44	2963.41
209.66	2772.95
209.88	3340.24
210.10	3262.41
210.32	2848.72
210.54	2961.36
210.76	3139.54
210.98	3485.64
211.20	2707.41
211.42	2955.22
211.64	3504.07
211.86	3418.06
212.08	2914.26
212.30	2926.55
212.52	3231.69
212.74	3270.61
212.96	2961.36
213.17	2947.03
213.39	3459.02
213.61	3540.94
213.83	2795.48
214.05	2768.85
214.27	3485.64
214.49	3018.71
214.71	2877.40
214.93	3000.27
215.15	3325.90
215.37	3411.92
215.59	2770.90
215.81	2940.88
216.03	3590.09
216.24	3272.65
216.46	2842.58
216.68	2957.27
216.90	3377.10
217.12	3491.79
217.34	2828.24
217.56	3065.81
217.78	3610.57
218.00	3370.96
218.22	2969.55
218.44	2951.12
218.66	3315.66
218.87	3598.28
219.09	2920.40
219.31	2885.59
219.53	3399.63
219.75	3112.91
219.97	2852.82
220.19	2926.55
220.41	3305.42
220.63	3557.32
220.85	2865.11
221.06	2815.96
221.28	3571.66
221.50	3330.00
221.72	2922.45
221.94	2758.61
222.16	3289.04
222.38	3461.07
222.60	2848.72
222.82	2983.89
223.03	3452.88
223.25	3051.47
223.47	2772.95
223.69	3147.73
223.91	3370.96
224.13	3305.42
224.35	2746.33
224.57	3082.19
224.78	3389.39
225.00	3166.16
225.22	2955.22
225.44	2795.48
225.66	3512.27
225.88	3278.80
226.10	2947.03
226.32	2820.05
226.53	3585.99
226.75	3196.88
226.97	2926.55
227.19	2889.68
227.41	3137.49
227.63	3149.78
227.85	2664.41
228.06	2887.64
228.28	3309.52
228.50	3393.48
228.72	2674.65
228.94	2799.57
229.16	2973.65
229.37	3076.05
229.59	2797.53
229.81	3168.21
230.03	3194.83
230.25	3065.81
230.47	2617.30
230.69	2779.09
230.90	3377.10
231.12	3059.67
231.34	2959.31
231.56	2992.08
231.78	3123.15
232.00	3295.18
232.21	2957.27
232.43	2953.17
232.65	2836.44
232.87	3420.11
233.09	2627.54
233.30	2787.29
233.52	3532.75
233.74	3196.88
233.96	2799.57
234.18	3020.75
234.40	3260.37
234.61	3788.74
234.83	2686.94
235.05	2787.29
235.27	3858.37
235.49	3493.83
235.70	2762.71
235.92	2934.74
236.14	3368.91
236.36	3772.36
236.58	2729.94
236.79	3030.99
237.01	3241.93
237.23	3366.86
237.45	3024.85
237.67	2942.93
237.88	3413.96
238.10	3745.73
238.32	2734.04
238.54	2822.10
238.76	3305.42
238.97	3092.43
239.19	2721.75
239.41	2924.50
239.63	3516.36
239.85	3268.56
240.06	2861.01
240.28	2789.33
240.50	3465.16
240.72	3293.13
240.93	2738.13
241.15	2934.74
241.37	3327.95
241.59	3567.56
241.81	2740.18
242.02	2932.69
242.24	3377.10
242.46	3508.17
242.68	2725.85
242.89	2818.00
243.11	3491.79
243.33	3299.28
243.55	2861.01
243.76	2856.92
243.98	3176.40
244.20	3229.65
244.42	2895.83
244.64	2852.82
244.85	2955.22
245.07	3108.82
245.29	2944.98
245.51	2953.17
245.72	3350.48
245.94	3563.47
246.16	2861.01
246.38	2899.92
246.59	3121.10
246.81	3086.29
247.03	2785.24
247.24	2754.52
247.46	3190.74
247.68	3286.99
247.90	2707.41
248.11	2834.39
248.33	3393.48
248.55	3276.75
248.77	2936.79
248.98	2951.12
249.20	3553.23
249.42	3291.09
249.64	2787.29
249.85	2893.78
250.07	3205.07
250.29	3473.36
250.50	2906.07
250.72	2727.89
250.94	3360.72
251.16	3717.06
251.37	2791.38
251.59	2959.31
251.81	3477.45
252.02	3534.79
252.24	2801.62
252.46	2987.99
252.68	3135.44
252.89	3143.63
253.11	2691.03
253.33	2987.99
253.54	3559.37
253.76	3067.86
253.98	2805.72
254.20	2897.88
254.41	3033.04
254.63	3188.69
254.85	2717.65
255.06	3008.47
255.28	3364.81
255.50	3172.30
255.71	2871.25
255.93	2754.52
256.15	3196.88
256.36	3422.16
256.58	2746.33
256.80	2807.77
257.02	3203.02
257.23	3215.31
257.45	2910.16
257.67	2938.84
257.88	3260.37
258.10	3385.29
258.32	2879.44
258.53	2887.64
258.75	3612.62
258.97	3151.82
259.18	2754.52
259.40	2791.38
259.62	3614.66
259.83	3581.90
260.05	2818.00
260.27	3852.23
260.48	3483.59
260.70	3112.91
260.92	2723.80
261.13	2719.70
261.35	3299.28
261.57	3373.00
261.78	2756.57
262.00	2777.05
262.22	3387.34
262.43	3123.15
262.65	2879.44
262.86	2899.92
263.08	3782.60
263.30	3362.76
263.51	2609.11
263.73	2822.10
263.95	3590.09
264.16	3098.58
264.38	2641.88
264.60	2805.72
264.81	3200.98
265.03	3526.60
265.25	3305.42
265.46	2818.00
265.68	3487.69
265.89	3434.44
266.11	2711.51
266.33	2848.72
266.54	3471.31
266.76	3383.24
266.98	2967.51
267.19	3051.47
267.41	3528.65
267.62	3258.32
267.84	2631.64
268.06	2947.03
268.27	3383.24
268.49	3526.60
268.70	2932.69
268.92	2830.29
269.14	3086.29
269.35	2992.08
269.57	2975.70
269.79	2938.84
270.00	3139.54
270.22	3649.48
270.43	2865.11
270.65	2725.85
270.87	3311.57
271.08	3381.20
271.30	2928.60
271.51	2887.64
271.73	3409.87
271.95	3600.33
272.16	2842.58
272.38	3006.42
272.59	3139.54
272.81	3383.24
273.02	2770.90
273.24	2975.70
273.46	3557.32
273.67	3037.14
273.89	2738.13
274.10	2813.91
274.32	3526.60
274.54	3420.11
274.75	2971.60
274.97	2889.68
275.18	3395.53
275.40	3393.48
275.61	2938.84
275.83	3074.00
276.05	3112.91
276.26	3284.94
276.48	2992.08
276.69	3045.33
276.91	3166.16
277.12	3626.95
277.34	3164.11
277.55	3110.86
277.77	3315.66
277.99	3143.63
278.20	3020.75
278.42	2881.49
278.63	3125.20
278.85	3102.67
279.06	2942.93
279.28	3119.06
279.49	3499.98
279.71	3409.87
279.93	3028.95
280.14	3065.81
280.36	3041.23
280.57	3387.34
280.79	2998.23
281.00	2873.30
281.22	3188.69
281.43	3495.88
281.65	2818.00
281.86	2944.98
282.08	3356.62
282.29	3659.72
282.51	2856.92
282.73	2881.49
282.94	2949.08
283.16	3502.03
283.37	3139.54
283.59	3006.42
283.80	3506.12
284.02	3295.18
284.23	3100.62
284.45	3069.91
284.66	3155.92
284.88	3106.77
285.09	2930.64
285.31	3065.81
285.52	3334.09
285.74	2897.88
285.95	3223.50
286.17	3047.38
286.38	3446.73
286.60	3180.50
286.81	2938.84
287.03	2895.83
287.24	3307.47
287.46	3360.72
287.67	3114.96
287.89	3233.74
288.10	3311.57
288.32	3237.84
288.53	3127.25
288.75	3024.85
288.96	3381.20
289.18	3211.22
289.39	2947.03
289.61	3041.23
289.82	3792.84
290.04	3602.38
290.25	2942.93
290.47	3030.99
290.68	3274.70
290.90	3516.36
291.11	2797.53
291.33	3112.91
291.54	3067.86
291.76	3164.11
291.97	3196.88
292.18	3090.38
292.40	3229.65
292.61	3139.54
292.83	3303.37
293.04	2967.51
293.26	3180.50
293.47	3186.64
293.69	2914.26
293.90	2967.51
294.12	3545.03
294.33	3237.84
294.55	3078.10
294.76	3190.74
294.97	3577.80
295.19	3688.39
295.40	2932.69
295.62	3086.29
295.83	3436.49
296.05	3117.01
296.26	3254.22
296.48	2916.31
296.69	3223.50
296.90	3213.26
297.12	3176.40
297.33	3110.86
297.55	3319.76
297.76	3377.10
297.98	3051.47
298.19	3147.73
298.41	3190.74
298.62	3020.75
298.83	3153.87
299.05	2996.18
299.26	3184.59
299.48	3065.81
299.69	3082.19
299.90	3016.66
300.12	3135.44
300.33	3409.87
300.55	2992.08
300.76	2971.60
300.98	3024.85
301.19	3379.15
301.40	2998.23
301.62	2932.69
301.83	3317.71
302.05	3401.68
302.26	2963.41
302.47	3053.52
302.69	3055.57
302.90	3213.26
303.12	2783.19
303.33	3100.62
303.54	3696.58
303.76	3180.50
303.97	2906.07
304.19	3221.45
304.40	3098.58
304.61	3346.38
304.83	3147.73
305.04	3035.09
305.26	3422.16
305.47	3180.50
305.68	3063.76
305.90	2867.16
306.11	3481.55
306.33	3219.41
306.54	2840.53
306.75	2947.03
306.97	3018.71
307.18	3086.29
307.39	2944.98
307.61	3049.43
307.82	3274.70
308.04	3379.15
308.25	2840.53
308.46	3162.06
308.68	3260.37
308.89	3235.79
309.10	3139.54
309.32	3057.62
309.53	3254.22
309.74	3360.72
309.96	2934.74
310.17	3092.43
310.39	3196.88
310.60	3413.96
310.81	3045.33
311.03	2901.97
311.24	3405.77
311.45	3250.13
311.67	3274.70
311.88	3160.02
312.09	3299.28
312.31	3106.77
312.52	2979.79
312.73	2926.55
312.95	2963.41
313.16	3094.48
313.37	3145.68
313.59	3106.77
313.80	3340.24
314.01	3551.18
314.23	3059.67
314.44	3004.37
314.65	3049.43
314.87	3108.82
315.08	2977.75
315.29	2967.51
315.51	3049.43
315.72	2908.12
315.93	3094.48
316.15	3043.28
316.36	3225.55
316.57	3299.28
316.79	2910.16
317.00	2930.64
317.21	3434.44
317.43	3098.58
317.64	3141.58
317.85	2885.59
318.07	3114.96
318.28	3147.73
318.49	3121.10
318.70	3256.27
318.92	3352.52
319.13	3446.73
319.34	3172.30
319.56	2957.27
319.77	3471.31
319.98	3313.61
320.20	3235.79
320.41	3145.68
320.62	3397.58
320.83	3002.32
321.05	3205.07
321.26	3059.67
321.47	3297.23
321.69	3387.34
321.90	2899.92
322.11	2961.36
322.32	3348.43
322.54	3631.05
322.75	3028.95
322.96	4011.97
323.18	2965.46
323.39	2977.75
323.60	2813.91
323.81	3123.15
324.03	3168.21
324.24	3241.93
324.45	3067.86
324.66	2942.93
324.88	3536.84
325.09	3542.99
325.30	3010.51
325.52	2934.74
325.73	3381.20
325.94	3030.99
326.15	2891.73
326.37	2877.40
326.58	3569.61
326.79	3559.37
327.00	2822.10
327.22	3012.56
327.43	3125.20
327.64	3104.72
327.85	3098.58
328.07	2967.51
328.28	3653.58
328.49	3172.30
328.70	3071.95
328.92	3016.66
329.13	3223.50
329.34	3399.63
329.55	3217.36
329.76	3221.45
329.98	3143.63
330.19	3438.54
330.40	3057.62
330.61	3123.15
330.83	3450.83
331.04	3174.35
331.25	3127.25
331.46	3041.23
331.68	3037.14
331.89	3434.44
332.10	3006.42
332.31	2856.92
332.52	3233.74
332.74	3502.03
332.95	2793.43
333.16	2957.27
333.37	3381.20
333.58	3131.34
333.80	3030.99
334.01	2836.44
334.22	3205.07
334.43	3239.89
334.64	2914.26
334.86	2914.26
335.07	3078.10
335.28	3545.03
335.49	2885.59
335.70	3137.49
335.92	3499.98
336.13	3678.15
336.34	3016.66
336.55	3024.85
336.76	3303.37
336.98	2910.16
337.19	2994.13
337.40	3055.57
337.61	3786.69
337.82	3254.22
338.04	3090.38
338.25	2932.69
338.46	3278.80
338.67	3262.41
338.88	2885.59
339.09	2871.25
339.31	3198.93
339.52	3082.19
339.73	2983.89
339.94	3057.62
340.15	3368.91
340.36	3207.12
340.58	3024.85
340.79	2912.21
341.00	3389.39
341.21	3088.34
341.42	3233.74
341.63	2973.65
341.85	3489.74
342.06	3315.66
342.27	3008.47
342.48	3196.88
342.69	3020.75
342.90	3413.96
343.12	3340.24
343.33	2998.23
343.54	3545.03
343.75	3549.13
343.96	3145.68
344.17	2934.74
344.38	3284.94
344.60	3123.15
344.81	2889.68
345.02	2951.12
345.23	3594.19
345.44	3751.88
345.65	3061.71
345.86	3121.10
346.07	3266.51
346.29	3119.06
346.50	3117.01
346.71	3147.73
346.92	3567.56
347.13	3784.65
347.34	3024.85
347.55	2901.97
347.76	3338.19
347.98	2990.03
348.19	3117.01
348.40	3143.63
348.61	3215.31
348.82	3497.93
349.03	3018.71
349.24	2856.92
349.45	3610.57
349.66	2889.68
349.88	2998.23
350.09	2926.55
350.30	3571.66
350.51	3553.23
350.72	3213.26
350.93	2967.51
351.14	3082.19
351.35	3405.77
351.56	2998.23
351.77	3065.81
351.99	3446.73
352.20	3538.89
352.41	3096.53
352.62	2840.53
352.83	3239.89
353.04	3338.19
353.25	3016.66
353.46	3035.09
353.67	3495.88
353.88	2897.88
354.09	2920.40
354.30	3045.33
354.52	3454.92
354.73	3258.32
354.94	2979.79
355.15	3018.71
355.36	3649.48
355.57	3164.11
355.78	3024.85
355.99	3016.66
356.20	3221.45
356.41	3424.20
356.62	3082.19
356.83	3033.04
357.04	3465.16
357.25	2910.16
357.46	2973.65
357.68	2877.40
357.89	3098.58
358.10	3313.61
358.31	2920.40
358.52	3000.27
358.73	3053.52
358.94	3049.43
359.15	2996.18
359.36	3006.42
359.57	3237.84
359.78	3166.16
359.99	3098.58
360.20	2967.51
360.41	3286.99
360.62	3432.40
360.83	3080.14
361.04	3024.85
361.25	3321.81
361.46	3573.71
361.67	3030.99
361.88	3047.38
362.09	3411.92
362.30	3346.38
362.51	2987.99
362.72	3096.53
362.93	3428.30
363.14	3385.29
363.35	3065.81
363.56	2865.11
363.78	3551.18
363.99	3510.22
364.20	3024.85
364.41	3084.24
364.62	3704.78
364.83	3352.52
365.04	2914.26
365.25	3041.23
365.46	3766.21
365.67	3117.01
365.88	3213.26
366.09	2992.08
366.30	3139.54
366.51	3174.35
366.72	2961.36
366.93	2967.51
367.14	3383.24
367.35	3610.57
367.56	2920.40
367.77	3065.81
367.98	3252.17
368.18	3436.49
368.39	3168.21
368.60	2901.97
368.81	3420.11
369.02	3346.38
369.23	2981.84
369.44	2799.57
369.65	3213.26
369.86	3401.68
370.07	3030.99
370.28	2912.21
370.49	3268.56
370.70	3340.24
370.91	2838.48
371.12	2887.64
371.33	3442.64
371.54	3207.12
371.75	3084.24
371.96	2699.22
372.17	3289.04
372.38	3211.22
372.59	3035.09
372.80	2998.23
373.01	3114.96
373.22	3340.24
373.43	2992.08
373.64	2869.20
373.85	3516.36
374.06	3567.56
374.26	3207.12
374.47	3096.53
374.68	3536.84
374.89	3280.85
375.10	2936.79
375.31	3059.67
375.52	3387.34
375.73	3233.74
375.94	2840.53
376.15	3135.44
376.36	3125.20
376.57	3223.50
376.78	3098.58
376.99	3045.33
377.20	3532.75
377.40	3155.92
377.61	3301.33
377.82	2918.36
378.03	3606.47
378.24	3373.00
378.45	3082.19
378.66	3133.39
378.87	2934.74
379.08	3016.66
379.29	2940.88
379.50	3090.38
379.71	3313.61
379.91	3426.25
380.12	2990.03
380.33	3074.00
380.54	3170.26
380.75	3258.32
380.96	3094.48
381.17	3059.67
381.38	3278.80
381.59	3250.13
381.80	3082.19
382.00	3180.50
382.21	3278.80
382.42	3606.47
382.63	3434.44
382.84	3225.55
383.05	3512.27
383.26	3614.66
383.47	3092.43
383.68	2924.50
383.88	3436.49
384.09	3321.81
384.30	3264.46
384.51	3088.34
384.72	3160.02
384.93	2985.94
385.14	3123.15
385.35	3315.66
385.55	3053.52
385.76	3524.55
385.97	3047.38
386.18	2861.01
386.39	3106.77
386.60	3117.01
386.81	2985.94
387.02	2953.17
387.22	3088.34
387.43	3368.91
387.64	3106.77
387.85	3266.51
388.06	3332.05
388.27	4442.04
388.48	7864.20
388.68	12009.29
388.89	15140.63
389.10	16590.59
389.31	16410.37
389.52	13240.12
389.73	11370.32
389.93	10504.03
390.14	9346.93
390.35	8550.27
390.56	8001.41
390.77	6582.17
390.98	5078.96
391.18	4235.20
391.39	3921.86
391.60	3327.95
391.81	3295.18
392.02	3065.81
392.23	3737.54
392.43	3362.76
392.64	3129.30
392.85	3123.15
393.06	3661.77
393.27	3209.17
393.47	3082.19
393.68	3065.81
393.89	3282.89
394.10	3401.68
394.31	3086.29
394.52	2953.17
394.72	3057.62
394.93	3540.94
395.14	2965.46
395.35	3131.34
395.56	3135.44
395.76	3284.94
395.97	3069.91
396.18	3135.44
396.39	3336.14
396.60	4011.97
396.80	3450.83
397.01	3241.93
397.22	3479.50
397.43	3497.93
397.64	2965.46
397.84	3106.77
398.05	3758.02
398.26	3272.65
398.47	3168.21
398.67	3311.57
398.88	3332.05
399.09	3428.30
399.30	3016.66
399.51	3106.77
399.71	3139.54
399.92	3327.95
400.13	3141.58
400.34	3078.10
400.54	3225.55
400.75	3622.86
400.96	3280.85
401.17	3344.33
401.37	3448.78
401.58	3219.41
401.79	2992.08
402.00	3182.54
402.21	3729.35
402.41	3393.48
402.62	3444.68
402.83	3471.31
403.04	3680.20
403.24	4138.94
403.45	3209.17
403.66	3348.43
403.87	3442.64
404.07	3672.01
404.28	3274.70
404.49	3426.25
404.70	3352.52
404.90	3440.59
405.11	3028.95
405.32	3221.45
405.52	3217.36
405.73	3090.38
405.94	2979.79
406.15	3096.53
406.35	3327.95
406.56	3467.21
406.77	3125.20
406.98	3076.05
407.18	3096.53
407.39	3631.05
407.60	3137.49
407.80	3127.25
408.01	3147.73
408.22	3340.24
408.43	2924.50
408.63	3135.44
408.84	3420.11
409.05	3434.44
409.25	2963.41
409.46	3084.24
409.67	3207.12
409.88	3160.02
410.08	3125.20
410.29	3088.34
410.50	3485.64
410.70	3368.91
410.91	2955.22
411.12	3123.15
411.32	3252.17
411.53	3114.96
411.74	3045.33
411.95	3139.54
412.15	3280.85
412.36	3426.25
412.57	3172.30
412.77	3295.18
412.98	3219.41
413.19	3188.69
413.39	3184.59
413.60	3110.86
413.81	3575.75
414.01	3157.97
414.22	3004.37
414.43	3266.51
414.63	3198.93
414.84	3465.16
415.05	3203.02
415.25	2858.96
415.46	3381.20
415.67	3196.88
415.87	3069.91
416.08	3084.24
416.29	3186.64
416.49	3385.29
416.70	3100.62
416.91	3067.86
417.11	3215.31
417.32	3530.70
417.53	3172.30
417.73	3176.40
417.94	3241.93
418.15	3356.62
418.35	3121.10
418.56	3108.82
418.77	3727.30
418.97	3291.09
419.18	3123.15
419.38	2760.66
419.59	3262.41
419.80	3534.79
420.00	2955.22
420.21	3110.86
420.42	3518.41
420.62	3307.47
420.83	3016.66
421.04	3020.75
421.24	3323.85
421.45	3463.12
421.65	3071.95
421.86	3084.24
422.07	3495.88
422.27	3319.76
422.48	3078.10
422.69	2895.83
422.89	3373.00
423.10	3200.98
423.30	3084.24
423.51	3121.10
423.72	3282.89
423.92	3395.53
424.13	2983.89
424.33	3178.45
424.54	3502.03
424.75	3383.24
424.95	3266.51
425.16	2955.22
425.36	3305.42
425.57	3444.68
425.78	3319.76
425.98	3147.73
426.19	3246.03
426.39	3145.68
426.60	3131.34
426.81	3157.97
427.01	3405.77
427.22	3125.20
427.42	2893.78
427.63	2990.03
427.83	3473.36
428.04	3532.75
428.25	3155.92
428.45	3127.25
428.66	3538.89
428.86	3295.18
429.07	3086.29
429.28	3026.90
429.48	3293.13
429.69	3139.54
429.89	3147.73
430.10	2914.26
430.30	3413.96
430.51	3434.44
430.71	3010.51
430.92	3065.81
431.13	3213.26
431.33	3434.44
431.54	3125.20
431.74	3307.47
431.95	3733.45
432.15	3143.63
432.36	3123.15
432.56	3147.73
432.77	3610.57
432.98	3686.34
433.18	3119.06
433.39	3035.09
433.59	3184.59
433.80	3663.82
434.00	3190.74
434.21	3065.81
434.41	3135.44
434.62	3831.75
434.82	2992.08
435.03	2969.55
435.23	3323.85
435.44	2887.64
435.64	3121.10
435.85	3051.47
436.06	3424.20
436.26	3454.92
436.47	3074.00
436.67	3024.85
436.88	3164.11
437.08	3495.88
437.29	3172.30
437.49	3141.58
437.70	3545.03
437.90	3289.04
438.11	3297.23
438.31	3180.50
438.52	3487.69
438.72	3487.69
438.93	3422.16
439.13	3258.32
439.34	3487.69
439.54	3209.17
439.75	3178.45
439.95	3190.74
440.16	3121.10
440.36	3264.46
440.57	3127.25
440.77	3067.86
440.98	3223.50
441.18	3442.64
441.39	2949.08
441.59	2959.31
441.80	3712.97
442.00	3233.74
442.21	3153.87
442.41	2971.60
442.62	3522.51
442.82	3114.96
443.02	3030.99
443.23	3123.15
443.43	3270.61
443.64	3545.03
443.84	3024.85
444.05	3166.16
444.25	3330.00
444.46	3198.93
444.66	3084.24
444.87	3311.57
445.07	2908.12
445.28	3211.22
445.48	3196.88
445.69	3108.82
445.89	3835.85
446.09	3184.59
446.30	3399.63
446.50	3418.06
446.71	5113.78
446.91	6375.33
447.12	7135.12
447.32	7677.83
447.53	7726.99
447.73	6543.26
447.93	5623.72
448.14	5271.47
448.34	5443.50
448.55	4607.93
448.75	4454.33
448.96	4190.14
449.16	4130.75
449.36	3944.39
449.57	3336.14
449.77	3198.93
449.98	3162.06
450.18	3481.55
450.39	2967.51
450.59	3301.33
450.79	3250.13
451.00	3100.62
451.20	3373.00
451.41	3010.51
451.61	3346.38
451.81	3237.84
452.02	3008.47
452.22	3086.29
452.43	3155.92
