SpectraSuite Data File
++++++++++++++++++++++++++++++++++++
Date: Fri May 06 08:13:49 CEST 2016
User: root
Dark Spectrum Present: No
Reference Spectrum Present: No
Number of Sampled Component Spectra: 1
Spectrometers: USB4C02835
Integration Time (usec): 100000 (USB4C02835)
Spectra Averaged: 1 (USB4C02835)
Boxcar Smoothing: 0 (USB4C02835)
Correct for Electrical Dark: No (USB4C02835)
Strobe/Lamp Enabled: No (USB4C02835)
Correct for Detector Non-linearity: No (USB4C02835)
Correct for Stray Light: No (USB4C02835)
Number of Pixels in Processed Spectrum: 3648
>>>>>Begin Processed Spectral Data<<<<<
177.47	2258.91
177.69	2258.91
177.91	2258.91
178.13	2207.71
178.36	2254.81
178.58	2998.23
178.80	3098.58
179.02	3012.56
179.24	3045.33
179.46	2822.10
179.68	2785.24
179.90	3145.68
180.13	3317.71
180.35	2717.65
180.57	2820.05
180.79	3405.77
181.01	3321.81
181.23	2869.20
181.45	2987.99
181.67	3465.16
181.90	3483.59
182.12	2957.27
182.34	2775.00
182.56	3452.88
182.78	3368.91
183.00	2783.19
183.22	2901.97
183.44	2994.13
183.66	3917.76
183.89	3000.27
184.11	2869.20
184.33	3452.88
184.55	3528.65
184.77	2815.96
184.99	2897.88
185.21	3235.79
185.43	3872.71
185.65	2908.12
185.87	2826.20
186.10	3809.22
186.32	3774.41
186.54	3000.27
186.76	3008.47
186.98	3483.59
187.20	3309.52
187.42	2942.93
187.64	2830.29
187.86	3426.25
188.08	3450.83
188.30	2731.99
188.52	2947.03
188.75	3573.71
188.97	3547.08
189.19	2881.49
189.41	2815.96
189.63	3385.29
189.85	3246.03
190.07	2783.19
190.29	2711.51
190.51	3426.25
190.73	3033.04
190.95	3037.14
191.17	2957.27
191.39	3008.47
191.61	3182.54
191.84	2856.92
192.06	3030.99
192.28	2953.17
192.50	3934.15
192.72	2992.08
192.94	2955.22
193.16	3424.20
193.38	3381.20
193.60	2723.80
193.82	2959.31
194.04	3493.83
194.26	3362.76
194.48	2856.92
194.70	2865.11
194.92	3149.78
195.14	3463.12
195.36	2820.05
195.58	2940.88
195.80	3307.47
196.02	3176.40
196.24	2682.84
196.46	2926.55
196.69	3184.59
196.91	3831.75
197.13	2848.72
197.35	2879.44
197.57	3532.75
197.79	3444.68
198.01	3010.51
198.23	2869.20
198.45	3317.71
198.67	3080.14
198.89	2705.37
199.11	2971.60
199.33	3090.38
199.55	2920.40
199.77	2809.81
199.99	3010.51
200.21	3217.36
200.43	3477.45
200.65	2787.29
200.87	2629.59
201.09	3250.13
201.31	3321.81
201.53	2850.77
201.75	2961.36
201.97	3307.47
202.19	3188.69
202.41	2942.93
202.63	3049.43
202.85	3450.83
203.07	3352.52
203.29	2944.98
203.51	2746.33
203.73	3119.06
203.95	3917.76
204.17	2856.92
204.39	3000.27
204.61	3225.55
204.83	3194.83
205.05	3059.67
205.27	2926.55
205.49	3917.76
205.71	3250.13
205.93	2680.79
206.15	2795.48
206.37	3317.71
206.59	3278.80
206.81	2682.84
207.03	2738.13
207.25	3133.39
207.47	3434.44
207.69	2897.88
207.91	3067.86
208.13	3682.25
208.34	3239.89
208.56	2781.14
208.78	2822.10
209.00	3153.87
209.22	3172.30
209.44	2840.53
209.66	2865.11
209.88	3278.80
210.10	3225.55
210.32	2801.62
210.54	2983.89
210.76	3194.83
210.98	3456.97
211.20	2734.04
211.42	2944.98
211.64	3575.75
211.86	3346.38
212.08	2928.60
212.30	2899.92
212.52	3274.70
212.74	3426.25
212.96	2936.79
213.17	2920.40
213.39	3551.18
213.61	3626.95
213.83	2793.43
214.05	2717.65
214.27	3438.54
214.49	3024.85
214.71	2820.05
214.93	2926.55
215.15	3274.70
215.37	3418.06
215.59	2746.33
215.81	2901.97
216.03	3563.47
216.24	3305.42
216.46	2906.07
216.68	2928.60
216.90	3547.08
217.12	3518.41
217.34	2772.95
217.56	3090.38
217.78	3542.99
218.00	3397.58
218.22	2992.08
218.44	2928.60
218.66	3221.45
218.87	3637.19
219.09	2844.63
219.31	2832.34
219.53	3368.91
219.75	3250.13
219.97	2899.92
220.19	2809.81
220.41	3295.18
220.63	3565.51
220.85	2897.88
221.06	2901.97
221.28	3553.23
221.50	3395.53
221.72	2863.06
221.94	2742.23
222.16	3311.57
222.38	3438.54
222.60	2822.10
222.82	2904.02
223.03	3424.20
223.25	3121.10
223.47	2838.48
223.69	3106.77
223.91	3502.03
224.13	3270.61
224.35	2830.29
224.57	3090.38
224.78	3418.06
225.00	3055.57
225.22	2981.84
225.44	2775.00
225.66	3452.88
225.88	3178.45
226.10	2996.18
226.32	2861.01
226.53	3559.37
226.75	3213.26
226.97	2992.08
227.19	2879.44
227.41	3108.82
227.63	3227.60
227.85	2691.03
228.06	2992.08
228.28	3289.04
228.50	3545.03
228.72	2715.61
228.94	2805.72
229.16	2912.21
229.37	3045.33
229.59	2838.48
229.81	3147.73
230.03	3233.74
230.25	2977.75
230.47	2674.65
230.69	2840.53
230.90	3536.84
231.12	3139.54
231.34	2963.41
231.56	2971.60
231.78	3018.71
232.00	3334.09
232.21	2877.40
232.43	2910.16
232.65	2809.81
232.87	3413.96
233.09	2688.98
233.30	2803.67
233.52	3604.42
233.74	3221.45
233.96	2828.24
234.18	3041.23
234.40	3327.95
234.61	3684.30
234.83	2789.33
235.05	2803.67
235.27	3741.64
235.49	3459.02
235.70	2795.48
235.92	2887.64
236.14	3348.43
236.36	3790.79
236.58	2781.14
236.79	2981.84
237.01	3221.45
237.23	3147.73
237.45	3143.63
237.67	2932.69
237.88	3401.68
238.10	3669.96
238.32	2822.10
238.54	2791.38
238.76	3256.27
238.97	3055.57
239.19	2746.33
239.41	2918.36
239.63	3485.64
239.85	3217.36
240.06	2893.78
240.28	2856.92
240.50	3534.79
240.72	3301.33
240.93	2752.47
241.15	3061.71
241.37	3260.37
241.59	3557.32
241.81	2899.92
242.02	2920.40
242.24	3332.05
242.46	3438.54
242.68	2701.27
242.89	2801.62
243.11	3377.10
243.33	3217.36
243.55	2910.16
243.76	2871.25
243.98	3094.48
244.20	3330.00
244.42	2877.40
244.64	2838.48
244.85	3010.51
245.07	3217.36
245.29	2842.58
245.51	2863.06
245.72	3344.33
245.94	3434.44
246.16	2764.76
246.38	2934.74
246.59	3241.93
246.81	3026.90
247.03	2729.94
247.24	2697.17
247.46	3235.79
247.68	3289.04
247.90	2820.05
248.11	2840.53
248.33	3405.77
248.55	3229.65
248.77	2867.16
248.98	3039.19
249.20	3622.86
249.42	3368.91
249.64	2893.78
249.85	2779.09
250.07	3160.02
250.29	3411.92
250.50	2920.40
250.72	2766.81
250.94	3319.76
251.16	3702.73
251.37	2846.68
251.59	2957.27
251.81	3377.10
252.02	3624.90
252.24	2768.85
252.46	3045.33
252.68	3151.82
252.89	3096.53
253.11	2691.03
253.33	3090.38
253.54	3557.32
253.76	3055.57
253.98	2844.63
254.20	2836.44
254.41	3000.27
254.63	3319.76
254.85	2775.00
255.06	2990.03
255.28	3362.76
255.50	3182.54
255.71	2856.92
255.93	2693.08
256.15	3258.32
256.36	3330.00
256.58	2789.33
256.80	2846.68
257.02	3176.40
257.23	3254.22
257.45	2852.82
257.67	3039.19
257.88	3137.49
258.10	3325.90
258.32	2877.40
258.53	2953.17
258.75	3643.34
258.97	3205.07
259.18	2826.20
259.40	2791.38
259.62	3555.27
259.83	3565.51
260.05	2904.02
260.27	3796.93
260.48	3438.54
260.70	3112.91
260.92	2795.48
261.13	2865.11
261.35	3315.66
261.57	3344.33
261.78	2754.52
262.00	2729.94
262.22	3352.52
262.43	3141.58
262.65	2787.29
262.86	2809.81
263.08	3811.27
263.30	3330.00
263.51	2695.13
263.73	2836.44
263.95	3542.99
264.16	3049.43
264.38	2719.70
264.60	2844.63
264.81	3336.14
265.03	3520.46
265.25	3213.26
265.46	2791.38
265.68	3471.31
265.89	3467.21
266.11	2750.42
266.33	2824.15
266.54	3516.36
266.76	3430.35
266.98	2867.16
267.19	3057.62
267.41	3524.55
267.62	3213.26
267.84	2703.32
268.06	2969.55
268.27	3289.04
268.49	3461.07
268.70	2895.83
268.92	2869.20
269.14	3129.30
269.35	3002.32
269.57	3035.09
269.79	2987.99
270.00	3200.98
270.22	3665.86
270.43	2854.87
270.65	2731.99
270.87	3362.76
271.08	3436.49
271.30	2975.70
271.51	2826.20
271.73	3401.68
271.95	3561.42
272.16	2846.68
272.38	3026.90
272.59	3170.26
272.81	3481.55
273.02	2729.94
273.24	2979.79
273.46	3585.99
273.67	3022.80
273.89	2779.09
274.10	2906.07
274.32	3512.27
274.54	3411.92
274.75	2938.84
274.97	2971.60
275.18	3467.21
275.40	3336.14
275.61	2906.07
275.83	3004.37
276.05	3094.48
276.26	3254.22
276.48	3028.95
276.69	3051.47
276.91	3143.63
277.12	3633.10
277.34	3063.76
277.55	3129.30
277.77	3237.84
277.99	3182.54
278.20	2881.49
278.42	2867.16
278.63	3166.16
278.85	3106.77
279.06	2979.79
279.28	3053.52
279.49	3549.13
279.71	3381.20
279.93	3049.43
280.14	3049.43
280.36	3160.02
280.57	3538.89
280.79	3045.33
281.00	2895.83
281.22	3106.77
281.43	3499.98
281.65	2770.90
281.86	2885.59
282.08	3379.15
282.29	3672.01
282.51	2893.78
282.73	2869.20
282.94	3024.85
283.16	3434.44
283.37	3133.39
283.59	2938.84
283.80	3430.35
284.02	3297.23
284.23	3059.67
284.45	3028.95
284.66	3020.75
284.88	3090.38
285.09	2887.64
285.31	3078.10
285.52	3389.39
285.74	2936.79
285.95	3295.18
286.17	3000.27
286.38	3506.12
286.60	3096.53
286.81	2990.03
287.03	2994.13
287.24	3327.95
287.46	3467.21
287.67	3151.82
287.89	3069.91
288.10	3215.31
288.32	3286.99
288.53	3147.73
288.75	3074.00
288.96	3422.16
289.18	3229.65
289.39	2926.55
289.61	3028.95
289.82	3657.67
290.04	3655.62
290.25	2820.05
290.47	3065.81
290.68	3194.83
290.90	3491.79
291.11	2785.24
291.33	3123.15
291.54	3090.38
291.76	3074.00
291.97	3041.23
292.18	3002.32
292.40	3127.25
292.61	3151.82
292.83	3297.23
293.04	2996.18
293.26	3352.52
293.47	3186.64
293.69	2871.25
293.90	2871.25
294.12	3510.22
294.33	3274.70
294.55	3002.32
294.76	3151.82
294.97	3551.18
295.19	3641.29
295.40	2996.18
295.62	3037.14
295.83	3448.78
296.05	3139.54
296.26	3209.17
296.48	3084.24
296.69	3266.51
296.90	3293.13
297.12	3110.86
297.33	3110.86
297.55	3270.61
297.76	3418.06
297.98	3106.77
298.19	3129.30
298.41	3221.45
298.62	3160.02
298.83	3260.37
299.05	3119.06
299.26	3170.26
299.48	3098.58
299.69	3112.91
299.90	2926.55
300.12	3145.68
300.33	3393.48
300.55	3033.04
300.76	3002.32
300.98	3016.66
301.19	3385.29
301.40	2961.36
301.62	2992.08
301.83	3379.15
302.05	3233.74
302.26	2983.89
302.47	3088.34
302.69	3090.38
302.90	3260.37
303.12	2824.15
303.33	3129.30
303.54	3643.34
303.76	3153.87
303.97	2936.79
304.19	3149.78
304.40	3127.25
304.61	3389.39
304.83	3051.47
305.04	3084.24
305.26	3504.07
305.47	3088.34
305.68	3043.28
305.90	2865.11
306.11	3487.69
306.33	3231.69
306.54	2818.00
306.75	2967.51
306.97	2996.18
307.18	3141.58
307.39	3008.47
307.61	3039.19
307.82	3215.31
308.04	3395.53
308.25	2869.20
308.46	3141.58
308.68	3336.14
308.89	3239.89
309.10	3059.67
309.32	3069.91
309.53	3286.99
309.74	3469.26
309.96	2918.36
310.17	3080.14
310.39	3180.50
310.60	3373.00
310.81	3033.04
311.03	2854.87
311.24	3456.97
311.45	3327.95
311.67	3338.19
311.88	3074.00
312.09	3157.97
312.31	3200.98
312.52	2899.92
312.73	2916.31
312.95	3047.38
313.16	3055.57
313.37	3098.58
313.59	3166.16
313.80	3426.25
314.01	3573.71
314.23	2955.22
314.44	2934.74
314.65	3004.37
314.87	3149.78
315.08	3016.66
315.29	3012.56
315.51	3076.05
315.72	3004.37
315.93	3074.00
316.15	3022.80
316.36	3170.26
316.57	3264.46
316.79	2967.51
317.00	2959.31
317.21	3409.87
317.43	3166.16
317.64	3049.43
317.85	2944.98
318.07	3067.86
318.28	3198.93
318.49	3067.86
318.70	3299.28
318.92	3334.09
319.13	3393.48
319.34	3205.07
319.56	3080.14
319.77	3348.43
319.98	3366.86
320.20	3223.50
320.41	3143.63
320.62	3401.68
320.83	3018.71
321.05	3248.08
321.26	3018.71
321.47	3332.05
321.69	3487.69
321.90	2922.45
322.11	2961.36
322.32	3358.67
322.54	3690.44
322.75	2916.31
322.96	3960.77
323.18	2928.60
323.39	2947.03
323.60	2861.01
323.81	3112.91
324.03	3137.49
324.24	3323.85
324.45	3059.67
324.66	2975.70
324.88	3499.98
325.09	3594.19
325.30	2947.03
325.52	2893.78
325.73	3401.68
325.94	3119.06
326.15	2897.88
326.37	2865.11
326.58	3522.51
326.79	3643.34
327.00	2924.50
327.22	2928.60
327.43	3262.41
327.64	3018.71
327.85	3047.38
328.07	3033.04
328.28	3719.11
328.49	3188.69
328.70	3041.23
328.92	3030.99
329.13	3258.32
329.34	3434.44
329.55	3307.47
329.76	3129.30
329.98	3102.67
330.19	3522.51
330.40	3074.00
330.61	3086.29
330.83	3499.98
331.04	3082.19
331.25	3065.81
331.46	3063.76
331.68	3022.80
331.89	3475.40
332.10	2985.94
332.31	2932.69
332.52	3307.47
332.74	3463.12
332.95	2789.33
333.16	2967.51
333.37	3465.16
333.58	3137.49
333.80	3045.33
334.01	2809.81
334.22	3229.65
334.43	3155.92
334.64	2928.60
334.86	2940.88
335.07	3151.82
335.28	3573.71
335.49	2918.36
335.70	3067.86
335.92	3483.59
336.13	3676.10
336.34	3057.62
336.55	2942.93
336.76	3348.43
336.98	2930.64
337.19	3041.23
337.40	3045.33
337.61	3755.97
337.82	3205.07
338.04	3094.48
338.25	2830.29
338.46	3282.89
338.67	3284.94
338.88	2889.68
339.09	2901.97
339.31	3162.06
339.52	3051.47
339.73	2953.17
339.94	3002.32
340.15	3434.44
340.36	3239.89
340.58	3049.43
340.79	2918.36
341.00	3461.07
341.21	3129.30
341.42	3229.65
341.63	2949.08
341.85	3446.73
342.06	3344.33
342.27	2906.07
342.48	3188.69
342.69	2975.70
342.90	3399.63
343.12	3327.95
343.33	2965.46
343.54	3475.40
343.75	3555.27
343.96	3162.06
344.17	2893.78
344.38	3340.24
344.60	3145.68
344.81	2947.03
345.02	2983.89
345.23	3542.99
345.44	3747.78
345.65	3074.00
345.86	3090.38
346.07	3319.76
346.29	3149.78
346.50	3180.50
346.71	3108.82
346.92	3583.95
347.13	3745.73
347.34	3061.71
347.55	2873.30
347.76	3401.68
347.98	2959.31
348.19	3008.47
348.40	3164.11
348.61	3112.91
348.82	3557.32
349.03	3039.19
349.24	2899.92
349.45	3655.62
349.66	2883.54
349.88	2951.12
350.09	2875.35
350.30	3557.32
350.51	3555.27
350.72	3250.13
350.93	3041.23
351.14	3190.74
351.35	3426.25
351.56	3030.99
351.77	3100.62
351.99	3360.72
352.20	3524.55
352.41	3108.82
352.62	2797.53
352.83	3280.85
353.04	3270.61
353.25	3051.47
353.46	3035.09
353.67	3493.83
353.88	2910.16
354.09	2881.49
354.30	3055.57
354.52	3493.83
354.73	3192.78
354.94	3012.56
355.15	3131.34
355.36	3706.82
355.57	3200.98
355.78	2947.03
355.99	2985.94
356.20	3250.13
356.41	3475.40
356.62	3065.81
356.83	2975.70
357.04	3545.03
357.25	2940.88
357.46	3045.33
357.68	2879.44
357.89	3123.15
358.10	3233.74
358.31	2893.78
358.52	3037.14
358.73	3084.24
358.94	3053.52
359.15	2996.18
359.36	3033.04
359.57	3383.24
359.78	3168.21
359.99	3162.06
360.20	2863.06
360.41	3196.88
360.62	3428.30
360.83	3119.06
361.04	3039.19
361.25	3323.85
361.46	3659.72
361.67	3074.00
361.88	3067.86
362.09	3452.88
362.30	3362.76
362.51	2953.17
362.72	3119.06
362.93	3395.53
363.14	3422.16
363.35	3147.73
363.56	2916.31
363.78	3465.16
363.99	3436.49
364.20	3045.33
364.41	3020.75
364.62	3596.23
364.83	3256.27
365.04	2963.41
365.25	3104.72
365.46	3631.05
365.67	3094.48
365.88	3176.40
366.09	2944.98
366.30	3180.50
366.51	3262.41
366.72	2920.40
366.93	3004.37
367.14	3399.63
367.35	3585.99
367.56	2969.55
367.77	3178.45
367.98	3332.05
368.18	3366.86
368.39	3168.21
368.60	2901.97
368.81	3434.44
369.02	3332.05
369.23	3051.47
369.44	2899.92
369.65	3157.97
369.86	3327.95
370.07	3051.47
370.28	2922.45
370.49	3409.87
370.70	3375.05
370.91	2990.03
371.12	2914.26
371.33	3600.33
371.54	3164.11
371.75	3082.19
371.96	2789.33
372.17	3354.57
372.38	3327.95
372.59	2944.98
372.80	3002.32
373.01	3180.50
373.22	3319.76
373.43	2973.65
373.64	2865.11
373.85	3616.71
374.06	3547.08
374.26	3164.11
374.47	3080.14
374.68	3569.61
374.89	3321.81
375.10	2949.08
375.31	3106.77
375.52	3317.71
375.73	3303.37
375.94	2793.43
376.15	3114.96
376.36	3053.52
376.57	3135.44
376.78	3006.42
376.99	3137.49
377.20	3557.32
377.40	3248.08
377.61	3325.90
377.82	2975.70
378.03	3594.19
378.24	3448.78
378.45	3157.97
378.66	3143.63
378.87	2955.22
379.08	2975.70
379.29	3012.56
379.50	3155.92
379.71	3221.45
379.91	3348.43
380.12	2947.03
380.33	3086.29
380.54	3262.41
380.75	3280.85
380.96	3018.71
381.17	3016.66
381.38	3284.94
381.59	3227.60
381.80	3071.95
382.00	3239.89
382.21	3286.99
382.42	3565.51
382.63	3379.15
382.84	3182.54
383.05	3459.02
383.26	3477.45
383.47	3090.38
383.68	2967.51
383.88	3387.34
384.09	3336.14
384.30	3293.13
384.51	3166.16
384.72	3198.93
384.93	3078.10
385.14	3123.15
385.35	3317.71
385.55	3026.90
385.76	3524.55
385.97	3047.38
386.18	2926.55
386.39	3223.50
386.60	3149.78
386.81	3030.99
387.02	2951.12
387.22	3076.05
387.43	3444.68
387.64	3153.87
387.85	3344.33
388.06	3317.71
388.27	4351.93
388.48	7827.34
388.68	11913.03
388.89	15036.19
389.10	16305.93
389.31	16045.84
389.52	13109.05
389.73	11155.29
389.93	10262.37
390.14	9353.07
390.35	8476.54
390.56	7956.36
390.77	6533.02
390.98	4943.80
391.18	4138.94
391.39	3839.94
391.60	3246.03
391.81	3235.79
392.02	3018.71
392.23	3827.65
392.43	3375.05
392.64	3155.92
392.85	3139.54
393.06	3592.14
393.27	3260.37
393.47	3000.27
393.68	3059.67
393.89	3225.55
394.10	3528.65
394.31	2998.23
394.52	3012.56
394.72	3196.88
394.93	3534.79
395.14	2947.03
395.35	3096.53
395.56	3229.65
395.76	3225.55
395.97	3026.90
396.18	3186.64
396.39	3280.85
396.60	3934.15
396.80	3448.78
397.01	3330.00
397.22	3530.70
397.43	3508.17
397.64	3045.33
397.84	3084.24
398.05	3706.82
398.26	3246.03
398.47	3217.36
398.67	3272.65
398.88	3286.99
399.09	3442.64
399.30	3016.66
399.51	3041.23
399.71	3151.82
399.92	3254.22
400.13	3129.30
400.34	3055.57
400.54	3235.79
400.75	3557.32
400.96	3266.51
401.17	3325.90
401.37	3452.88
401.58	3180.50
401.79	3053.52
402.00	3164.11
402.21	3766.21
402.41	3426.25
402.62	3348.43
402.83	3559.37
403.04	3733.45
403.24	4077.51
403.45	3203.02
403.66	3383.24
403.87	3575.75
404.07	3626.95
404.28	3362.76
404.49	3344.33
404.70	3362.76
404.90	3428.30
405.11	3039.19
405.32	3157.97
405.52	3190.74
405.73	3147.73
405.94	2947.03
406.15	3053.52
406.35	3530.70
406.56	3375.05
406.77	3051.47
406.98	3049.43
407.18	3139.54
407.39	3655.62
407.60	3028.95
407.80	3127.25
408.01	3172.30
408.22	3446.73
408.43	2994.13
408.63	3196.88
408.84	3370.96
409.05	3540.94
409.25	3045.33
409.46	3098.58
409.67	3139.54
409.88	3069.91
410.08	3024.85
410.29	3014.61
410.50	3397.58
410.70	3413.96
410.91	2922.45
411.12	3100.62
411.32	3270.61
411.53	3205.07
411.74	3016.66
411.95	3246.03
412.15	3235.79
412.36	3428.30
412.57	3229.65
412.77	3221.45
412.98	3200.98
413.19	3194.83
413.39	3166.16
413.60	3071.95
413.81	3655.62
414.01	3090.38
414.22	3143.63
414.43	3211.22
414.63	3174.35
414.84	3411.92
415.05	3076.05
415.25	2944.98
415.46	3397.58
415.67	3139.54
415.87	3121.10
416.08	3035.09
416.29	3221.45
416.49	3387.34
416.70	3080.14
416.91	3057.62
417.11	3248.08
417.32	3436.49
417.53	3090.38
417.73	3133.39
417.94	3301.33
418.15	3295.18
418.35	3069.91
418.56	3139.54
418.77	3829.70
418.97	3321.81
419.18	3211.22
419.38	2762.71
419.59	3237.84
419.80	3534.79
420.00	3010.51
420.21	3074.00
420.42	3553.23
420.62	3317.71
420.83	3076.05
421.04	2981.84
421.24	3241.93
421.45	3387.34
421.65	3018.71
421.86	3057.62
422.07	3520.46
422.27	3432.40
422.48	3016.66
422.69	2910.16
422.89	3270.61
423.10	3129.30
423.30	3037.14
423.51	3096.53
423.72	3358.67
423.92	3471.31
424.13	2973.65
424.33	3098.58
424.54	3481.55
424.75	3289.04
424.95	3274.70
425.16	3008.47
425.36	3280.85
425.57	3411.92
425.78	3121.10
425.98	3157.97
426.19	3303.37
426.39	3022.80
426.60	3151.82
426.81	3209.17
427.01	3348.43
427.22	3065.81
427.42	2930.64
427.63	3018.71
427.83	3516.36
428.04	3622.86
428.25	3090.38
428.45	3174.35
428.66	3471.31
428.86	3321.81
429.07	3082.19
429.28	3102.67
429.48	3172.30
429.69	3045.33
429.89	3102.67
430.10	3026.90
430.30	3481.55
430.51	3571.66
430.71	2996.18
430.92	3106.77
431.13	3123.15
431.33	3434.44
431.54	3196.88
431.74	3291.09
431.95	3725.26
432.15	3061.71
432.36	3121.10
432.56	3074.00
432.77	3626.95
432.98	3647.43
433.18	3100.62
433.39	2918.36
433.59	3270.61
433.80	3653.58
434.00	3215.31
434.21	3067.86
434.41	3157.97
434.62	3848.13
434.82	2977.75
435.03	2959.31
435.23	3311.57
435.44	2994.13
435.64	2938.84
435.85	3166.16
436.06	3479.50
436.26	3504.07
436.47	3002.32
436.67	3045.33
436.88	3217.36
437.08	3465.16
437.29	3196.88
437.49	3170.26
437.70	3444.68
437.90	3241.93
438.11	3260.37
438.31	3117.01
438.52	3542.99
438.72	3446.73
438.93	3518.41
439.13	3131.34
439.34	3444.68
439.54	3223.50
439.75	3213.26
439.95	3151.82
440.16	3157.97
440.36	3213.26
440.57	3008.47
440.77	3033.04
440.98	3356.62
441.18	3426.25
441.39	2963.41
441.59	2930.64
441.80	3760.07
442.00	3293.13
442.21	3125.20
442.41	2932.69
442.62	3504.07
442.82	3174.35
443.02	3067.86
443.23	3057.62
443.43	3270.61
443.64	3524.55
443.84	2873.30
444.05	3172.30
444.25	3327.95
444.46	3176.40
444.66	3067.86
444.87	3291.09
445.07	3008.47
445.28	3205.07
445.48	3278.80
445.69	3182.54
445.89	3737.54
446.09	3221.45
446.30	3346.38
446.50	3403.72
446.71	5058.48
446.91	6180.77
447.12	7255.95
447.32	7683.98
447.53	7546.76
447.73	6277.02
447.93	5474.22
448.14	5320.62
448.34	5416.88
448.55	4540.35
448.75	4360.13
448.96	4227.01
449.16	4075.46
449.36	3954.63
449.57	3375.05
449.77	3143.63
449.98	3225.55
450.18	3401.68
450.39	3026.90
450.59	3223.50
450.79	3270.61
451.00	3149.78
451.20	3340.24
451.41	3098.58
451.61	3430.35
451.81	3268.56
452.02	2963.41
452.22	3135.44
452.43	3227.60
