SpectraSuite Data File
++++++++++++++++++++++++++++++++++++
Date: Fri May 06 08:14:10 CEST 2016
User: root
Dark Spectrum Present: No
Reference Spectrum Present: No
Number of Sampled Component Spectra: 1
Spectrometers: USB4C02835
Integration Time (usec): 100000 (USB4C02835)
Spectra Averaged: 1 (USB4C02835)
Boxcar Smoothing: 0 (USB4C02835)
Correct for Electrical Dark: No (USB4C02835)
Strobe/Lamp Enabled: No (USB4C02835)
Correct for Detector Non-linearity: No (USB4C02835)
Correct for Stray Light: No (USB4C02835)
Number of Pixels in Processed Spectrum: 3648
>>>>>Begin Processed Spectral Data<<<<<
177.47	2263.01
177.69	2263.01
177.91	2263.01
178.13	2256.86
178.36	2289.63
178.58	2957.27
178.80	3094.48
179.02	2940.88
179.24	3090.38
179.46	2738.13
179.68	2858.96
179.90	3235.79
180.13	3190.74
180.35	2625.50
180.57	2848.72
180.79	3385.29
181.01	3180.50
181.23	2858.96
181.45	3012.56
181.67	3368.91
181.90	3432.40
182.12	2983.89
182.34	2697.17
182.56	3446.73
182.78	3311.57
183.00	2795.48
183.22	2887.64
183.44	3000.27
183.66	3919.81
183.89	2983.89
184.11	2912.21
184.33	3336.14
184.55	3516.36
184.77	2852.82
184.99	2848.72
185.21	3207.12
185.43	3839.94
185.65	2764.76
185.87	2842.58
186.10	3774.41
186.32	3811.27
186.54	2936.79
186.76	2944.98
186.98	3553.23
187.20	3262.41
187.42	2879.44
187.64	2834.39
187.86	3436.49
188.08	3491.79
188.30	2795.48
188.52	2922.45
188.75	3592.14
188.97	3534.79
189.19	2918.36
189.41	2783.19
189.63	3440.59
189.85	3241.93
190.07	2795.48
190.29	2713.56
190.51	3360.72
190.73	3053.52
190.95	3035.09
191.17	2854.87
191.39	2983.89
191.61	3248.08
191.84	2848.72
192.06	3047.38
192.28	3063.76
192.50	3893.19
192.72	2947.03
192.94	2879.44
193.16	3557.32
193.38	3424.20
193.60	2734.04
193.82	3041.23
194.04	3547.08
194.26	3356.62
194.48	2961.36
194.70	2928.60
194.92	3229.65
195.14	3456.97
195.36	2801.62
195.58	2869.20
195.80	3317.71
196.02	3149.78
196.24	2836.44
196.46	2908.12
196.69	3223.50
196.91	3753.93
197.13	2955.22
197.35	2947.03
197.57	3610.57
197.79	3426.25
198.01	2861.01
198.23	2928.60
198.45	3377.10
198.67	3033.04
198.89	2682.84
199.11	2981.84
199.33	3155.92
199.55	2936.79
199.77	2775.00
199.99	3024.85
200.21	3229.65
200.43	3346.38
200.65	2727.89
200.87	2723.80
201.09	3272.65
201.31	3307.47
201.53	2928.60
201.75	2944.98
201.97	3354.57
202.19	3334.09
202.41	2987.99
202.63	2957.27
202.85	3452.88
203.07	3330.00
203.29	2979.79
203.51	2779.09
203.73	3090.38
203.95	3837.89
204.17	2885.59
204.39	2934.74
204.61	3209.17
204.83	3166.16
205.05	3016.66
205.27	3010.51
205.49	3606.47
205.71	3280.85
205.93	2729.94
206.15	2713.56
206.37	3387.34
206.59	3264.46
206.81	2705.37
207.03	2785.24
207.25	3127.25
207.47	3467.21
207.69	2848.72
207.91	3137.49
208.13	3647.43
208.34	3198.93
208.56	2869.20
208.78	2877.40
209.00	3157.97
209.22	3147.73
209.44	2942.93
209.66	2869.20
209.88	3303.37
210.10	3153.87
210.32	2854.87
210.54	2942.93
210.76	3293.13
210.98	3346.38
211.20	2762.71
211.42	3026.90
211.64	3528.65
211.86	3362.76
212.08	2904.02
212.30	2906.07
212.52	3139.54
212.74	3352.52
212.96	2922.45
213.17	2947.03
213.39	3477.45
213.61	3643.34
213.83	2836.44
214.05	2709.46
214.27	3508.17
214.49	3065.81
214.71	2809.81
214.93	3024.85
215.15	3241.93
215.37	3379.15
215.59	2680.79
215.81	2961.36
216.03	3549.13
216.24	3295.18
216.46	2820.05
216.68	2877.40
216.90	3430.35
217.12	3420.11
217.34	2852.82
217.56	2955.22
217.78	3583.95
218.00	3364.81
218.22	3030.99
218.44	2951.12
218.66	3325.90
218.87	3590.09
219.09	2951.12
219.31	2899.92
219.53	3379.15
219.75	3162.06
219.97	2916.31
220.19	2904.02
220.41	3260.37
220.63	3635.14
220.85	2934.74
221.06	2895.83
221.28	3647.43
221.50	3360.72
221.72	2897.88
221.94	2777.05
222.16	3295.18
222.38	3542.99
222.60	2856.92
222.82	2869.20
223.03	3553.23
223.25	3018.71
223.47	2912.21
223.69	3098.58
223.91	3364.81
224.13	3289.04
224.35	2764.76
224.57	3008.47
224.78	3377.10
225.00	3176.40
225.22	2947.03
225.44	2787.29
225.66	3381.20
225.88	3203.02
226.10	3030.99
226.32	2873.30
226.53	3608.52
226.75	3119.06
226.97	2932.69
227.19	2944.98
227.41	3084.24
227.63	3166.16
227.85	2617.30
228.06	2940.88
228.28	3311.57
228.50	3485.64
228.72	2723.80
228.94	2803.67
229.16	2944.98
229.37	3119.06
229.59	2750.42
229.81	3090.38
230.03	3198.93
230.25	3000.27
230.47	2682.84
230.69	2826.20
230.90	3516.36
231.12	3098.58
231.34	3006.42
231.56	2912.21
231.78	3076.05
232.00	3297.23
232.21	2938.84
232.43	2910.16
232.65	2838.48
232.87	3387.34
233.09	2756.57
233.30	2803.67
233.52	3475.40
233.74	3293.13
233.96	2770.90
234.18	3061.71
234.40	3276.75
234.61	3682.25
234.83	2772.95
235.05	2820.05
235.27	3719.11
235.49	3508.17
235.70	2754.52
235.92	2940.88
236.14	3385.29
236.36	3811.27
236.58	2772.95
236.79	2885.59
237.01	3260.37
237.23	3282.89
237.45	3153.87
237.67	2867.16
237.88	3336.14
238.10	3710.92
238.32	2803.67
238.54	2770.90
238.76	3264.46
238.97	3143.63
239.19	2764.76
239.41	2934.74
239.63	3442.64
239.85	3168.21
240.06	2930.64
240.28	2865.11
240.50	3516.36
240.72	3293.13
240.93	2750.42
241.15	2926.55
241.37	3395.53
241.59	3487.69
241.81	2897.88
242.02	2885.59
242.24	3291.09
242.46	3418.06
242.68	2680.79
242.89	2801.62
243.11	3497.93
243.33	3282.89
243.55	2953.17
243.76	2881.49
243.98	3180.50
244.20	3286.99
244.42	2881.49
244.64	2854.87
244.85	3065.81
245.07	3071.95
245.29	2854.87
245.51	2918.36
245.72	3375.05
245.94	3465.16
246.16	2801.62
246.38	2916.31
246.59	3137.49
246.81	3184.59
247.03	2791.38
247.24	2680.79
247.46	3192.78
247.68	3295.18
247.90	2906.07
248.11	2881.49
248.33	3377.10
248.55	3356.62
248.77	2930.64
248.98	2963.41
249.20	3626.95
249.42	3264.46
249.64	2858.96
249.85	2875.35
250.07	3180.50
250.29	3456.97
250.50	2944.98
250.72	2797.53
250.94	3373.00
251.16	3674.06
251.37	2854.87
251.59	2967.51
251.81	3418.06
252.02	3559.37
252.24	2779.09
252.46	2971.60
252.68	3141.58
252.89	3135.44
253.11	2686.94
253.33	3090.38
253.54	3600.33
253.76	3123.15
253.98	2838.48
254.20	2848.72
254.41	3051.47
254.63	3258.32
254.85	2797.53
255.06	2975.70
255.28	3405.77
255.50	3252.17
255.71	2846.68
255.93	2648.02
256.15	3282.89
256.36	3354.57
256.58	2781.14
256.80	2891.73
257.02	3227.60
257.23	3239.89
257.45	2942.93
257.67	3020.75
257.88	3200.98
258.10	3377.10
258.32	2836.44
258.53	2955.22
258.75	3682.25
258.97	3145.68
259.18	2766.81
259.40	2846.68
259.62	3639.24
259.83	3583.95
260.05	2852.82
260.27	3837.89
260.48	3448.78
260.70	3041.23
260.92	2807.77
261.13	2824.15
261.35	3215.31
261.57	3477.45
261.78	2762.71
262.00	2824.15
262.22	3409.87
262.43	3059.67
262.65	2861.01
262.86	2889.68
263.08	3766.21
263.30	3385.29
263.51	2678.74
263.73	2711.51
263.95	3688.39
264.16	3117.01
264.38	2777.05
264.60	2832.34
264.81	3293.13
265.03	3389.39
265.25	3233.74
265.46	2797.53
265.68	3555.27
265.89	3352.52
266.11	2781.14
266.33	2803.67
266.54	3481.55
266.76	3418.06
266.98	2990.03
267.19	3037.14
267.41	3534.79
267.62	3196.88
267.84	2715.61
268.06	2987.99
268.27	3358.67
268.49	3516.36
268.70	2889.68
268.92	2807.77
269.14	3112.91
269.35	2897.88
269.57	2934.74
269.79	2955.22
270.00	3209.17
270.22	3667.91
270.43	2713.56
270.65	2740.18
270.87	3309.52
271.08	3395.53
271.30	2947.03
271.51	2848.72
271.73	3413.96
271.95	3483.59
272.16	2832.34
272.38	3082.19
272.59	3137.49
272.81	3364.81
273.02	2834.39
273.24	2910.16
273.46	3487.69
273.67	3078.10
273.89	2709.46
274.10	2906.07
274.32	3561.42
274.54	3405.77
274.75	2963.41
274.97	2987.99
275.18	3368.91
275.40	3430.35
275.61	2901.97
275.83	3061.71
276.05	3049.43
276.26	3221.45
276.48	2928.60
276.69	2934.74
276.91	3217.36
277.12	3565.51
277.34	3098.58
277.55	3143.63
277.77	3256.27
277.99	3168.21
278.20	3053.52
278.42	2877.40
278.63	3155.92
278.85	3016.66
279.06	2985.94
279.28	3157.97
279.49	3471.31
279.71	3485.64
279.93	3008.47
280.14	3061.71
280.36	3061.71
280.57	3567.56
280.79	3061.71
281.00	2926.55
281.22	3166.16
281.43	3508.17
281.65	2783.19
281.86	2897.88
282.08	3420.11
282.29	3643.34
282.51	2822.10
282.73	2844.63
282.94	3041.23
283.16	3475.40
283.37	3055.57
283.59	2944.98
283.80	3377.10
284.02	3256.27
284.23	2998.23
284.45	3008.47
284.66	3119.06
284.88	3162.06
285.09	2963.41
285.31	3059.67
285.52	3350.48
285.74	2994.13
285.95	3209.17
286.17	2992.08
286.38	3536.84
286.60	3145.68
286.81	3010.51
287.03	2951.12
287.24	3268.56
287.46	3403.72
287.67	3119.06
287.89	3209.17
288.10	3344.33
288.32	3299.28
288.53	3127.25
288.75	3074.00
288.96	3430.35
289.18	3198.93
289.39	2969.55
289.61	3174.35
289.82	3688.39
290.04	3696.58
290.25	2914.26
290.47	3117.01
290.68	3186.64
290.90	3534.79
291.11	2826.20
291.33	3123.15
291.54	3082.19
291.76	3219.41
291.97	3149.78
292.18	3112.91
292.40	3190.74
292.61	3164.11
292.83	3336.14
293.04	2961.36
293.26	3321.81
293.47	3286.99
293.69	2922.45
293.90	2904.02
294.12	3549.13
294.33	3266.51
294.55	3078.10
294.76	3188.69
294.97	3604.42
295.19	3715.02
295.40	2996.18
295.62	3028.95
295.83	3442.64
296.05	3147.73
296.26	3268.56
296.48	2910.16
296.69	3270.61
296.90	3311.57
297.12	3164.11
297.33	3147.73
297.55	3319.76
297.76	3317.71
297.98	3039.19
298.19	3174.35
298.41	3330.00
298.62	3106.77
298.83	3188.69
299.05	3166.16
299.26	3180.50
299.48	3086.29
299.69	3084.24
299.90	2926.55
300.12	3049.43
300.33	3368.91
300.55	3110.86
300.76	3028.95
300.98	3114.96
301.19	3475.40
301.40	3045.33
301.62	2975.70
301.83	3407.82
302.05	3315.66
302.26	2975.70
302.47	3018.71
302.69	3024.85
302.90	3278.80
303.12	2820.05
303.33	3194.83
303.54	3678.15
303.76	3205.07
303.97	2990.03
304.19	3149.78
304.40	3139.54
304.61	3401.68
304.83	3084.24
305.04	3026.90
305.26	3463.12
305.47	3082.19
305.68	2926.55
305.90	2893.78
306.11	3588.04
306.33	3168.21
306.54	2815.96
306.75	2932.69
306.97	3018.71
307.18	3033.04
307.39	3045.33
307.61	3065.81
307.82	3301.33
308.04	3330.00
308.25	2934.74
308.46	3114.96
308.68	3381.20
308.89	3258.32
309.10	3123.15
309.32	3065.81
309.53	3207.12
309.74	3330.00
309.96	2949.08
310.17	3069.91
310.39	3186.64
310.60	3409.87
310.81	3028.95
311.03	2885.59
311.24	3348.43
311.45	3317.71
311.67	3252.17
311.88	3133.39
312.09	3225.55
312.31	3125.20
312.52	2963.41
312.73	2983.89
312.95	3018.71
313.16	3014.61
313.37	3180.50
313.59	3151.82
313.80	3426.25
314.01	3614.66
314.23	2955.22
314.44	2893.78
314.65	3080.14
314.87	3026.90
315.08	2961.36
315.29	2969.55
315.51	3121.10
315.72	3067.86
315.93	3065.81
316.15	3004.37
316.36	3252.17
316.57	3323.85
316.79	2994.13
317.00	2924.50
317.21	3368.91
317.43	3110.86
317.64	3057.62
317.85	2914.26
318.07	3243.98
318.28	3223.50
318.49	3114.96
318.70	3297.23
318.92	3272.65
319.13	3321.81
319.34	3198.93
319.56	2973.65
319.77	3403.72
319.98	3477.45
320.20	3229.65
320.41	3151.82
320.62	3448.78
320.83	3088.34
321.05	3184.59
321.26	3059.67
321.47	3272.65
321.69	3508.17
321.90	2910.16
322.11	2936.79
322.32	3327.95
322.54	3528.65
322.75	3043.28
322.96	3999.68
323.18	3006.42
323.39	2881.49
323.60	2936.79
323.81	3024.85
324.03	3092.43
324.24	3205.07
324.45	3147.73
324.66	2969.55
324.88	3545.03
325.09	3743.69
325.30	3047.38
325.52	2928.60
325.73	3368.91
325.94	3127.25
326.15	2885.59
326.37	2838.48
326.58	3520.46
326.79	3659.72
327.00	2985.94
327.22	2996.18
327.43	3141.58
327.64	3082.19
327.85	3180.50
328.07	2985.94
328.28	3659.72
328.49	3233.74
328.70	2936.79
328.92	3008.47
329.13	3213.26
329.34	3413.96
329.55	3188.69
329.76	3100.62
329.98	3215.31
330.19	3479.50
330.40	2992.08
330.61	3114.96
330.83	3485.64
331.04	2992.08
331.25	3039.19
331.46	2996.18
331.68	3119.06
331.89	3489.74
332.10	3043.28
332.31	2838.48
332.52	3196.88
332.74	3518.41
332.95	2869.20
333.16	2979.79
333.37	3385.29
333.58	3190.74
333.80	2963.41
334.01	2738.13
334.22	3237.84
334.43	3141.58
334.64	2865.11
334.86	2961.36
335.07	3074.00
335.28	3590.09
335.49	2844.63
335.70	3082.19
335.92	3559.37
336.13	3739.59
336.34	3033.04
336.55	2920.40
336.76	3411.92
336.98	2930.64
337.19	3041.23
337.40	3065.81
337.61	3811.27
337.82	3233.74
338.04	3149.78
338.25	2863.06
338.46	3243.98
338.67	3311.57
338.88	2914.26
339.09	2912.21
339.31	3139.54
339.52	3010.51
339.73	3014.61
339.94	2998.23
340.15	3473.36
340.36	3155.92
340.58	3092.43
340.79	2930.64
341.00	3401.68
341.21	3117.01
341.42	3258.32
341.63	2979.79
341.85	3557.32
342.06	3366.86
342.27	2947.03
342.48	3180.50
342.69	3049.43
342.90	3383.24
343.12	3385.29
343.33	2850.77
343.54	3565.51
343.75	3565.51
343.96	3213.26
344.17	2947.03
344.38	3246.03
344.60	3125.20
344.81	2955.22
345.02	3016.66
345.23	3454.92
345.44	3805.13
345.65	3106.77
345.86	3092.43
346.07	3311.57
346.29	3168.21
346.50	3188.69
346.71	3096.53
346.92	3588.04
347.13	3712.97
347.34	3065.81
347.55	2871.25
347.76	3430.35
347.98	3022.80
348.19	3121.10
348.40	3182.54
348.61	3260.37
348.82	3594.19
349.03	3002.32
349.24	2928.60
349.45	3688.39
349.66	2893.78
349.88	2990.03
350.09	2932.69
350.30	3620.81
350.51	3579.85
350.72	3196.88
350.93	2967.51
351.14	3155.92
351.35	3401.68
351.56	2992.08
351.77	3082.19
351.99	3336.14
352.20	3655.62
352.41	3153.87
352.62	2797.53
352.83	3266.51
353.04	3262.41
353.25	2998.23
353.46	2951.12
353.67	3538.89
353.88	2934.74
354.09	2934.74
354.30	3080.14
354.52	3411.92
354.73	3315.66
354.94	2963.41
355.15	3057.62
355.36	3749.83
355.57	3172.30
355.78	2904.02
355.99	2971.60
356.20	3188.69
356.41	3602.38
356.62	3024.85
356.83	2981.84
357.04	3508.17
357.25	2977.75
357.46	2975.70
357.68	2889.68
357.89	3057.62
358.10	3260.37
358.31	2951.12
358.52	3112.91
358.73	3131.34
358.94	3043.28
359.15	3059.67
359.36	2990.03
359.57	3289.04
359.78	3227.60
359.99	3145.68
360.20	2867.16
360.41	3235.79
360.62	3426.25
360.83	3117.01
361.04	3053.52
361.25	3311.57
361.46	3635.14
361.67	3155.92
361.88	3028.95
362.09	3479.50
362.30	3381.20
362.51	2975.70
362.72	3045.33
362.93	3428.30
363.14	3370.96
363.35	3147.73
363.56	2928.60
363.78	3479.50
363.99	3409.87
364.20	3065.81
364.41	3053.52
364.62	3678.15
364.83	3395.53
365.04	3033.04
365.25	3057.62
365.46	3641.29
365.67	3166.16
365.88	3217.36
366.09	3035.09
366.30	3190.74
366.51	3311.57
366.72	2920.40
366.93	2963.41
367.14	3346.38
367.35	3585.99
367.56	2971.60
367.77	3182.54
367.98	3327.95
368.18	3387.34
368.39	3129.30
368.60	2959.31
368.81	3354.57
369.02	3354.57
369.23	3024.85
369.44	2869.20
369.65	3198.93
369.86	3413.96
370.07	3106.77
370.28	2922.45
370.49	3346.38
370.70	3389.39
370.91	2877.40
371.12	2885.59
371.33	3456.97
371.54	3243.98
371.75	3110.86
371.96	2754.52
372.17	3266.51
372.38	3209.17
372.59	2963.41
372.80	3000.27
373.01	3172.30
373.22	3377.10
373.43	2979.79
373.64	2811.86
373.85	3567.56
374.06	3563.47
374.26	3119.06
374.47	3231.69
374.68	3508.17
374.89	3315.66
375.10	2955.22
375.31	3133.39
375.52	3313.61
375.73	3340.24
375.94	2852.82
376.15	3141.58
376.36	3119.06
376.57	3139.54
376.78	3098.58
376.99	3059.67
377.20	3516.36
377.40	3119.06
377.61	3282.89
377.82	2963.41
378.03	3571.66
378.24	3311.57
378.45	3022.80
378.66	3057.62
378.87	2969.55
379.08	3022.80
379.29	3049.43
379.50	3174.35
379.71	3217.36
379.91	3346.38
380.12	3071.95
380.33	3162.06
380.54	3258.32
380.75	3213.26
380.96	3024.85
381.17	3024.85
381.38	3274.70
381.59	3338.19
381.80	3033.04
382.00	3194.83
382.21	3352.52
382.42	3555.27
382.63	3448.78
382.84	3176.40
383.05	3379.15
383.26	3504.07
383.47	3147.73
383.68	2947.03
383.88	3444.68
384.09	3317.71
384.30	3235.79
384.51	3135.44
384.72	3200.98
384.93	2975.70
385.14	3098.58
385.35	3254.22
385.55	3010.51
385.76	3526.60
385.97	3016.66
386.18	2932.69
386.39	3129.30
386.60	3135.44
386.81	2973.65
387.02	2963.41
387.22	3018.71
387.43	3473.36
387.64	3049.43
387.85	3254.22
388.06	3282.89
388.27	4364.22
388.48	7700.36
388.68	12103.50
388.89	15097.63
389.10	16471.81
389.31	16123.66
389.52	13014.84
389.73	11333.46
389.93	10397.54
390.14	9213.81
390.35	8423.30
390.56	8044.42
390.77	6616.99
390.98	5027.76
391.18	4206.53
391.39	3876.80
391.60	3364.81
391.81	3272.65
392.02	3094.48
392.23	3790.79
392.43	3291.09
392.64	3127.25
392.85	3131.34
393.06	3618.76
393.27	3366.86
393.47	2975.70
393.68	3123.15
393.89	3182.54
394.10	3559.37
394.31	2967.51
394.52	2961.36
394.72	3121.10
394.93	3583.95
395.14	3020.75
395.35	3090.38
395.56	3155.92
395.76	3188.69
395.97	2955.22
396.18	3164.11
396.39	3270.61
396.60	3835.85
396.80	3397.58
397.01	3313.61
397.22	3475.40
397.43	3551.18
397.64	3074.00
397.84	3110.86
398.05	3725.26
398.26	3303.37
398.47	3174.35
398.67	3237.84
398.88	3241.93
399.09	3432.40
399.30	2985.94
399.51	3014.61
399.71	3112.91
399.92	3264.46
400.13	3157.97
400.34	3121.10
400.54	3342.28
400.75	3643.34
400.96	3225.55
401.17	3321.81
401.37	3344.33
401.58	3237.84
401.79	2979.79
402.00	3180.50
402.21	3719.11
402.41	3418.06
402.62	3346.38
402.83	3475.40
403.04	3680.20
403.24	4081.60
403.45	3239.89
403.66	3340.24
403.87	3438.54
404.07	3614.66
404.28	3225.55
404.49	3338.19
404.70	3397.58
404.90	3438.54
405.11	3100.62
405.32	3114.96
405.52	3094.48
405.73	3205.07
405.94	2951.12
406.15	3200.98
406.35	3444.68
406.56	3512.27
406.77	3084.24
406.98	3022.80
407.18	3098.58
407.39	3532.75
407.60	3166.16
407.80	3086.29
408.01	3170.26
408.22	3428.30
408.43	2951.12
408.63	3252.17
408.84	3473.36
409.05	3493.83
409.25	2957.27
409.46	3117.01
409.67	3225.55
409.88	3166.16
410.08	3096.53
410.29	3008.47
410.50	3551.18
410.70	3352.52
410.91	3012.56
411.12	3117.01
411.32	3221.45
411.53	3108.82
411.74	3131.34
411.95	3131.34
412.15	3272.65
412.36	3426.25
412.57	3237.84
412.77	3305.42
412.98	3248.08
413.19	3125.20
413.39	3033.04
413.60	3098.58
413.81	3618.76
414.01	3049.43
414.22	3076.05
414.43	3246.03
414.63	3262.41
414.84	3395.53
415.05	3022.80
415.25	2985.94
415.46	3356.62
415.67	3190.74
415.87	3026.90
416.08	3043.28
416.29	3157.97
416.49	3377.10
416.70	3151.82
416.91	3033.04
417.11	3266.51
417.32	3508.17
417.53	3065.81
417.73	3135.44
417.94	3284.94
418.15	3299.28
418.35	3100.62
418.56	3123.15
418.77	3796.93
418.97	3319.76
419.18	3121.10
419.38	2750.42
419.59	3270.61
419.80	3532.75
420.00	2963.41
420.21	3137.49
420.42	3536.84
420.62	3340.24
420.83	3074.00
421.04	2965.46
421.24	3213.26
421.45	3399.63
421.65	3110.86
421.86	3117.01
422.07	3422.16
422.27	3508.17
422.48	3002.32
422.69	2836.44
422.89	3346.38
423.10	3272.65
423.30	2987.99
423.51	3092.43
423.72	3434.44
423.92	3471.31
424.13	2926.55
424.33	3037.14
424.54	3477.45
424.75	3364.81
424.95	3243.98
425.16	2979.79
425.36	3217.36
425.57	3532.75
425.78	3117.01
425.98	3106.77
426.19	3266.51
426.39	3133.39
426.60	3131.34
426.81	3162.06
427.01	3315.66
427.22	3139.54
427.42	2942.93
427.63	3016.66
427.83	3491.79
428.04	3569.61
428.25	3098.58
428.45	3100.62
428.66	3545.03
428.86	3200.98
429.07	3057.62
429.28	3059.67
429.48	3278.80
429.69	3215.31
429.89	3137.49
430.10	3014.61
430.30	3487.69
430.51	3467.21
430.71	2987.99
430.92	3110.86
431.13	3180.50
431.33	3409.87
431.54	3157.97
431.74	3270.61
431.95	3770.31
432.15	3069.91
432.36	3012.56
432.56	3061.71
432.77	3721.16
432.98	3608.52
433.18	3112.91
433.39	2959.31
433.59	3299.28
433.80	3672.01
434.00	3246.03
434.21	3065.81
434.41	3043.28
434.62	3741.64
434.82	2975.70
435.03	2934.74
435.23	3336.14
435.44	3028.95
435.64	2971.60
435.85	3112.91
436.06	3485.64
436.26	3493.83
436.47	3022.80
436.67	2979.79
436.88	3282.89
437.08	3542.99
437.29	3198.93
437.49	3162.06
437.70	3520.46
437.90	3276.75
438.11	3284.94
438.31	3051.47
438.52	3581.90
438.72	3493.83
438.93	3454.92
439.13	3237.84
439.34	3393.48
439.54	3166.16
439.75	3221.45
439.95	3209.17
440.16	3205.07
440.36	3227.60
440.57	3092.43
440.77	3057.62
440.98	3243.98
441.18	3352.52
441.39	2942.93
441.59	2906.07
441.80	3657.67
442.00	3295.18
442.21	3200.98
442.41	2918.36
442.62	3559.37
442.82	3166.16
443.02	3047.38
443.23	3098.58
443.43	3188.69
443.64	3512.27
443.84	2879.44
444.05	3211.22
444.25	3231.69
444.46	3205.07
444.66	3002.32
444.87	3258.32
445.07	3045.33
445.28	3180.50
445.48	3248.08
445.69	3092.43
445.89	3819.46
446.09	3209.17
446.30	3393.48
446.50	3420.11
446.71	5050.29
446.91	6410.14
447.12	7206.80
447.32	7651.21
447.53	7575.44
447.73	6389.66
447.93	5547.95
448.14	5220.27
448.34	5543.85
448.55	4491.20
448.75	4509.63
448.96	4194.24
449.16	3989.44
449.36	3876.80
449.57	3307.47
449.77	3235.79
449.98	3188.69
450.18	3370.96
450.39	3039.19
450.59	3196.88
450.79	3270.61
451.00	3123.15
451.20	3289.04
451.41	3033.04
451.61	3356.62
451.81	3096.53
452.02	3078.10
452.22	3051.47
452.43	3184.59
