SpectraSuite Data File
++++++++++++++++++++++++++++++++++++
Date: Fri May 06 08:14:12 CEST 2016
User: root
Dark Spectrum Present: No
Reference Spectrum Present: No
Number of Sampled Component Spectra: 1
Spectrometers: USB4C02835
Integration Time (usec): 100000 (USB4C02835)
Spectra Averaged: 1 (USB4C02835)
Boxcar Smoothing: 0 (USB4C02835)
Correct for Electrical Dark: No (USB4C02835)
Strobe/Lamp Enabled: No (USB4C02835)
Correct for Detector Non-linearity: No (USB4C02835)
Correct for Stray Light: No (USB4C02835)
Number of Pixels in Processed Spectrum: 3648
>>>>>Begin Processed Spectral Data<<<<<
177.47	2248.67
177.69	2248.67
177.91	2248.67
178.13	2148.32
178.36	2287.58
178.58	2932.69
178.80	3076.05
179.02	2969.55
179.24	3092.43
179.46	2760.66
179.68	2852.82
179.90	3209.17
180.13	3276.75
180.35	2590.68
180.57	2783.19
180.79	3352.52
181.01	3188.69
181.23	2828.24
181.45	3028.95
181.67	3446.73
181.90	3344.33
182.12	2955.22
182.34	2688.98
182.56	3450.83
182.78	3356.62
183.00	2910.16
183.22	2830.29
183.44	2877.40
183.66	3876.80
183.89	2990.03
184.11	2887.64
184.33	3413.96
184.55	3536.84
184.77	2805.72
184.99	2932.69
185.21	3268.56
185.43	3801.03
185.65	2836.44
185.87	2805.72
186.10	3798.98
186.32	3729.35
186.54	2922.45
186.76	2990.03
186.98	3542.99
187.20	3278.80
187.42	2928.60
187.64	2777.05
187.86	3411.92
188.08	3426.25
188.30	2729.94
188.52	2910.16
188.75	3532.75
188.97	3479.50
189.19	2914.26
189.41	2820.05
189.63	3413.96
189.85	3188.69
190.07	2766.81
190.29	2693.08
190.51	3426.25
190.73	2981.84
190.95	3065.81
191.17	2897.88
191.39	2934.74
191.61	3258.32
191.84	2852.82
192.06	3008.47
192.28	2987.99
192.50	3903.43
192.72	2953.17
192.94	2992.08
193.16	3596.23
193.38	3364.81
193.60	2805.72
193.82	3057.62
194.04	3491.79
194.26	3411.92
194.48	2926.55
194.70	2871.25
194.92	3217.36
195.14	3389.39
195.36	2844.63
195.58	2922.45
195.80	3354.57
196.02	3215.31
196.24	2822.10
196.46	2926.55
196.69	3219.41
196.91	3794.89
197.13	3016.66
197.35	2908.12
197.57	3592.14
197.79	3393.48
198.01	3028.95
198.23	2914.26
198.45	3393.48
198.67	3051.47
198.89	2760.66
199.11	2918.36
199.33	3141.58
199.55	2891.73
199.77	2775.00
199.99	3014.61
200.21	3256.27
200.43	3348.43
200.65	2754.52
200.87	2688.98
201.09	3291.09
201.31	3121.10
201.53	2848.72
201.75	2850.77
201.97	3399.63
202.19	3270.61
202.41	2918.36
202.63	3045.33
202.85	3491.79
203.07	3311.57
203.29	2914.26
203.51	2867.16
203.73	3114.96
203.95	3860.42
204.17	2858.96
204.39	3002.32
204.61	3352.52
204.83	3164.11
205.05	2981.84
205.27	2818.00
205.49	3762.12
205.71	3297.23
205.93	2693.08
206.15	2654.17
206.37	3327.95
206.59	3291.09
206.81	2594.78
207.03	2758.61
207.25	3203.02
207.47	3418.06
207.69	2801.62
207.91	3069.91
208.13	3579.85
208.34	3149.78
208.56	2789.33
208.78	2912.21
209.00	3241.93
209.22	3239.89
209.44	2906.07
209.66	2785.24
209.88	3260.37
210.10	3229.65
210.32	2942.93
210.54	2901.97
210.76	3168.21
210.98	3450.83
211.20	2727.89
211.42	2947.03
211.64	3569.61
211.86	3354.57
212.08	2983.89
212.30	2947.03
212.52	3235.79
212.74	3413.96
212.96	3016.66
213.17	2957.27
213.39	3432.40
213.61	3637.19
213.83	2836.44
214.05	2781.14
214.27	3569.61
214.49	3106.77
214.71	2779.09
214.93	3000.27
215.15	3319.76
215.37	3467.21
215.59	2746.33
215.81	2893.78
216.03	3532.75
216.24	3196.88
216.46	2844.63
216.68	2906.07
216.90	3344.33
217.12	3450.83
217.34	2828.24
217.56	2979.79
217.78	3442.64
218.00	3479.50
218.22	2936.79
218.44	3012.56
218.66	3336.14
218.87	3573.71
219.09	2910.16
219.31	2828.24
219.53	3356.62
219.75	3225.55
219.97	2934.74
220.19	2846.68
220.41	3215.31
220.63	3596.23
220.85	2918.36
221.06	2906.07
221.28	3618.76
221.50	3471.31
221.72	2846.68
221.94	2736.09
222.16	3319.76
222.38	3471.31
222.60	2844.63
222.82	2959.31
223.03	3512.27
223.25	3082.19
223.47	2854.87
223.69	3112.91
223.91	3356.62
224.13	3362.76
224.35	2789.33
224.57	3067.86
224.78	3446.73
225.00	3129.30
225.22	2938.84
225.44	2750.42
225.66	3379.15
225.88	3110.86
226.10	2977.75
226.32	2906.07
226.53	3555.27
226.75	3127.25
226.97	2977.75
227.19	2885.59
227.41	3155.92
227.63	3225.55
227.85	2668.50
228.06	2969.55
228.28	3315.66
228.50	3428.30
228.72	2705.37
228.94	2818.00
229.16	2928.60
229.37	3074.00
229.59	2731.99
229.81	3178.45
230.03	3203.02
230.25	3014.61
230.47	2699.22
230.69	2852.82
230.90	3444.68
231.12	3071.95
231.34	2930.64
231.56	2951.12
231.78	3106.77
232.00	3293.13
232.21	2918.36
232.43	2910.16
232.65	2832.34
232.87	3471.31
233.09	2709.46
233.30	2861.01
233.52	3448.78
233.74	3225.55
233.96	2803.67
234.18	2996.18
234.40	3237.84
234.61	3733.45
234.83	2846.68
235.05	2840.53
235.27	3844.04
235.49	3524.55
235.70	2772.95
235.92	2904.02
236.14	3389.39
236.36	3778.50
236.58	2744.28
236.79	2906.07
237.01	3262.41
237.23	3352.52
237.45	3082.19
237.67	2928.60
237.88	3350.48
238.10	3661.77
238.32	2838.48
238.54	2725.85
238.76	3319.76
238.97	3102.67
239.19	2779.09
239.41	2957.27
239.63	3499.98
239.85	3207.12
240.06	2877.40
240.28	2826.20
240.50	3434.44
240.72	3258.32
240.93	2742.23
241.15	2959.31
241.37	3293.13
241.59	3610.57
241.81	2912.21
242.02	2967.51
242.24	3323.85
242.46	3465.16
242.68	2674.65
242.89	2795.48
243.11	3395.53
243.33	3246.03
243.55	2906.07
243.76	2889.68
243.98	3078.10
244.20	3239.89
244.42	2951.12
244.64	2838.48
244.85	3016.66
245.07	3110.86
245.29	2834.39
245.51	2977.75
245.72	3340.24
245.94	3442.64
246.16	2813.91
246.38	2979.79
246.59	3137.49
246.81	3143.63
247.03	2715.61
247.24	2809.81
247.46	3147.73
247.68	3399.63
247.90	2809.81
248.11	2834.39
248.33	3379.15
248.55	3215.31
248.77	2908.12
248.98	2979.79
249.20	3536.84
249.42	3223.50
249.64	2877.40
249.85	2822.10
250.07	3239.89
250.29	3426.25
250.50	2983.89
250.72	2772.95
250.94	3356.62
251.16	3766.21
251.37	2840.53
251.59	2908.12
251.81	3395.53
252.02	3655.62
252.24	2734.04
252.46	3000.27
252.68	3147.73
252.89	3186.64
253.11	2725.85
253.33	3004.37
253.54	3573.71
253.76	3129.30
253.98	2877.40
254.20	2881.49
254.41	3061.71
254.63	3237.84
254.85	2758.61
255.06	2938.84
255.28	3354.57
255.50	3241.93
255.71	2826.20
255.93	2680.79
256.15	3168.21
256.36	3319.76
256.58	2744.28
256.80	2856.92
257.02	3231.69
257.23	3237.84
257.45	2836.44
257.67	2947.03
257.88	3119.06
258.10	3383.24
258.32	2854.87
258.53	2895.83
258.75	3651.53
258.97	3149.78
259.18	2820.05
259.40	2852.82
259.62	3612.62
259.83	3530.70
260.05	2867.16
260.27	3807.17
260.48	3375.05
260.70	3067.86
260.92	2791.38
261.13	2918.36
261.35	3323.85
261.57	3405.77
261.78	2729.94
262.00	2809.81
262.22	3358.67
262.43	3135.44
262.65	2871.25
262.86	2869.20
263.08	3813.32
263.30	3297.23
263.51	2738.13
263.73	2877.40
263.95	3721.16
264.16	3139.54
264.38	2822.10
264.60	2881.49
264.81	3250.13
265.03	3370.96
265.25	3213.26
265.46	2801.62
265.68	3581.90
265.89	3475.40
266.11	2699.22
266.33	2799.57
266.54	3495.88
266.76	3422.16
266.98	2973.65
267.19	3033.04
267.41	3526.60
267.62	3182.54
267.84	2648.02
268.06	3033.04
268.27	3321.81
268.49	3534.79
268.70	2934.74
268.92	2906.07
269.14	3098.58
269.35	2971.60
269.57	3008.47
269.79	2928.60
270.00	3182.54
270.22	3684.30
270.43	2850.77
270.65	2775.00
270.87	3399.63
271.08	3407.82
271.30	2930.64
271.51	2930.64
271.73	3397.58
271.95	3594.19
272.16	2830.29
272.38	3026.90
272.59	3147.73
272.81	3356.62
273.02	2838.48
273.24	2924.50
273.46	3606.47
273.67	3045.33
273.89	2680.79
274.10	2799.57
274.32	3528.65
274.54	3360.72
274.75	2912.21
274.97	2944.98
275.18	3405.77
275.40	3350.48
275.61	2971.60
275.83	3035.09
276.05	3096.53
276.26	3307.47
276.48	3037.14
276.69	3071.95
276.91	3090.38
277.12	3553.23
277.34	3045.33
277.55	3160.02
277.77	3272.65
277.99	3184.59
278.20	3020.75
278.42	2942.93
278.63	3123.15
278.85	3114.96
279.06	2965.46
279.28	3090.38
279.49	3461.07
279.71	3416.01
279.93	2967.51
280.14	2967.51
280.36	3084.24
280.57	3422.16
280.79	3065.81
281.00	2893.78
281.22	3194.83
281.43	3444.68
281.65	2803.67
281.86	2895.83
282.08	3442.64
282.29	3608.52
282.51	2822.10
282.73	2895.83
282.94	3047.38
283.16	3491.79
283.37	3131.34
283.59	3051.47
283.80	3405.77
284.02	3258.32
284.23	3108.82
284.45	2985.94
284.66	3143.63
284.88	3227.60
285.09	2893.78
285.31	3100.62
285.52	3387.34
285.74	2959.31
285.95	3149.78
286.17	3016.66
286.38	3524.55
286.60	3176.40
286.81	2942.93
287.03	2990.03
287.24	3289.04
287.46	3377.10
287.67	3112.91
287.89	3190.74
288.10	3215.31
288.32	3274.70
288.53	3106.77
288.75	3098.58
288.96	3483.59
289.18	3213.26
289.39	2924.50
289.61	3139.54
289.82	3700.68
290.04	3651.53
290.25	2904.02
290.47	3082.19
290.68	3196.88
290.90	3461.07
291.11	2807.77
291.33	3123.15
291.54	3108.82
291.76	3131.34
291.97	3100.62
292.18	3084.24
292.40	3149.78
292.61	3233.74
292.83	3307.47
293.04	3016.66
293.26	3336.14
293.47	3207.12
293.69	2928.60
293.90	2904.02
294.12	3534.79
294.33	3274.70
294.55	3078.10
294.76	3123.15
294.97	3618.76
295.19	3659.72
295.40	2994.13
295.62	3080.14
295.83	3467.21
296.05	3114.96
296.26	3215.31
296.48	3047.38
296.69	3203.02
296.90	3225.55
297.12	3098.58
297.33	3160.02
297.55	3373.00
297.76	3426.25
297.98	3135.44
298.19	3168.21
298.41	3221.45
298.62	3149.78
298.83	3215.31
299.05	3090.38
299.26	3229.65
299.48	2983.89
299.69	3114.96
299.90	2992.08
300.12	3051.47
300.33	3418.06
300.55	2969.55
300.76	3057.62
300.98	3061.71
301.19	3352.52
301.40	2963.41
301.62	2932.69
301.83	3348.43
302.05	3252.17
302.26	2975.70
302.47	3078.10
302.69	3071.95
302.90	3272.65
303.12	2850.77
303.33	3192.78
303.54	3706.82
303.76	3211.22
303.97	2990.03
304.19	3203.02
304.40	3133.39
304.61	3352.52
304.83	3123.15
305.04	3065.81
305.26	3391.44
305.47	3133.39
305.68	2901.97
305.90	2844.63
306.11	3491.79
306.33	3250.13
306.54	2875.35
306.75	2944.98
306.97	2947.03
307.18	3082.19
307.39	3053.52
307.61	3117.01
307.82	3250.13
308.04	3426.25
308.25	2844.63
308.46	3065.81
308.68	3248.08
308.89	3258.32
309.10	3098.58
309.32	3108.82
309.53	3332.05
309.74	3360.72
309.96	2912.21
310.17	3123.15
310.39	3139.54
310.60	3348.43
310.81	3024.85
311.03	2938.84
311.24	3471.31
311.45	3309.52
311.67	3219.41
311.88	3131.34
312.09	3180.50
312.31	3110.86
312.52	2992.08
312.73	2877.40
312.95	2994.13
313.16	3086.29
313.37	3200.98
313.59	3139.54
313.80	3442.64
314.01	3657.67
314.23	3074.00
314.44	2930.64
314.65	2951.12
314.87	3137.49
315.08	3002.32
315.29	2990.03
315.51	3135.44
315.72	2977.75
315.93	3055.57
316.15	3026.90
316.36	3151.82
316.57	3270.61
316.79	2951.12
317.00	2944.98
317.21	3428.30
317.43	3051.47
317.64	3119.06
317.85	2914.26
318.07	3074.00
318.28	3143.63
318.49	3147.73
318.70	3286.99
318.92	3362.76
319.13	3393.48
319.34	3147.73
319.56	2975.70
319.77	3436.49
319.98	3450.83
320.20	3284.94
320.41	3219.41
320.62	3377.10
320.83	3065.81
321.05	3246.03
321.26	3016.66
321.47	3358.67
321.69	3502.03
321.90	2877.40
322.11	2975.70
322.32	3364.81
322.54	3485.64
322.75	3016.66
322.96	4028.35
323.18	2934.74
323.39	2951.12
323.60	2906.07
323.81	3188.69
324.03	3176.40
324.24	3307.47
324.45	3090.38
324.66	2930.64
324.88	3454.92
325.09	3575.75
325.30	2975.70
325.52	2869.20
325.73	3332.05
325.94	3151.82
326.15	2901.97
326.37	2840.53
326.58	3348.43
326.79	3579.85
327.00	2920.40
327.22	3008.47
327.43	3207.12
327.64	3092.43
327.85	3102.67
328.07	3041.23
328.28	3735.50
328.49	3168.21
328.70	2992.08
328.92	2975.70
329.13	3160.02
329.34	3438.54
329.55	3182.54
329.76	3160.02
329.98	3153.87
330.19	3467.21
330.40	3102.67
330.61	3184.59
330.83	3434.44
331.04	3110.86
331.25	3090.38
331.46	3033.04
331.68	3008.47
331.89	3499.98
332.10	3030.99
332.31	2885.59
332.52	3248.08
332.74	3499.98
332.95	2844.63
333.16	3006.42
333.37	3418.06
333.58	3221.45
333.80	3002.32
334.01	2756.57
334.22	3305.42
334.43	3098.58
334.64	2951.12
334.86	2971.60
335.07	3098.58
335.28	3596.23
335.49	2904.02
335.70	3102.67
335.92	3592.14
336.13	3721.16
336.34	3024.85
336.55	2967.51
336.76	3377.10
336.98	2887.64
337.19	2942.93
337.40	3076.05
337.61	3807.17
337.82	3221.45
338.04	3086.29
338.25	2901.97
338.46	3350.48
338.67	3215.31
338.88	2918.36
339.09	2871.25
339.31	3114.96
339.52	2996.18
339.73	2951.12
339.94	3067.86
340.15	3383.24
340.36	3125.20
340.58	3014.61
340.79	2889.68
341.00	3422.16
341.21	3018.71
341.42	3243.98
341.63	3002.32
341.85	3424.20
342.06	3360.72
342.27	2985.94
342.48	3198.93
342.69	3010.51
342.90	3301.33
343.12	3385.29
343.33	2955.22
343.54	3395.53
343.75	3684.30
343.96	3106.77
344.17	2889.68
344.38	3215.31
344.60	3037.14
344.81	2863.06
345.02	2992.08
345.23	3485.64
345.44	3858.37
345.65	3065.81
345.86	3076.05
346.07	3356.62
346.29	3235.79
346.50	3139.54
346.71	3180.50
346.92	3563.47
347.13	3653.58
347.34	3020.75
347.55	2893.78
347.76	3311.57
347.98	2975.70
348.19	3047.38
348.40	3133.39
348.61	3139.54
348.82	3674.06
349.03	3067.86
349.24	2957.27
349.45	3590.09
349.66	2899.92
349.88	2983.89
350.09	2912.21
350.30	3459.02
350.51	3467.21
350.72	3108.82
350.93	2953.17
351.14	3176.40
351.35	3391.44
351.56	3059.67
351.77	2985.94
351.99	3319.76
352.20	3585.99
352.41	3059.67
352.62	2852.82
352.83	3196.88
353.04	3256.27
353.25	2985.94
353.46	3049.43
353.67	3526.60
353.88	3045.33
354.09	2922.45
354.30	3004.37
354.52	3506.12
354.73	3203.02
354.94	2938.84
355.15	3071.95
355.36	3723.21
355.57	3227.60
355.78	2924.50
355.99	2990.03
356.20	3223.50
356.41	3563.47
356.62	3065.81
356.83	3055.57
357.04	3459.02
357.25	2914.26
357.46	2908.12
357.68	2951.12
357.89	3102.67
358.10	3176.40
358.31	2932.69
358.52	3047.38
358.73	3094.48
358.94	3129.30
359.15	3035.09
359.36	3018.71
359.57	3354.57
359.78	3164.11
359.99	3166.16
360.20	2856.92
360.41	3225.55
360.62	3393.48
360.83	3067.86
361.04	3006.42
361.25	3282.89
361.46	3635.14
361.67	3117.01
361.88	3000.27
362.09	3602.38
362.30	3282.89
362.51	2928.60
362.72	3100.62
362.93	3397.58
363.14	3409.87
363.35	3106.77
363.56	2901.97
363.78	3575.75
363.99	3477.45
364.20	3008.47
364.41	3008.47
364.62	3721.16
364.83	3346.38
365.04	3010.51
365.25	3024.85
365.46	3682.25
365.67	3121.10
365.88	3231.69
366.09	2942.93
366.30	3198.93
366.51	3248.08
366.72	2996.18
366.93	2877.40
367.14	3303.37
367.35	3477.45
367.56	2891.73
367.77	3186.64
367.98	3338.19
368.18	3370.96
368.39	3106.77
368.60	2936.79
368.81	3454.92
369.02	3362.76
369.23	2975.70
369.44	2852.82
369.65	3139.54
369.86	3438.54
370.07	3123.15
370.28	2910.16
370.49	3305.42
370.70	3307.47
370.91	2963.41
371.12	2883.54
371.33	3508.17
371.54	3192.78
371.75	3102.67
371.96	2740.18
372.17	3243.98
372.38	3172.30
372.59	2994.13
372.80	2967.51
373.01	3180.50
373.22	3268.56
373.43	2899.92
373.64	2901.97
373.85	3565.51
374.06	3600.33
374.26	3143.63
374.47	3100.62
374.68	3499.98
374.89	3303.37
375.10	2942.93
375.31	3092.43
375.52	3325.90
375.73	3321.81
375.94	2762.71
376.15	3037.14
376.36	3149.78
376.57	3182.54
376.78	3043.28
376.99	3094.48
377.20	3542.99
377.40	3311.57
377.61	3340.24
377.82	3041.23
378.03	3598.28
378.24	3434.44
378.45	3082.19
378.66	3090.38
378.87	2912.21
379.08	3026.90
379.29	3024.85
379.50	3153.87
379.71	3286.99
379.91	3377.10
380.12	3047.38
380.33	3131.34
380.54	3227.60
380.75	3239.89
380.96	3024.85
381.17	3092.43
381.38	3358.67
381.59	3340.24
381.80	3141.58
382.00	3207.12
382.21	3370.96
382.42	3571.66
382.63	3387.34
382.84	3203.02
383.05	3504.07
383.26	3532.75
383.47	3182.54
383.68	2918.36
383.88	3420.11
384.09	3291.09
384.30	3200.98
384.51	3069.91
384.72	3309.52
384.93	3000.27
385.14	3082.19
385.35	3207.12
385.55	3098.58
385.76	3485.64
385.97	3006.42
386.18	2799.57
386.39	3133.39
386.60	3100.62
386.81	2942.93
387.02	2938.84
387.22	3008.47
387.43	3426.25
387.64	3114.96
387.85	3301.33
388.06	3344.33
388.27	4341.69
388.48	7829.38
388.68	12201.80
388.89	15019.80
389.10	16516.87
389.31	16426.76
389.52	13092.66
389.73	11210.58
389.93	10489.70
390.14	9273.20
390.35	8505.21
390.56	8005.51
390.77	6686.62
390.98	4929.46
391.18	4286.40
391.39	3919.81
391.60	3377.10
391.81	3278.80
392.02	3102.67
392.23	3786.69
392.43	3266.51
392.64	3135.44
392.85	3174.35
393.06	3594.19
393.27	3241.93
393.47	2967.51
393.68	3137.49
393.89	3315.66
394.10	3538.89
394.31	2901.97
394.52	2969.55
394.72	3157.97
394.93	3540.94
395.14	2934.74
395.35	3080.14
395.56	3141.58
395.76	3241.93
395.97	3041.23
396.18	3200.98
396.39	3274.70
396.60	3940.29
396.80	3393.48
397.01	3227.60
397.22	3487.69
397.43	3389.39
397.64	3037.14
397.84	3108.82
398.05	3786.69
398.26	3231.69
398.47	3067.86
398.67	3256.27
398.88	3295.18
399.09	3332.05
399.30	2908.12
399.51	3041.23
399.71	3133.39
399.92	3319.76
400.13	3162.06
400.34	2965.46
400.54	3221.45
400.75	3575.75
400.96	3217.36
401.17	3370.96
401.37	3448.78
401.58	3289.04
401.79	3020.75
402.00	3256.27
402.21	3878.85
402.41	3444.68
402.62	3309.52
402.83	3600.33
403.04	3700.68
403.24	4192.19
403.45	3233.74
403.66	3403.72
403.87	3585.99
404.07	3731.40
404.28	3360.72
404.49	3323.85
404.70	3407.82
404.90	3284.94
405.11	3086.29
405.32	3243.98
405.52	3139.54
405.73	3207.12
405.94	2926.55
406.15	3078.10
406.35	3360.72
406.56	3461.07
406.77	3102.67
406.98	3137.49
407.18	3166.16
407.39	3606.47
407.60	3010.51
407.80	3117.01
408.01	3141.58
408.22	3411.92
408.43	2983.89
408.63	3190.74
408.84	3491.79
409.05	3491.79
409.25	2981.84
409.46	3043.28
409.67	3305.42
409.88	3100.62
410.08	3018.71
410.29	3020.75
410.50	3407.82
410.70	3405.77
410.91	2944.98
411.12	3098.58
411.32	3373.00
411.53	3098.58
411.74	3076.05
411.95	3164.11
412.15	3307.47
412.36	3514.31
412.57	3262.41
412.77	3299.28
412.98	3284.94
413.19	3063.76
413.39	3076.05
413.60	3053.52
413.81	3440.59
414.01	3057.62
414.22	3069.91
414.43	3221.45
414.63	3137.49
414.84	3395.53
415.05	3090.38
415.25	2889.68
415.46	3497.93
415.67	3213.26
415.87	3059.67
416.08	3106.77
416.29	3239.89
416.49	3352.52
416.70	3059.67
416.91	3049.43
417.11	3190.74
417.32	3573.71
417.53	3106.77
417.73	3196.88
417.94	3209.17
418.15	3342.28
418.35	3114.96
418.56	3108.82
418.77	3839.94
418.97	3266.51
419.18	3026.90
419.38	2705.37
419.59	3260.37
419.80	3557.32
420.00	2947.03
420.21	3098.58
420.42	3581.90
420.62	3303.37
420.83	3041.23
421.04	2987.99
421.24	3276.75
421.45	3420.11
421.65	3108.82
421.86	3020.75
422.07	3553.23
422.27	3395.53
422.48	2959.31
422.69	2897.88
422.89	3280.85
423.10	3160.02
423.30	2983.89
423.51	3088.34
423.72	3393.48
423.92	3485.64
424.13	2908.12
424.33	3129.30
424.54	3434.44
424.75	3250.13
424.95	3321.81
425.16	2996.18
425.36	3258.32
425.57	3495.88
425.78	3215.31
425.98	3196.88
426.19	3266.51
426.39	3094.48
426.60	3157.97
426.81	3233.74
427.01	3416.01
427.22	3069.91
427.42	2852.82
427.63	2957.27
427.83	3450.83
428.04	3540.94
428.25	3084.24
428.45	3147.73
428.66	3469.26
428.86	3235.79
429.07	3061.71
429.28	3102.67
429.48	3256.27
429.69	3061.71
429.89	3094.48
430.10	2967.51
430.30	3477.45
430.51	3491.79
430.71	3035.09
430.92	3074.00
431.13	3090.38
431.33	3411.92
431.54	3157.97
431.74	3233.74
431.95	3790.79
432.15	3030.99
432.36	3123.15
432.56	3129.30
432.77	3692.49
432.98	3631.05
433.18	3028.95
433.39	2916.31
433.59	3172.30
433.80	3786.69
434.00	3239.89
434.21	3143.63
434.41	3065.81
434.62	3747.78
434.82	2953.17
435.03	3018.71
435.23	3385.29
435.44	3010.51
435.64	3022.80
435.85	3147.73
436.06	3491.79
436.26	3485.64
436.47	3020.75
436.67	2957.27
436.88	3233.74
437.08	3520.46
437.29	3168.21
437.49	3162.06
437.70	3618.76
437.90	3319.76
438.11	3303.37
438.31	3141.58
438.52	3516.36
438.72	3411.92
438.93	3440.59
439.13	3112.91
439.34	3434.44
439.54	3170.26
439.75	3213.26
439.95	3190.74
440.16	3080.14
440.36	3293.13
440.57	3024.85
440.77	3069.91
440.98	3303.37
441.18	3377.10
441.39	2977.75
441.59	2944.98
441.80	3712.97
442.00	3237.84
442.21	3110.86
442.41	2910.16
442.62	3467.21
442.82	3174.35
443.02	3041.23
443.23	3061.71
443.43	3223.50
443.64	3540.94
443.84	2887.64
444.05	3141.58
444.25	3344.33
444.46	3256.27
444.66	2969.55
444.87	3299.28
445.07	2969.55
445.28	3229.65
445.48	3264.46
445.69	3143.63
445.89	3835.85
446.09	3205.07
446.30	3411.92
446.50	3475.40
446.71	4962.23
446.91	6342.56
447.12	7225.23
447.32	7645.07
447.53	7706.51
447.73	6360.99
447.93	5558.19
448.14	5343.15
448.34	5435.31
448.55	4474.81
448.75	4358.08
448.96	4126.66
449.16	4149.18
449.36	3917.76
449.57	3366.86
449.77	3123.15
449.98	3166.16
450.18	3440.59
450.39	3039.19
450.59	3289.04
450.79	3303.37
451.00	3192.78
451.20	3227.60
451.41	3004.37
451.61	3456.97
451.81	3264.46
452.02	3045.33
452.22	3096.53
452.43	3178.45
