SpectraSuite Data File
++++++++++++++++++++++++++++++++++++
Date: Fri May 06 08:13:57 CEST 2016
User: root
Dark Spectrum Present: No
Reference Spectrum Present: No
Number of Sampled Component Spectra: 1
Spectrometers: USB4C02835
Integration Time (usec): 100000 (USB4C02835)
Spectra Averaged: 1 (USB4C02835)
Boxcar Smoothing: 0 (USB4C02835)
Correct for Electrical Dark: No (USB4C02835)
Strobe/Lamp Enabled: No (USB4C02835)
Correct for Detector Non-linearity: No (USB4C02835)
Correct for Stray Light: No (USB4C02835)
Number of Pixels in Processed Spectrum: 3648
>>>>>Begin Processed Spectral Data<<<<<
177.47	2297.82
177.69	2297.82
177.91	2297.82
178.13	2273.25
178.36	2258.91
178.58	3035.09
178.80	3196.88
179.02	2918.36
179.24	3043.28
179.46	2820.05
179.68	2803.67
179.90	3215.31
180.13	3250.13
180.35	2719.70
180.57	2861.01
180.79	3370.96
181.01	3184.59
181.23	2779.09
181.45	2985.94
181.67	3491.79
181.90	3454.92
182.12	2877.40
182.34	2652.12
182.56	3409.87
182.78	3330.00
183.00	2852.82
183.22	2869.20
183.44	2942.93
183.66	3989.44
183.89	3026.90
184.11	2883.54
184.33	3373.00
184.55	3569.61
184.77	2777.05
184.99	2832.34
185.21	3139.54
185.43	3819.46
185.65	2852.82
185.87	2938.84
186.10	3696.58
186.32	3796.93
186.54	3014.61
186.76	2875.35
186.98	3471.31
187.20	3225.55
187.42	2879.44
187.64	2834.39
187.86	3424.20
188.08	3456.97
188.30	2766.81
188.52	2869.20
188.75	3594.19
188.97	3545.03
189.19	2822.10
189.41	2828.24
189.63	3348.43
189.85	3211.22
190.07	2742.23
190.29	2760.66
190.51	3387.34
190.73	2975.70
190.95	3047.38
191.17	2883.54
191.39	3057.62
191.61	3131.34
191.84	2869.20
192.06	2940.88
192.28	2891.73
192.50	3901.38
192.72	3026.90
192.94	2959.31
193.16	3504.07
193.38	3375.05
193.60	2758.61
193.82	2996.18
194.04	3516.36
194.26	3295.18
194.48	2906.07
194.70	2854.87
194.92	3205.07
195.14	3465.16
195.36	2793.43
195.58	2944.98
195.80	3215.31
196.02	3178.45
196.24	2772.95
196.46	2922.45
196.69	3166.16
196.91	3782.60
197.13	2904.02
197.35	2918.36
197.57	3649.48
197.79	3401.68
198.01	2953.17
198.23	2871.25
198.45	3389.39
198.67	3033.04
198.89	2738.13
199.11	3049.43
199.33	3076.05
199.55	2770.90
199.77	2797.53
199.99	3057.62
200.21	3176.40
200.43	3385.29
200.65	2742.23
200.87	2770.90
201.09	3256.27
201.31	3229.65
201.53	2842.58
201.75	2920.40
201.97	3373.00
202.19	3233.74
202.41	2889.68
202.63	2938.84
202.85	3387.34
203.07	3330.00
203.29	2947.03
203.51	2795.48
203.73	3164.11
203.95	3844.04
204.17	2906.07
204.39	3022.80
204.61	3303.37
204.83	3188.69
205.05	2936.79
205.27	2877.40
205.49	3706.82
205.71	3284.94
205.93	2701.27
206.15	2828.24
206.37	3260.37
206.59	3229.65
206.81	2734.04
207.03	2772.95
207.25	3131.34
207.47	3483.59
207.69	2865.11
207.91	3176.40
208.13	3651.53
208.34	3227.60
208.56	2797.53
208.78	2912.21
209.00	3286.99
209.22	3237.84
209.44	2885.59
209.66	2852.82
209.88	3289.04
210.10	3280.85
210.32	2818.00
210.54	2940.88
210.76	3114.96
210.98	3497.93
211.20	2797.53
211.42	2994.13
211.64	3569.61
211.86	3393.48
212.08	2899.92
212.30	2824.15
212.52	3170.26
212.74	3399.63
212.96	2908.12
213.17	2947.03
213.39	3430.35
213.61	3616.71
213.83	2828.24
214.05	2721.75
214.27	3516.36
214.49	3037.14
214.71	2754.52
214.93	2955.22
215.15	3375.05
215.37	3467.21
215.59	2742.23
215.81	2856.92
216.03	3532.75
216.24	3334.09
216.46	2799.57
216.68	2920.40
216.90	3436.49
217.12	3514.31
217.34	2807.77
217.56	3033.04
217.78	3471.31
218.00	3403.72
218.22	2971.60
218.44	3008.47
218.66	3241.93
218.87	3663.82
219.09	2951.12
219.31	2856.92
219.53	3352.52
219.75	3264.46
219.97	2924.50
220.19	2895.83
220.41	3274.70
220.63	3655.62
220.85	2930.64
221.06	2918.36
221.28	3473.36
221.50	3444.68
221.72	2854.87
221.94	2805.72
222.16	3315.66
222.38	3413.96
222.60	2848.72
222.82	3000.27
223.03	3442.64
223.25	3078.10
223.47	2895.83
223.69	3092.43
223.91	3516.36
224.13	3319.76
224.35	2762.71
224.57	3024.85
224.78	3448.78
225.00	3080.14
225.22	3028.95
225.44	2811.86
225.66	3463.12
225.88	3192.78
226.10	2983.89
226.32	2850.77
226.53	3579.85
226.75	3219.41
226.97	3014.61
227.19	2908.12
227.41	3149.78
227.63	3151.82
227.85	2676.70
228.06	2928.60
228.28	3262.41
228.50	3475.40
228.72	2709.46
228.94	2826.20
229.16	2936.79
229.37	3024.85
229.59	2797.53
229.81	3094.48
230.03	3225.55
230.25	3127.25
230.47	2688.98
230.69	2809.81
230.90	3436.49
231.12	3108.82
231.34	2873.30
231.56	3004.37
231.78	3067.86
232.00	3330.00
232.21	2961.36
232.43	2885.59
232.65	2879.44
232.87	3370.96
233.09	2734.04
233.30	2820.05
233.52	3553.23
233.74	3295.18
233.96	2863.06
234.18	3016.66
234.40	3196.88
234.61	3743.69
234.83	2719.70
235.05	2850.77
235.27	3823.56
235.49	3495.88
235.70	2795.48
235.92	2897.88
236.14	3440.59
236.36	3805.13
236.58	2734.04
236.79	2953.17
237.01	3274.70
237.23	3254.22
237.45	3069.91
237.67	2967.51
237.88	3377.10
238.10	3651.53
238.32	2797.53
238.54	2748.37
238.76	3295.18
238.97	3084.24
239.19	2721.75
239.41	2965.46
239.63	3465.16
239.85	3123.15
240.06	2885.59
240.28	2938.84
240.50	3491.79
240.72	3266.51
240.93	2764.76
241.15	3004.37
241.37	3299.28
241.59	3602.38
241.81	2844.63
242.02	2973.65
242.24	3332.05
242.46	3385.29
242.68	2705.37
242.89	2899.92
243.11	3465.16
243.33	3246.03
243.55	2873.30
243.76	2856.92
243.98	3160.02
244.20	3221.45
244.42	2873.30
244.64	2809.81
244.85	2944.98
245.07	3084.24
245.29	2803.67
245.51	2889.68
245.72	3409.87
245.94	3442.64
246.16	2836.44
246.38	2961.36
246.59	3127.25
246.81	3065.81
247.03	2688.98
247.24	2756.57
247.46	3194.83
247.68	3366.86
247.90	2729.94
248.11	2873.30
248.33	3399.63
248.55	3309.52
248.77	2906.07
248.98	2887.64
249.20	3596.23
249.42	3317.71
249.64	2885.59
249.85	2799.57
250.07	3166.16
250.29	3540.94
250.50	2901.97
250.72	2756.57
250.94	3493.83
251.16	3688.39
251.37	2779.09
251.59	2930.64
251.81	3452.88
252.02	3629.00
252.24	2723.80
252.46	3020.75
252.68	3147.73
252.89	3180.50
253.11	2717.65
253.33	3020.75
253.54	3569.61
253.76	3059.67
253.98	2840.53
254.20	2873.30
254.41	3041.23
254.63	3188.69
254.85	2772.95
255.06	2934.74
255.28	3385.29
255.50	3188.69
255.71	2748.37
255.93	2707.41
256.15	3241.93
256.36	3305.42
256.58	2734.04
256.80	2783.19
257.02	3278.80
257.23	3215.31
257.45	2953.17
257.67	3033.04
257.88	3227.60
258.10	3352.52
258.32	2865.11
258.53	2938.84
258.75	3588.04
258.97	3145.68
259.18	2867.16
259.40	2803.67
259.62	3676.10
259.83	3647.43
260.05	2893.78
260.27	3852.23
260.48	3512.27
260.70	3160.02
260.92	2781.14
261.13	2854.87
261.35	3391.44
261.57	3348.43
261.78	2742.23
262.00	2850.77
262.22	3434.44
262.43	3106.77
262.65	2914.26
262.86	2967.51
263.08	3737.54
263.30	3295.18
263.51	2742.23
263.73	2871.25
263.95	3559.37
264.16	3233.74
264.38	2711.51
264.60	2727.89
264.81	3274.70
265.03	3454.92
265.25	3311.57
265.46	2742.23
265.68	3534.79
265.89	3377.10
266.11	2758.61
266.33	2848.72
266.54	3536.84
266.76	3336.14
266.98	3008.47
267.19	3108.82
267.41	3495.88
267.62	3223.50
267.84	2639.83
268.06	3020.75
268.27	3373.00
268.49	3512.27
268.70	2871.25
268.92	2842.58
269.14	3078.10
269.35	2977.75
269.57	2971.60
269.79	2906.07
270.00	3196.88
270.22	3661.77
270.43	2697.17
270.65	2662.36
270.87	3342.28
271.08	3381.20
271.30	2953.17
271.51	2912.21
271.73	3444.68
271.95	3557.32
272.16	2793.43
272.38	3018.71
272.59	3207.12
272.81	3393.48
273.02	2842.58
273.24	2926.55
273.46	3512.27
273.67	3100.62
273.89	2725.85
274.10	2871.25
274.32	3555.27
274.54	3262.41
274.75	2983.89
274.97	2969.55
275.18	3391.44
275.40	3454.92
275.61	2914.26
275.83	3045.33
276.05	2992.08
276.26	3278.80
276.48	2920.40
276.69	3035.09
276.91	3139.54
277.12	3563.47
277.34	3049.43
277.55	3172.30
277.77	3227.60
277.99	3246.03
278.20	2979.79
278.42	2918.36
278.63	3196.88
278.85	2967.51
279.06	2969.55
279.28	3082.19
279.49	3538.89
279.71	3393.48
279.93	3061.71
280.14	3106.77
280.36	3137.49
280.57	3520.46
280.79	3053.52
281.00	2883.54
281.22	3168.21
281.43	3565.51
281.65	2836.44
281.86	2822.10
282.08	3405.77
282.29	3606.47
282.51	2869.20
282.73	2881.49
282.94	2961.36
283.16	3469.26
283.37	3141.58
283.59	2967.51
283.80	3303.37
284.02	3237.84
284.23	3030.99
284.45	3010.51
284.66	3094.48
284.88	3065.81
285.09	2883.54
285.31	3129.30
285.52	3307.47
285.74	2985.94
285.95	3192.78
286.17	3026.90
286.38	3506.12
286.60	3133.39
286.81	2947.03
287.03	2936.79
287.24	3268.56
287.46	3383.24
287.67	3059.67
287.89	3221.45
288.10	3299.28
288.32	3344.33
288.53	3170.26
288.75	3035.09
288.96	3356.62
289.18	3211.22
289.39	2920.40
289.61	2983.89
289.82	3749.83
290.04	3704.78
290.25	2838.48
290.47	3084.24
290.68	3241.93
290.90	3487.69
291.11	2875.35
291.33	3092.43
291.54	3108.82
291.76	3233.74
291.97	3125.20
292.18	3102.67
292.40	3147.73
292.61	3065.81
292.83	3282.89
293.04	3035.09
293.26	3358.67
293.47	3215.31
293.69	2934.74
293.90	2936.79
294.12	3573.71
294.33	3254.22
294.55	3092.43
294.76	3223.50
294.97	3557.32
295.19	3676.10
295.40	2908.12
295.62	3049.43
295.83	3459.02
296.05	3076.05
296.26	3243.98
296.48	2987.99
296.69	3260.37
296.90	3147.73
297.12	3074.00
297.33	3168.21
297.55	3305.42
297.76	3463.12
297.98	3114.96
298.19	3182.54
298.41	3211.22
298.62	3117.01
298.83	3219.41
299.05	3131.34
299.26	3133.39
299.48	3074.00
299.69	3123.15
299.90	3010.51
300.12	3172.30
300.33	3342.28
300.55	2975.70
300.76	3137.49
300.98	2998.23
301.19	3411.92
301.40	2981.84
301.62	2992.08
301.83	3368.91
302.05	3272.65
302.26	2912.21
302.47	3076.05
302.69	2990.03
302.90	3254.22
303.12	2820.05
303.33	3088.34
303.54	3719.11
303.76	3121.10
303.97	2863.06
304.19	3233.74
304.40	3090.38
304.61	3403.72
304.83	3149.78
305.04	3024.85
305.26	3436.49
305.47	3151.82
305.68	3061.71
305.90	2838.48
306.11	3504.07
306.33	3278.80
306.54	2904.02
306.75	3002.32
306.97	3037.14
307.18	3049.43
307.39	2983.89
307.61	3112.91
307.82	3190.74
308.04	3389.39
308.25	2934.74
308.46	3139.54
308.68	3221.45
308.89	3297.23
309.10	3141.58
309.32	3004.37
309.53	3254.22
309.74	3311.57
309.96	2828.24
310.17	3108.82
310.39	3192.78
310.60	3401.68
310.81	3078.10
311.03	2916.31
311.24	3493.83
311.45	3348.43
311.67	3252.17
311.88	3047.38
312.09	3172.30
312.31	3176.40
312.52	2887.64
312.73	2936.79
312.95	3047.38
313.16	3074.00
313.37	3162.06
313.59	3278.80
313.80	3407.82
314.01	3608.52
314.23	3020.75
314.44	2942.93
314.65	2998.23
314.87	2975.70
315.08	3020.75
315.29	2901.97
315.51	3090.38
315.72	2899.92
315.93	3057.62
316.15	3008.47
316.36	3174.35
316.57	3315.66
316.79	3012.56
317.00	2877.40
317.21	3407.82
317.43	3061.71
317.64	3117.01
317.85	2920.40
318.07	3080.14
318.28	3164.11
318.49	3192.78
318.70	3250.13
318.92	3350.48
319.13	3442.64
319.34	3166.16
319.56	3057.62
319.77	3426.25
319.98	3487.69
320.20	3291.09
320.41	3192.78
320.62	3360.72
320.83	2957.27
321.05	3207.12
321.26	3065.81
321.47	3295.18
321.69	3467.21
321.90	2910.16
322.11	2985.94
322.32	3274.70
322.54	3577.80
322.75	3016.66
322.96	4069.31
323.18	2963.41
323.39	2961.36
323.60	2924.50
323.81	3080.14
324.03	3172.30
324.24	3332.05
324.45	3086.29
324.66	3024.85
324.88	3477.45
325.09	3569.61
325.30	2961.36
325.52	2875.35
325.73	3358.67
325.94	3149.78
326.15	2901.97
326.37	2856.92
326.58	3504.07
326.79	3690.44
327.00	2916.31
327.22	2910.16
327.43	3160.02
327.64	3004.37
327.85	3067.86
328.07	3069.91
328.28	3663.82
328.49	3172.30
328.70	3121.10
328.92	2936.79
329.13	3297.23
329.34	3393.48
329.55	3127.25
329.76	3149.78
329.98	3239.89
330.19	3502.03
330.40	3133.39
330.61	3041.23
330.83	3405.77
331.04	3110.86
331.25	3153.87
331.46	3071.95
331.68	3030.99
331.89	3516.36
332.10	3006.42
332.31	2824.15
332.52	3330.00
332.74	3508.17
332.95	2818.00
333.16	2967.51
333.37	3475.40
333.58	3168.21
333.80	3018.71
334.01	2770.90
334.22	3276.75
334.43	3090.38
334.64	2953.17
334.86	2920.40
335.07	3053.52
335.28	3573.71
335.49	2852.82
335.70	2981.84
335.92	3639.24
336.13	3815.37
336.34	3078.10
336.55	2922.45
336.76	3377.10
336.98	2914.26
337.19	3069.91
337.40	3100.62
337.61	3751.88
337.82	3213.26
338.04	3110.86
338.25	2852.82
338.46	3190.74
338.67	3237.84
338.88	2899.92
339.09	2901.97
339.31	3235.79
339.52	3057.62
339.73	2914.26
339.94	3049.43
340.15	3403.72
340.36	3057.62
340.58	3028.95
340.79	2998.23
341.00	3354.57
341.21	3119.06
341.42	3321.81
341.63	3004.37
341.85	3383.24
342.06	3360.72
342.27	2967.51
342.48	3076.05
342.69	3020.75
342.90	3352.52
343.12	3395.53
343.33	2951.12
343.54	3454.92
343.75	3575.75
343.96	3076.05
344.17	2934.74
344.38	3194.83
344.60	3100.62
344.81	2932.69
345.02	2967.51
345.23	3547.08
345.44	3860.42
345.65	3051.47
345.86	3135.44
346.07	3276.75
346.29	3141.58
346.50	3178.45
346.71	3069.91
346.92	3499.98
347.13	3686.34
347.34	3121.10
347.55	2887.64
347.76	3289.04
347.98	2975.70
348.19	3028.95
348.40	3256.27
348.61	3164.11
348.82	3641.29
349.03	3045.33
349.24	2910.16
349.45	3643.34
349.66	2877.40
349.88	2979.79
350.09	3000.27
350.30	3594.19
350.51	3506.12
350.72	3284.94
350.93	2963.41
351.14	3180.50
351.35	3356.62
351.56	3053.52
351.77	3010.51
351.99	3397.58
352.20	3626.95
352.41	3143.63
352.62	2797.53
352.83	3184.59
353.04	3344.33
353.25	2912.21
353.46	3033.04
353.67	3528.65
353.88	2877.40
354.09	2947.03
354.30	2998.23
354.52	3432.40
354.73	3246.03
354.94	2957.27
355.15	3022.80
355.36	3678.15
355.57	3082.19
355.78	2951.12
355.99	2977.75
356.20	3172.30
356.41	3551.18
356.62	3094.48
356.83	3061.71
357.04	3559.37
357.25	3000.27
357.46	3055.57
357.68	2852.82
357.89	3106.77
358.10	3258.32
358.31	2975.70
358.52	3016.66
358.73	3020.75
358.94	3016.66
359.15	3043.28
359.36	3008.47
359.57	3303.37
359.78	3215.31
359.99	3114.96
360.20	2928.60
360.41	3258.32
360.62	3405.77
360.83	3102.67
361.04	3145.68
361.25	3358.67
361.46	3557.32
361.67	3137.49
361.88	3024.85
362.09	3499.98
362.30	3360.72
362.51	2879.44
362.72	3059.67
362.93	3401.68
363.14	3381.20
363.35	3145.68
363.56	2969.55
363.78	3475.40
363.99	3389.39
364.20	2947.03
364.41	3002.32
364.62	3620.81
364.83	3330.00
365.04	2973.65
365.25	3059.67
365.46	3682.25
365.67	3119.06
365.88	3188.69
366.09	3002.32
366.30	3200.98
366.51	3317.71
366.72	2893.78
366.93	2994.13
367.14	3196.88
367.35	3491.79
367.56	2891.73
367.77	3082.19
367.98	3217.36
368.18	3438.54
368.39	3143.63
368.60	2983.89
368.81	3409.87
369.02	3377.10
369.23	3008.47
369.44	2828.24
369.65	3192.78
369.86	3311.57
370.07	3178.45
370.28	2879.44
370.49	3264.46
370.70	3409.87
370.91	2934.74
371.12	2901.97
371.33	3534.79
371.54	3262.41
371.75	3098.58
371.96	2762.71
372.17	3233.74
372.38	3205.07
372.59	3117.01
372.80	2971.60
373.01	3186.64
373.22	3282.89
373.43	2942.93
373.64	2861.01
373.85	3581.90
374.06	3565.51
374.26	3207.12
374.47	3119.06
374.68	3598.28
374.89	3375.05
375.10	2865.11
375.31	3067.86
375.52	3317.71
375.73	3327.95
375.94	2920.40
376.15	3098.58
376.36	3229.65
376.57	3223.50
376.78	3071.95
376.99	3090.38
377.20	3479.50
377.40	3225.55
377.61	3278.80
377.82	2969.55
378.03	3590.09
378.24	3373.00
378.45	3002.32
378.66	3069.91
378.87	2938.84
379.08	3033.04
379.29	3049.43
379.50	3225.55
379.71	3217.36
379.91	3323.85
380.12	3037.14
380.33	3092.43
380.54	3299.28
380.75	3313.61
380.96	3010.51
381.17	3055.57
381.38	3235.79
381.59	3286.99
381.80	3069.91
382.00	3184.59
382.21	3330.00
382.42	3481.55
382.63	3401.68
382.84	3229.65
383.05	3411.92
383.26	3522.51
383.47	3180.50
383.68	2973.65
383.88	3444.68
384.09	3305.42
384.30	3209.17
384.51	3067.86
384.72	3207.12
384.93	3045.33
385.14	3102.67
385.35	3297.23
385.55	3008.47
385.76	3524.55
385.97	3028.95
386.18	2871.25
386.39	3098.58
386.60	3190.74
386.81	3022.80
387.02	2869.20
387.22	2951.12
387.43	3377.10
387.64	3188.69
387.85	3360.72
388.06	3362.76
388.27	4390.84
388.48	7823.24
388.68	12199.75
388.89	15460.12
389.10	16779.01
389.31	16600.83
389.52	13088.57
389.73	11265.88
389.93	10540.90
390.14	9291.63
390.35	8443.78
390.56	7982.98
390.77	6752.15
390.98	4988.85
391.18	4181.95
391.39	3936.20
391.60	3387.34
391.81	3354.57
392.02	3041.23
392.23	3831.75
392.43	3295.18
392.64	3166.16
392.85	3094.48
393.06	3624.90
393.27	3260.37
393.47	2992.08
393.68	3059.67
393.89	3260.37
394.10	3499.98
394.31	2977.75
394.52	2942.93
394.72	3196.88
394.93	3590.09
395.14	2918.36
395.35	3164.11
395.56	3188.69
395.76	3278.80
395.97	3016.66
396.18	3219.41
396.39	3229.65
396.60	3964.87
396.80	3438.54
397.01	3227.60
397.22	3395.53
397.43	3493.83
397.64	3102.67
397.84	3106.77
398.05	3667.91
398.26	3239.89
398.47	3123.15
398.67	3272.65
398.88	3280.85
399.09	3444.68
399.30	3049.43
399.51	3117.01
399.71	3108.82
399.92	3203.02
400.13	3170.26
400.34	3033.04
400.54	3284.94
400.75	3598.28
400.96	3258.32
401.17	3274.70
401.37	3346.38
401.58	3262.41
401.79	3069.91
402.00	3170.26
402.21	3790.79
402.41	3413.96
402.62	3237.84
402.83	3520.46
403.04	3698.63
403.24	4038.59
403.45	3143.63
403.66	3344.33
403.87	3475.40
404.07	3708.87
404.28	3330.00
404.49	3313.61
404.70	3407.82
404.90	3461.07
405.11	3078.10
405.32	3114.96
405.52	3125.20
405.73	3164.11
405.94	3012.56
406.15	3059.67
406.35	3450.83
406.56	3475.40
406.77	3045.33
406.98	3106.77
407.18	3174.35
407.39	3653.58
407.60	3035.09
407.80	3157.97
408.01	3272.65
408.22	3413.96
408.43	2899.92
408.63	3270.61
408.84	3440.59
409.05	3461.07
409.25	2938.84
409.46	3053.52
409.67	3180.50
409.88	3155.92
410.08	3100.62
410.29	2983.89
410.50	3442.64
410.70	3368.91
410.91	2996.18
411.12	3121.10
411.32	3250.13
411.53	3139.54
411.74	3043.28
411.95	3100.62
412.15	3299.28
412.36	3391.44
412.57	3184.59
412.77	3321.81
412.98	3272.65
413.19	3166.16
413.39	3110.86
413.60	3094.48
413.81	3534.79
414.01	3061.71
414.22	3096.53
414.43	3237.84
414.63	3252.17
414.84	3475.40
415.05	3104.72
415.25	2879.44
415.46	3403.72
415.67	3186.64
415.87	3076.05
416.08	3043.28
416.29	3282.89
416.49	3461.07
416.70	3110.86
416.91	3028.95
417.11	3280.85
417.32	3549.13
417.53	3082.19
417.73	3143.63
417.94	3291.09
418.15	3352.52
418.35	3065.81
418.56	3067.86
418.77	3809.22
418.97	3317.71
419.18	3178.45
419.38	2744.28
419.59	3307.47
419.80	3549.13
420.00	2983.89
420.21	3063.76
420.42	3502.03
420.62	3379.15
420.83	3061.71
421.04	3043.28
421.24	3209.17
421.45	3418.06
421.65	3004.37
421.86	3121.10
422.07	3469.26
422.27	3368.91
422.48	3000.27
422.69	2865.11
422.89	3299.28
423.10	3233.74
423.30	3045.33
423.51	3051.47
423.72	3323.85
423.92	3481.55
424.13	2938.84
424.33	3047.38
424.54	3516.36
424.75	3344.33
424.95	3295.18
425.16	2992.08
425.36	3272.65
425.57	3491.79
425.78	3125.20
425.98	3094.48
426.19	3258.32
426.39	3088.34
426.60	3119.06
426.81	3209.17
427.01	3387.34
427.22	3074.00
427.42	2879.44
427.63	3043.28
427.83	3442.64
428.04	3614.66
428.25	3108.82
428.45	3166.16
428.66	3534.79
428.86	3231.69
429.07	3049.43
429.28	3119.06
429.48	3266.51
429.69	3104.72
429.89	3080.14
430.10	2852.82
430.30	3383.24
430.51	3508.17
430.71	3012.56
430.92	3069.91
431.13	3213.26
431.33	3483.59
431.54	3069.91
431.74	3207.12
431.95	3723.21
432.15	3149.78
432.36	3071.95
432.56	3155.92
432.77	3618.76
432.98	3532.75
433.18	3125.20
433.39	2861.01
433.59	3266.51
433.80	3680.20
434.00	3180.50
434.21	3086.29
434.41	3106.77
434.62	3733.45
434.82	2934.74
435.03	2992.08
435.23	3319.76
435.44	2951.12
435.64	2981.84
435.85	3082.19
436.06	3409.87
436.26	3426.25
436.47	3006.42
436.67	2992.08
436.88	3178.45
437.08	3493.83
437.29	3141.58
437.49	3221.45
437.70	3487.69
437.90	3262.41
438.11	3252.17
438.31	3108.82
438.52	3540.94
438.72	3524.55
438.93	3446.73
439.13	3170.26
439.34	3463.12
439.54	3164.11
439.75	3172.30
439.95	3233.74
440.16	3170.26
440.36	3344.33
440.57	3059.67
440.77	3053.52
440.98	3299.28
441.18	3286.99
441.39	2918.36
441.59	2936.79
441.80	3735.50
442.00	3262.41
442.21	3190.74
442.41	2914.26
442.62	3411.92
442.82	3184.59
443.02	3006.42
443.23	3078.10
443.43	3299.28
443.64	3565.51
443.84	2856.92
444.05	3108.82
444.25	3241.93
444.46	3243.98
444.66	3006.42
444.87	3327.95
445.07	2955.22
445.28	3272.65
445.48	3262.41
445.69	3153.87
445.89	3835.85
446.09	3182.54
446.30	3342.28
446.50	3508.17
446.71	5101.49
446.91	6436.77
447.12	7315.34
447.32	7800.71
447.53	7632.78
447.73	6426.53
447.93	5541.80
448.14	5259.18
448.34	5463.98
448.55	4491.20
448.75	4454.33
448.96	4288.45
449.16	4157.38
449.36	3950.53
449.57	3393.48
449.77	3114.96
449.98	3239.89
450.18	3393.48
450.39	2918.36
450.59	3250.13
450.79	3254.22
451.00	3139.54
451.20	3225.55
451.41	2992.08
451.61	3200.98
451.81	3209.17
452.02	2969.55
452.22	3098.58
452.43	3125.20
