SpectraSuite Data File
++++++++++++++++++++++++++++++++++++
Date: Fri May 06 08:14:22 CEST 2016
User: root
Dark Spectrum Present: No
Reference Spectrum Present: No
Number of Sampled Component Spectra: 1
Spectrometers: USB4C02835
Integration Time (usec): 100000 (USB4C02835)
Spectra Averaged: 1 (USB4C02835)
Boxcar Smoothing: 0 (USB4C02835)
Correct for Electrical Dark: No (USB4C02835)
Strobe/Lamp Enabled: No (USB4C02835)
Correct for Detector Non-linearity: No (USB4C02835)
Correct for Stray Light: No (USB4C02835)
Number of Pixels in Processed Spectrum: 3648
>>>>>Begin Processed Spectral Data<<<<<
177.47	2226.14
177.69	2226.14
177.91	2226.14
178.13	2260.96
178.36	2207.71
178.58	2934.74
178.80	3098.58
179.02	2957.27
179.24	3133.39
179.46	2803.67
179.68	2840.53
179.90	3274.70
180.13	3286.99
180.35	2631.64
180.57	2781.14
180.79	3420.11
181.01	3289.04
181.23	2809.81
181.45	2955.22
181.67	3387.34
181.90	3475.40
182.12	2891.73
182.34	2693.08
182.56	3493.83
182.78	3321.81
183.00	2852.82
183.22	2889.68
183.44	2881.49
183.66	3794.89
183.89	2977.75
184.11	2871.25
184.33	3399.63
184.55	3487.69
184.77	2856.92
184.99	2914.26
185.21	3186.64
185.43	3770.31
185.65	2889.68
185.87	2801.62
186.10	3803.08
186.32	3751.88
186.54	2971.60
186.76	2955.22
186.98	3510.22
187.20	3276.75
187.42	2901.97
187.64	2826.20
187.86	3346.38
188.08	3479.50
188.30	2752.47
188.52	2910.16
188.75	3559.37
188.97	3520.46
189.19	2861.01
189.41	2813.91
189.63	3434.44
189.85	3243.98
190.07	2643.93
190.29	2713.56
190.51	3360.72
190.73	3037.14
190.95	3094.48
191.17	2924.50
191.39	3037.14
191.61	3241.93
191.84	2854.87
192.06	2987.99
192.28	3002.32
192.50	3905.48
192.72	3069.91
192.94	2895.83
193.16	3467.21
193.38	3338.19
193.60	2824.15
193.82	3096.53
194.04	3512.27
194.26	3368.91
194.48	2797.53
194.70	2854.87
194.92	3203.02
195.14	3395.53
195.36	2811.86
195.58	2901.97
195.80	3250.13
196.02	3123.15
196.24	2820.05
196.46	2932.69
196.69	3250.13
196.91	3715.02
197.13	2906.07
197.35	2949.08
197.57	3626.95
197.79	3401.68
198.01	2990.03
198.23	3000.27
198.45	3336.14
198.67	2963.41
198.89	2680.79
199.11	2928.60
199.33	3131.34
199.55	2871.25
199.77	2822.10
199.99	2932.69
200.21	3145.68
200.43	3309.52
200.65	2756.57
200.87	2652.12
201.09	3327.95
201.31	3221.45
201.53	2916.31
201.75	2926.55
201.97	3330.00
202.19	3219.41
202.41	2942.93
202.63	3010.51
202.85	3385.29
203.07	3321.81
203.29	2885.59
203.51	2852.82
203.73	3084.24
203.95	3819.46
204.17	2815.96
204.39	3020.75
204.61	3264.46
204.83	3213.26
205.05	2961.36
205.27	2850.77
205.49	3725.26
205.71	3258.32
205.93	2731.99
206.15	2781.14
206.37	3272.65
206.59	3270.61
206.81	2695.13
207.03	2729.94
207.25	3004.37
207.47	3403.72
207.69	2848.72
207.91	3172.30
208.13	3633.10
208.34	3137.49
208.56	2760.66
208.78	2869.20
209.00	3174.35
209.22	3076.05
209.44	2942.93
209.66	2820.05
209.88	3295.18
210.10	3311.57
210.32	2867.16
210.54	2985.94
210.76	3246.03
210.98	3557.32
211.20	2742.23
211.42	2985.94
211.64	3590.09
211.86	3354.57
212.08	2887.64
212.30	2861.01
212.52	3256.27
212.74	3348.43
212.96	2875.35
213.17	2940.88
213.39	3428.30
213.61	3631.05
213.83	2881.49
214.05	2750.42
214.27	3538.89
214.49	3157.97
214.71	2795.48
214.93	2979.79
215.15	3291.09
215.37	3549.13
215.59	2699.22
215.81	2914.26
216.03	3592.14
216.24	3270.61
216.46	2969.55
216.68	2854.87
216.90	3377.10
217.12	3522.51
217.34	2752.47
217.56	3059.67
217.78	3561.42
218.00	3413.96
218.22	2963.41
218.44	2987.99
218.66	3375.05
218.87	3610.57
219.09	2910.16
219.31	2895.83
219.53	3387.34
219.75	3205.07
219.97	2963.41
220.19	2938.84
220.41	3237.84
220.63	3571.66
220.85	2881.49
221.06	2906.07
221.28	3635.14
221.50	3440.59
221.72	2815.96
221.94	2770.90
222.16	3352.52
222.38	3551.18
222.60	2795.48
222.82	2865.11
223.03	3407.82
223.25	2987.99
223.47	2803.67
223.69	3082.19
223.91	3379.15
224.13	3346.38
224.35	2787.29
224.57	2947.03
224.78	3536.84
225.00	3053.52
225.22	2961.36
225.44	2803.67
225.66	3393.48
225.88	3188.69
226.10	2987.99
226.32	2871.25
226.53	3559.37
226.75	3235.79
226.97	2947.03
227.19	2914.26
227.41	3182.54
227.63	3250.13
227.85	2715.61
228.06	2897.88
228.28	3325.90
228.50	3502.03
228.72	2633.69
228.94	2832.34
229.16	2928.60
229.37	3037.14
229.59	2805.72
229.81	3178.45
230.03	3125.20
230.25	3069.91
230.47	2688.98
230.69	2762.71
230.90	3502.03
231.12	3020.75
231.34	2990.03
231.56	2979.79
231.78	3047.38
232.00	3221.45
232.21	2953.17
232.43	2928.60
232.65	2875.35
232.87	3395.53
233.09	2707.41
233.30	2830.29
233.52	3475.40
233.74	3262.41
233.96	2856.92
234.18	3061.71
234.40	3248.08
234.61	3719.11
234.83	2752.47
235.05	2789.33
235.27	3821.51
235.49	3659.72
235.70	2840.53
235.92	2918.36
236.14	3420.11
236.36	3803.08
236.58	2781.14
236.79	3008.47
237.01	3293.13
237.23	3284.94
237.45	3069.91
237.67	2901.97
237.88	3397.58
238.10	3620.81
238.32	2795.48
238.54	2811.86
238.76	3266.51
238.97	3112.91
239.19	2783.19
239.41	3012.56
239.63	3577.80
239.85	3160.02
240.06	2865.11
240.28	2877.40
240.50	3467.21
240.72	3270.61
240.93	2807.77
241.15	3008.47
241.37	3338.19
241.59	3524.55
241.81	2811.86
242.02	2938.84
242.24	3282.89
242.46	3411.92
242.68	2744.28
242.89	2731.99
243.11	3391.44
243.33	3317.71
243.55	2887.64
243.76	2865.11
243.98	3137.49
244.20	3270.61
244.42	2861.01
244.64	2854.87
244.85	3057.62
245.07	3051.47
245.29	2863.06
245.51	2918.36
245.72	3307.47
245.94	3469.26
246.16	2875.35
246.38	2791.38
246.59	3174.35
246.81	3110.86
247.03	2783.19
247.24	2703.32
247.46	3117.01
247.68	3327.95
247.90	2799.57
248.11	2826.20
248.33	3481.55
248.55	3188.69
248.77	2992.08
248.98	2944.98
249.20	3592.14
249.42	3272.65
249.64	2795.48
249.85	2895.83
250.07	3231.69
250.29	3330.00
250.50	2914.26
250.72	2828.24
250.94	3387.34
251.16	3811.27
251.37	2838.48
251.59	2947.03
251.81	3346.38
252.02	3567.56
252.24	2811.86
252.46	2977.75
252.68	3100.62
252.89	3149.78
253.11	2701.27
253.33	3028.95
253.54	3641.29
253.76	3063.76
253.98	2969.55
254.20	2928.60
254.41	3028.95
254.63	3237.84
254.85	2754.52
255.06	2936.79
255.28	3364.81
255.50	3223.50
255.71	2791.38
255.93	2731.99
256.15	3266.51
256.36	3416.01
256.58	2787.29
256.80	2779.09
257.02	3252.17
257.23	3164.11
257.45	2928.60
257.67	3002.32
257.88	3205.07
258.10	3323.85
258.32	2869.20
258.53	2998.23
258.75	3626.95
258.97	3100.62
259.18	2781.14
259.40	2834.39
259.62	3629.00
259.83	3583.95
260.05	2912.21
260.27	3829.70
260.48	3502.03
260.70	3088.34
260.92	2811.86
261.13	2904.02
261.35	3321.81
261.57	3362.76
261.78	2758.61
262.00	2838.48
262.22	3332.05
262.43	3088.34
262.65	2942.93
262.86	2897.88
263.08	3782.60
263.30	3307.47
263.51	2750.42
263.73	2762.71
263.95	3504.07
264.16	2994.13
264.38	2723.80
264.60	2764.76
264.81	3231.69
265.03	3532.75
265.25	3346.38
265.46	2887.64
265.68	3540.94
265.89	3463.12
266.11	2760.66
266.33	2779.09
266.54	3493.83
266.76	3454.92
266.98	3057.62
267.19	3024.85
267.41	3510.22
267.62	3301.33
267.84	2617.30
268.06	3063.76
268.27	3315.66
268.49	3473.36
268.70	2971.60
268.92	2846.68
269.14	3137.49
269.35	3016.66
269.57	2981.84
269.79	2897.88
270.00	3186.64
270.22	3575.75
270.43	2691.03
270.65	2787.29
270.87	3250.13
271.08	3432.40
271.30	2918.36
271.51	2873.30
271.73	3379.15
271.95	3563.47
272.16	2797.53
272.38	3049.43
272.59	3215.31
272.81	3395.53
273.02	2873.30
273.24	2856.92
273.46	3657.67
273.67	3008.47
273.89	2779.09
274.10	2871.25
274.32	3418.06
274.54	3336.14
274.75	2944.98
274.97	2959.31
275.18	3416.01
275.40	3389.39
275.61	2848.72
275.83	3069.91
276.05	3082.19
276.26	3225.55
276.48	2908.12
276.69	3063.76
276.91	3280.85
277.12	3569.61
277.34	3071.95
277.55	3147.73
277.77	3258.32
277.99	3194.83
278.20	3045.33
278.42	2895.83
278.63	3121.10
278.85	3053.52
279.06	2893.78
279.28	3127.25
279.49	3446.73
279.71	3422.16
279.93	3108.82
280.14	3049.43
280.36	3147.73
280.57	3542.99
280.79	3028.95
281.00	2906.07
281.22	3080.14
281.43	3469.26
281.65	2838.48
281.86	2899.92
282.08	3409.87
282.29	3633.10
282.51	2863.06
282.73	2930.64
282.94	3026.90
283.16	3409.87
283.37	3112.91
283.59	3039.19
283.80	3309.52
284.02	3254.22
284.23	3059.67
284.45	3051.47
284.66	3127.25
284.88	3057.62
285.09	2969.55
285.31	3084.24
285.52	3356.62
285.74	2979.79
285.95	3264.46
286.17	3063.76
286.38	3473.36
286.60	3147.73
286.81	2957.27
287.03	2928.60
287.24	3168.21
287.46	3479.50
287.67	3139.54
287.89	3131.34
288.10	3309.52
288.32	3313.61
288.53	3098.58
288.75	3008.47
288.96	3448.78
289.18	3104.72
289.39	2926.55
289.61	2971.60
289.82	3672.01
290.04	3667.91
290.25	2885.59
290.47	3074.00
290.68	3200.98
290.90	3487.69
291.11	2856.92
291.33	3172.30
291.54	3028.95
291.76	3184.59
291.97	3104.72
292.18	3131.34
292.40	3243.98
292.61	3164.11
292.83	3340.24
293.04	3033.04
293.26	3323.85
293.47	3268.56
293.69	2973.65
293.90	2869.20
294.12	3508.17
294.33	3205.07
294.55	3061.71
294.76	3155.92
294.97	3506.12
295.19	3635.14
295.40	2971.60
295.62	3123.15
295.83	3493.83
296.05	3196.88
296.26	3211.22
296.48	2969.55
296.69	3268.56
296.90	3268.56
297.12	3166.16
297.33	3153.87
297.55	3246.03
297.76	3338.19
297.98	3108.82
298.19	3157.97
298.41	3233.74
298.62	3092.43
298.83	3110.86
299.05	3057.62
299.26	3184.59
299.48	3100.62
299.69	3057.62
299.90	2920.40
300.12	3055.57
300.33	3416.01
300.55	3024.85
300.76	2977.75
300.98	3084.24
301.19	3391.44
301.40	2975.70
301.62	2992.08
301.83	3352.52
302.05	3317.71
302.26	2965.46
302.47	3059.67
302.69	2975.70
302.90	3213.26
303.12	2869.20
303.33	3131.34
303.54	3721.16
303.76	3168.21
303.97	2955.22
304.19	3205.07
304.40	3092.43
304.61	3377.10
304.83	3082.19
305.04	3069.91
305.26	3430.35
305.47	3221.45
305.68	2973.65
305.90	2918.36
306.11	3518.41
306.33	3256.27
306.54	2887.64
306.75	2953.17
306.97	3020.75
307.18	3033.04
307.39	3022.80
307.61	3129.30
307.82	3231.69
308.04	3391.44
308.25	2912.21
308.46	3149.78
308.68	3276.75
308.89	3270.61
309.10	3143.63
309.32	3037.14
309.53	3332.05
309.74	3352.52
309.96	2848.72
310.17	3135.44
310.39	3176.40
310.60	3397.58
310.81	3098.58
311.03	2951.12
311.24	3391.44
311.45	3254.22
311.67	3282.89
311.88	3100.62
312.09	3176.40
312.31	3057.62
312.52	2936.79
312.73	3055.57
312.95	3016.66
313.16	3094.48
313.37	3155.92
313.59	3268.56
313.80	3411.92
314.01	3588.04
314.23	3071.95
314.44	2967.51
314.65	2965.46
314.87	3043.28
315.08	2975.70
315.29	3074.00
315.51	3133.39
315.72	3002.32
315.93	2967.51
316.15	2985.94
316.36	3147.73
316.57	3317.71
316.79	2992.08
317.00	2944.98
317.21	3436.49
317.43	3147.73
317.64	2994.13
317.85	2883.54
318.07	3157.97
318.28	3127.25
318.49	3119.06
318.70	3250.13
318.92	3327.95
319.13	3342.28
319.34	3239.89
319.56	3074.00
319.77	3321.81
319.98	3409.87
320.20	3352.52
320.41	3225.55
320.62	3370.96
320.83	3024.85
321.05	3176.40
321.26	3102.67
321.47	3295.18
321.69	3547.08
321.90	2899.92
322.11	2951.12
322.32	3299.28
322.54	3647.43
322.75	3061.71
322.96	3966.92
323.18	2965.46
323.39	2922.45
323.60	2871.25
323.81	3110.86
324.03	3168.21
324.24	3262.41
324.45	3102.67
324.66	2936.79
324.88	3545.03
325.09	3553.23
325.30	2961.36
325.52	2881.49
325.73	3391.44
325.94	3114.96
326.15	2830.29
326.37	2813.91
326.58	3514.31
326.79	3692.49
327.00	2971.60
327.22	2963.41
327.43	3262.41
327.64	3028.95
327.85	3106.77
328.07	3057.62
328.28	3669.96
328.49	3248.08
328.70	2973.65
328.92	3006.42
329.13	3237.84
329.34	3377.10
329.55	3254.22
329.76	3172.30
329.98	3188.69
330.19	3487.69
330.40	3080.14
330.61	3110.86
330.83	3426.25
331.04	3112.91
331.25	3028.95
331.46	3084.24
331.68	3026.90
331.89	3510.22
332.10	2992.08
332.31	2844.63
332.52	3246.03
332.74	3532.75
332.95	2914.26
333.16	2971.60
333.37	3475.40
333.58	3145.68
333.80	3037.14
334.01	2836.44
334.22	3260.37
334.43	3139.54
334.64	2951.12
334.86	2959.31
335.07	3100.62
335.28	3641.29
335.49	2934.74
335.70	3135.44
335.92	3573.71
336.13	3794.89
336.34	3063.76
336.55	2940.88
336.76	3364.81
336.98	2805.72
337.19	3041.23
337.40	3125.20
337.61	3811.27
337.82	3229.65
338.04	3057.62
338.25	2795.48
338.46	3278.80
338.67	3268.56
338.88	2848.72
339.09	2887.64
339.31	3172.30
339.52	3045.33
339.73	2910.16
339.94	3026.90
340.15	3385.29
340.36	3137.49
340.58	3102.67
340.79	2889.68
341.00	3401.68
341.21	3010.51
341.42	3217.36
341.63	2996.18
341.85	3506.12
342.06	3282.89
342.27	2985.94
342.48	3141.58
342.69	2979.79
342.90	3282.89
343.12	3397.58
343.33	2947.03
343.54	3442.64
343.75	3557.32
343.96	3078.10
344.17	2938.84
344.38	3280.85
344.60	3114.96
344.81	2940.88
345.02	2944.98
345.23	3540.94
345.44	3833.80
345.65	3061.71
345.86	3006.42
346.07	3344.33
346.29	3166.16
346.50	3151.82
346.71	3086.29
346.92	3418.06
347.13	3731.40
347.34	3096.53
347.55	2865.11
347.76	3350.48
347.98	3035.09
348.19	3053.52
348.40	3194.83
348.61	3239.89
348.82	3723.21
349.03	3010.51
349.24	2965.46
349.45	3620.81
349.66	2930.64
349.88	3030.99
350.09	2938.84
350.30	3499.98
350.51	3596.23
350.72	3170.26
350.93	2928.60
351.14	3233.74
351.35	3403.72
351.56	3030.99
351.77	3080.14
351.99	3360.72
352.20	3532.75
352.41	3074.00
352.62	2770.90
352.83	3295.18
353.04	3229.65
353.25	2912.21
353.46	3094.48
353.67	3459.02
353.88	2953.17
354.09	2959.31
354.30	2981.84
354.52	3452.88
354.73	3215.31
354.94	2979.79
355.15	3088.34
355.36	3725.26
355.57	3168.21
355.78	2973.65
355.99	3010.51
356.20	3172.30
356.41	3534.79
356.62	3069.91
356.83	3037.14
357.04	3514.31
357.25	2944.98
357.46	3074.00
357.68	2877.40
357.89	3098.58
358.10	3266.51
358.31	3033.04
358.52	2998.23
358.73	3114.96
358.94	3117.01
359.15	2994.13
359.36	3051.47
359.57	3393.48
359.78	3205.07
359.99	3180.50
360.20	2871.25
360.41	3272.65
360.62	3391.44
360.83	3045.33
361.04	3045.33
361.25	3368.91
361.46	3592.14
361.67	3106.77
361.88	2983.89
362.09	3495.88
362.30	3250.13
362.51	2932.69
362.72	3065.81
362.93	3483.59
363.14	3366.86
363.35	3180.50
363.56	3002.32
363.78	3551.18
363.99	3561.42
364.20	2981.84
364.41	3012.56
364.62	3651.53
364.83	3291.09
365.04	2951.12
365.25	3117.01
365.46	3585.99
365.67	3039.19
365.88	3211.22
366.09	2990.03
366.30	3160.02
366.51	3295.18
366.72	2959.31
366.93	2992.08
367.14	3289.04
367.35	3471.31
367.56	2969.55
367.77	3139.54
367.98	3260.37
368.18	3342.28
368.39	3178.45
368.60	2904.02
368.81	3442.64
369.02	3286.99
369.23	3053.52
369.44	2869.20
369.65	3286.99
369.86	3311.57
370.07	3092.43
370.28	2951.12
370.49	3397.58
370.70	3350.48
370.91	2969.55
371.12	2879.44
371.33	3545.03
371.54	3227.60
371.75	3065.81
371.96	2766.81
372.17	3248.08
372.38	3264.46
372.59	3043.28
372.80	2987.99
373.01	3164.11
373.22	3379.15
373.43	2992.08
373.64	2920.40
373.85	3547.08
374.06	3602.38
374.26	3172.30
374.47	3174.35
374.68	3530.70
374.89	3323.85
375.10	2918.36
375.31	3020.75
375.52	3327.95
375.73	3291.09
375.94	2803.67
376.15	3145.68
376.36	3135.44
376.57	3198.93
376.78	2981.84
376.99	3057.62
377.20	3528.65
377.40	3215.31
377.61	3336.14
377.82	2926.55
378.03	3631.05
378.24	3370.96
378.45	3051.47
378.66	3100.62
378.87	2963.41
379.08	2996.18
379.29	3022.80
379.50	3168.21
379.71	3186.64
379.91	3409.87
380.12	3028.95
380.33	3098.58
380.54	3280.85
380.75	3280.85
380.96	2979.79
381.17	3033.04
381.38	3270.61
381.59	3170.26
381.80	3024.85
382.00	3223.50
382.21	3213.26
382.42	3598.28
382.63	3399.63
382.84	3168.21
383.05	3391.44
383.26	3565.51
383.47	3160.02
383.68	2985.94
383.88	3350.48
384.09	3321.81
384.30	3246.03
384.51	3092.43
384.72	3149.78
384.93	3049.43
385.14	3082.19
385.35	3237.84
385.55	2953.17
385.76	3608.52
385.97	2990.03
386.18	2969.55
386.39	3131.34
386.60	3200.98
386.81	2992.08
387.02	2944.98
387.22	3041.23
387.43	3401.68
387.64	3110.86
387.85	3307.47
388.06	3295.18
388.27	4349.89
388.48	7763.85
388.68	12015.43
388.89	15040.28
389.10	16606.98
389.31	16197.38
389.52	13076.28
389.73	11206.48
389.93	10536.80
390.14	9324.40
390.35	8540.03
390.56	7862.15
390.77	6600.60
390.98	4990.90
391.18	4233.15
391.39	3909.57
391.60	3381.20
391.81	3291.09
392.02	3145.68
392.23	3768.26
392.43	3299.28
392.64	3188.69
392.85	3205.07
393.06	3614.66
393.27	3227.60
393.47	3018.71
393.68	3131.34
393.89	3188.69
394.10	3557.32
394.31	2985.94
394.52	2973.65
394.72	3155.92
394.93	3549.13
395.14	2826.20
395.35	3119.06
395.56	3274.70
395.76	3235.79
395.97	3000.27
396.18	3153.87
396.39	3315.66
396.60	3897.28
396.80	3448.78
397.01	3336.14
397.22	3411.92
397.43	3491.79
397.64	3002.32
397.84	3190.74
398.05	3678.15
398.26	3237.84
398.47	3119.06
398.67	3278.80
398.88	3366.86
399.09	3452.88
399.30	3022.80
399.51	3119.06
399.71	3178.45
399.92	3262.41
400.13	3139.54
400.34	3067.86
400.54	3289.04
400.75	3559.37
400.96	3291.09
401.17	3360.72
401.37	3362.76
401.58	3295.18
401.79	2955.22
402.00	3139.54
402.21	3837.89
402.41	3534.79
402.62	3364.81
402.83	3512.27
403.04	3719.11
403.24	4130.75
403.45	3170.26
403.66	3373.00
403.87	3434.44
404.07	3637.19
404.28	3284.94
404.49	3393.48
404.70	3370.96
404.90	3401.68
405.11	3078.10
405.32	3172.30
405.52	3174.35
405.73	3110.86
405.94	2895.83
406.15	3002.32
406.35	3440.59
406.56	3420.11
406.77	3078.10
406.98	3037.14
407.18	3153.87
407.39	3684.30
407.60	3016.66
407.80	3065.81
408.01	3241.93
408.22	3377.10
408.43	2981.84
408.63	3153.87
408.84	3442.64
409.05	3430.35
409.25	2922.45
409.46	3084.24
409.67	3184.59
409.88	3119.06
410.08	3033.04
410.29	2967.51
410.50	3422.16
410.70	3440.59
410.91	2979.79
411.12	3043.28
411.32	3243.98
411.53	3139.54
411.74	3086.29
411.95	3174.35
412.15	3289.04
412.36	3461.07
412.57	3129.30
412.77	3264.46
412.98	3293.13
413.19	3241.93
413.39	3074.00
413.60	3106.77
413.81	3534.79
414.01	3129.30
414.22	3090.38
414.43	3225.55
414.63	3248.08
414.84	3545.03
415.05	3096.53
415.25	2820.05
415.46	3393.48
415.67	3143.63
415.87	3106.77
416.08	2992.08
416.29	3196.88
416.49	3434.44
416.70	3182.54
416.91	2998.23
417.11	3215.31
417.32	3475.40
417.53	3133.39
417.73	3114.96
417.94	3313.61
418.15	3313.61
418.35	3069.91
418.56	3160.02
418.77	3688.39
418.97	3286.99
419.18	3084.24
419.38	2713.56
419.59	3346.38
419.80	3549.13
420.00	3000.27
420.21	2992.08
420.42	3483.59
420.62	3270.61
420.83	3002.32
421.04	3010.51
421.24	3299.28
421.45	3411.92
421.65	3121.10
421.86	3121.10
422.07	3524.55
422.27	3413.96
422.48	3004.37
422.69	2920.40
422.89	3198.93
423.10	3203.02
423.30	2985.94
423.51	3084.24
423.72	3416.01
423.92	3407.82
424.13	2955.22
424.33	3168.21
424.54	3430.35
424.75	3237.84
424.95	3223.50
425.16	2996.18
425.36	3215.31
425.57	3479.50
425.78	3162.06
425.98	3239.89
426.19	3086.29
426.39	3141.58
426.60	3088.34
426.81	3145.68
427.01	3411.92
427.22	3127.25
427.42	2910.16
427.63	2994.13
427.83	3497.93
428.04	3631.05
428.25	3125.20
428.45	3188.69
428.66	3446.73
428.86	3297.23
429.07	3080.14
429.28	3033.04
429.48	3297.23
429.69	3129.30
429.89	3123.15
430.10	2947.03
430.30	3362.76
430.51	3518.41
430.71	2994.13
430.92	3125.20
431.13	3106.77
431.33	3426.25
431.54	3198.93
431.74	3280.85
431.95	3753.93
432.15	3049.43
432.36	3024.85
432.56	3028.95
432.77	3739.59
432.98	3704.78
433.18	3047.38
433.39	3000.27
433.59	3237.84
433.80	3676.10
434.00	3225.55
434.21	3117.01
434.41	3123.15
434.62	3747.78
434.82	2883.54
435.03	3012.56
435.23	3356.62
435.44	3000.27
435.64	3020.75
435.85	3114.96
436.06	3467.21
436.26	3434.44
436.47	3108.82
436.67	2990.03
436.88	3231.69
437.08	3475.40
437.29	3119.06
437.49	3215.31
437.70	3569.61
437.90	3297.23
438.11	3233.74
438.31	3149.78
438.52	3573.71
438.72	3456.97
438.93	3446.73
439.13	3162.06
439.34	3426.25
439.54	3166.16
439.75	3205.07
439.95	3147.73
440.16	3160.02
440.36	3327.95
440.57	3114.96
440.77	3026.90
440.98	3266.51
441.18	3422.16
441.39	2969.55
441.59	2934.74
441.80	3807.17
442.00	3373.00
442.21	3160.02
442.41	2856.92
442.62	3530.70
442.82	3114.96
443.02	3074.00
443.23	3141.58
443.43	3186.64
443.64	3559.37
443.84	2924.50
444.05	3147.73
444.25	3330.00
444.46	3071.95
444.66	3125.20
444.87	3313.61
445.07	2967.51
445.28	3231.69
445.48	3223.50
445.69	3135.44
445.89	3813.32
446.09	3241.93
446.30	3368.91
446.50	3477.45
446.71	5109.68
446.91	6410.14
447.12	7331.73
447.32	7751.56
447.53	7792.52
447.73	6399.90
447.93	5490.60
448.14	5214.13
448.34	5281.71
448.55	4536.25
448.75	4474.81
448.96	4190.14
449.16	4046.79
449.36	3971.01
449.57	3256.27
449.77	3082.19
449.98	3200.98
450.18	3418.06
450.39	3016.66
450.59	3239.89
450.79	3278.80
451.00	3196.88
451.20	3256.27
451.41	3084.24
451.61	3342.28
451.81	3295.18
452.02	3004.37
452.22	3049.43
452.43	3221.45
