SpectraSuite Data File
++++++++++++++++++++++++++++++++++++
Date: Fri May 06 08:13:58 CEST 2016
User: root
Dark Spectrum Present: No
Reference Spectrum Present: No
Number of Sampled Component Spectra: 1
Spectrometers: USB4C02835
Integration Time (usec): 100000 (USB4C02835)
Spectra Averaged: 1 (USB4C02835)
Boxcar Smoothing: 0 (USB4C02835)
Correct for Electrical Dark: No (USB4C02835)
Strobe/Lamp Enabled: No (USB4C02835)
Correct for Detector Non-linearity: No (USB4C02835)
Correct for Stray Light: No (USB4C02835)
Number of Pixels in Processed Spectrum: 3648
>>>>>Begin Processed Spectral Data<<<<<
177.47	2232.29
177.69	2232.29
177.91	2232.29
178.13	2289.63
178.36	2281.44
178.58	3016.66
178.80	3164.11
179.02	3055.57
179.24	2998.23
179.46	2746.33
179.68	2838.48
179.90	3153.87
180.13	3311.57
180.35	2641.88
180.57	2803.67
180.79	3413.96
181.01	3211.22
181.23	2910.16
181.45	3004.37
181.67	3391.44
181.90	3422.16
182.12	2906.07
182.34	2676.70
182.56	3426.25
182.78	3307.47
183.00	2844.63
183.22	2891.73
183.44	2842.58
183.66	3940.29
183.89	2987.99
184.11	2873.30
184.33	3430.35
184.55	3524.55
184.77	2836.44
184.99	2863.06
185.21	3213.26
185.43	3844.04
185.65	2901.97
185.87	2834.39
186.10	3700.68
186.32	3778.50
186.54	2914.26
186.76	2951.12
186.98	3512.27
187.20	3246.03
187.42	2959.31
187.64	2820.05
187.86	3418.06
188.08	3487.69
188.30	2729.94
188.52	2969.55
188.75	3536.84
188.97	3547.08
189.19	2889.68
189.41	2801.62
189.63	3389.39
189.85	3145.68
190.07	2793.43
190.29	2740.18
190.51	3416.01
190.73	3045.33
190.95	3026.90
191.17	2861.01
191.39	2971.60
191.61	3223.50
191.84	2863.06
192.06	3041.23
192.28	3041.23
192.50	3938.24
192.72	3030.99
192.94	2969.55
193.16	3461.07
193.38	3432.40
193.60	2801.62
193.82	3002.32
194.04	3526.60
194.26	3368.91
194.48	2910.16
194.70	2863.06
194.92	3262.41
195.14	3434.44
195.36	2803.67
195.58	2885.59
195.80	3254.22
196.02	3133.39
196.24	2828.24
196.46	2934.74
196.69	3225.55
196.91	3733.45
197.13	2856.92
197.35	2947.03
197.57	3659.72
197.79	3405.77
198.01	2899.92
198.23	2877.40
198.45	3405.77
198.67	3000.27
198.89	2715.61
199.11	3053.52
199.33	3207.12
199.55	2822.10
199.77	2848.72
199.99	3039.19
200.21	3209.17
200.43	3276.75
200.65	2693.08
200.87	2691.03
201.09	3219.41
201.31	3260.37
201.53	2877.40
201.75	2867.16
201.97	3373.00
202.19	3311.57
202.41	2893.78
202.63	3008.47
202.85	3307.47
203.07	3327.95
203.29	2957.27
203.51	2815.96
203.73	3188.69
203.95	3841.99
204.17	2879.44
204.39	2994.13
204.61	3313.61
204.83	3182.54
205.05	2928.60
205.27	2932.69
205.49	3676.10
205.71	3309.52
205.93	2674.65
206.15	2762.71
206.37	3368.91
206.59	3164.11
206.81	2729.94
207.03	2772.95
207.25	3170.26
207.47	3461.07
207.69	2838.48
207.91	3045.33
208.13	3674.06
208.34	3149.78
208.56	2799.57
208.78	2959.31
209.00	3254.22
209.22	3129.30
209.44	2858.96
209.66	2756.57
209.88	3373.00
210.10	3229.65
210.32	2815.96
210.54	2979.79
210.76	3125.20
210.98	3463.12
211.20	2660.31
211.42	3049.43
211.64	3532.75
211.86	3385.29
212.08	2889.68
212.30	2858.96
212.52	3258.32
212.74	3282.89
212.96	2951.12
213.17	3006.42
213.39	3499.98
213.61	3651.53
213.83	2840.53
214.05	2723.80
214.27	3465.16
214.49	3057.62
214.71	2879.44
214.93	3041.23
215.15	3235.79
215.37	3364.81
215.59	2725.85
215.81	2850.77
216.03	3594.19
216.24	3250.13
216.46	2772.95
216.68	2885.59
216.90	3454.92
217.12	3430.35
217.34	2830.29
217.56	3041.23
217.78	3594.19
218.00	3411.92
218.22	3045.33
218.44	3006.42
218.66	3391.44
218.87	3592.14
219.09	2844.63
219.31	2895.83
219.53	3407.82
219.75	3221.45
219.97	2932.69
220.19	2975.70
220.41	3291.09
220.63	3616.71
220.85	2873.30
221.06	2850.77
221.28	3504.07
221.50	3411.92
221.72	2906.07
221.94	2742.23
222.16	3260.37
222.38	3444.68
222.60	2840.53
222.82	2897.88
223.03	3461.07
223.25	3082.19
223.47	2783.19
223.69	3090.38
223.91	3440.59
224.13	3194.83
224.35	2750.42
224.57	3086.29
224.78	3442.64
225.00	3047.38
225.22	2975.70
225.44	2824.15
225.66	3442.64
225.88	3233.74
226.10	2961.36
226.32	2879.44
226.53	3629.00
226.75	3229.65
226.97	3016.66
227.19	2910.16
227.41	3258.32
227.63	3129.30
227.85	2662.36
228.06	2891.73
228.28	3358.67
228.50	3373.00
228.72	2723.80
228.94	2938.84
229.16	2901.97
229.37	3139.54
229.59	2824.15
229.81	3067.86
230.03	3166.16
230.25	3053.52
230.47	2748.37
230.69	2861.01
230.90	3362.76
231.12	3180.50
231.34	2977.75
231.56	2942.93
231.78	3114.96
232.00	3282.89
232.21	2846.68
232.43	2971.60
232.65	2820.05
232.87	3377.10
233.09	2699.22
233.30	2811.86
233.52	3528.65
233.74	3354.57
233.96	2801.62
234.18	3088.34
234.40	3289.04
234.61	3856.33
234.83	2688.98
235.05	2858.96
235.27	3932.10
235.49	3512.27
235.70	2754.52
235.92	2916.31
236.14	3487.69
236.36	3780.55
236.58	2680.79
236.79	2904.02
237.01	3286.99
237.23	3211.22
237.45	3108.82
237.67	2928.60
237.88	3340.24
238.10	3604.42
238.32	2740.18
238.54	2877.40
238.76	3295.18
238.97	3043.28
239.19	2791.38
239.41	2932.69
239.63	3532.75
239.85	3162.06
240.06	2877.40
240.28	2803.67
240.50	3487.69
240.72	3303.37
240.93	2770.90
241.15	2951.12
241.37	3276.75
241.59	3516.36
241.81	2928.60
242.02	2924.50
242.24	3289.04
242.46	3422.16
242.68	2629.59
242.89	2811.86
243.11	3471.31
243.33	3262.41
243.55	2877.40
243.76	2820.05
243.98	3117.01
244.20	3266.51
244.42	2842.58
244.64	2836.44
244.85	3033.04
245.07	3102.67
245.29	2906.07
245.51	2920.40
245.72	3366.86
245.94	3463.12
246.16	2789.33
246.38	2877.40
246.59	3151.82
246.81	3155.92
247.03	2783.19
247.24	2752.47
247.46	3190.74
247.68	3307.47
247.90	2770.90
248.11	2867.16
248.33	3411.92
248.55	3358.67
248.77	2977.75
248.98	2955.22
249.20	3622.86
249.42	3256.27
249.64	2836.44
249.85	2852.82
250.07	3295.18
250.29	3477.45
250.50	2904.02
250.72	2709.46
250.94	3330.00
251.16	3749.83
251.37	2791.38
251.59	2940.88
251.81	3381.20
252.02	3624.90
252.24	2742.23
252.46	2996.18
252.68	3217.36
252.89	3141.58
253.11	2752.47
253.33	3010.51
253.54	3559.37
253.76	3067.86
253.98	2830.29
254.20	2852.82
254.41	3053.52
254.63	3266.51
254.85	2772.95
255.06	3004.37
255.28	3385.29
255.50	3182.54
255.71	2783.19
255.93	2752.47
256.15	3278.80
256.36	3452.88
256.58	2705.37
256.80	2797.53
257.02	3229.65
257.23	3168.21
257.45	2951.12
257.67	3024.85
257.88	3192.78
258.10	3368.91
258.32	2914.26
258.53	2906.07
258.75	3698.63
258.97	3139.54
259.18	2770.90
259.40	2818.00
259.62	3635.14
259.83	3649.48
260.05	2865.11
260.27	3905.48
260.48	3508.17
260.70	3160.02
260.92	2785.24
261.13	2889.68
261.35	3325.90
261.57	3475.40
261.78	2750.42
262.00	2824.15
262.22	3403.72
262.43	3129.30
262.65	2910.16
262.86	2904.02
263.08	3819.46
263.30	3307.47
263.51	2693.08
263.73	2848.72
263.95	3669.96
264.16	3076.05
264.38	2740.18
264.60	2832.34
264.81	3174.35
265.03	3452.88
265.25	3411.92
265.46	2820.05
265.68	3512.27
265.89	3469.26
266.11	2820.05
266.33	2813.91
266.54	3518.41
266.76	3467.21
266.98	2867.16
267.19	3074.00
267.41	3495.88
267.62	3254.22
267.84	2676.70
268.06	2981.84
268.27	3284.94
268.49	3516.36
268.70	2873.30
268.92	2906.07
269.14	3106.77
269.35	3033.04
269.57	3002.32
269.79	2963.41
270.00	3112.91
270.22	3643.34
270.43	2686.94
270.65	2731.99
270.87	3403.72
271.08	3395.53
271.30	2922.45
271.51	2910.16
271.73	3436.49
271.95	3536.84
272.16	2824.15
272.38	2998.23
272.59	3223.50
272.81	3416.01
273.02	2758.61
273.24	2895.83
273.46	3471.31
273.67	3014.61
273.89	2754.52
274.10	2750.42
274.32	3553.23
274.54	3395.53
274.75	2955.22
274.97	2983.89
275.18	3356.62
275.40	3411.92
275.61	2893.78
275.83	3059.67
276.05	3090.38
276.26	3174.35
276.48	2877.40
276.69	3078.10
276.91	3076.05
277.12	3495.88
277.34	3037.14
277.55	3078.10
277.77	3319.76
277.99	3172.30
278.20	3094.48
278.42	2883.54
278.63	3137.49
278.85	3117.01
279.06	2920.40
279.28	3065.81
279.49	3508.17
279.71	3477.45
279.93	3065.81
280.14	3035.09
280.36	3069.91
280.57	3510.22
280.79	3065.81
281.00	2871.25
281.22	3094.48
281.43	3452.88
281.65	2756.57
281.86	2854.87
282.08	3360.72
282.29	3649.48
282.51	2928.60
282.73	2910.16
282.94	3020.75
283.16	3434.44
283.37	3133.39
283.59	3088.34
283.80	3311.57
284.02	3246.03
284.23	3084.24
284.45	3002.32
284.66	3061.71
284.88	3119.06
285.09	2893.78
285.31	3012.56
285.52	3373.00
285.74	3041.23
285.95	3215.31
286.17	3055.57
286.38	3540.94
286.60	3217.36
286.81	2908.12
287.03	3004.37
287.24	3262.41
287.46	3518.41
287.67	3168.21
287.89	3246.03
288.10	3229.65
288.32	3262.41
288.53	3119.06
288.75	3018.71
288.96	3368.91
289.18	3203.02
289.39	2869.20
289.61	3016.66
289.82	3663.82
290.04	3600.33
290.25	2885.59
290.47	3123.15
290.68	3239.89
290.90	3411.92
291.11	2775.00
291.33	3106.77
291.54	3123.15
291.76	3186.64
291.97	3092.43
292.18	3114.96
292.40	3213.26
292.61	3166.16
292.83	3299.28
293.04	3049.43
293.26	3272.65
293.47	3311.57
293.69	2949.08
293.90	2883.54
294.12	3555.27
294.33	3362.76
294.55	2996.18
294.76	3143.63
294.97	3614.66
295.19	3698.63
295.40	3045.33
295.62	3082.19
295.83	3434.44
296.05	3041.23
296.26	3252.17
296.48	2979.79
296.69	3278.80
296.90	3278.80
297.12	3102.67
297.33	3110.86
297.55	3303.37
297.76	3434.44
297.98	3071.95
298.19	3198.93
298.41	3243.98
298.62	3047.38
298.83	3104.72
299.05	3100.62
299.26	3145.68
299.48	3176.40
299.69	3110.86
299.90	3024.85
300.12	3137.49
300.33	3450.83
300.55	3059.67
300.76	3047.38
300.98	3117.01
301.19	3356.62
301.40	3035.09
301.62	2992.08
301.83	3381.20
302.05	3330.00
302.26	2957.27
302.47	3082.19
302.69	3008.47
302.90	3284.94
303.12	2867.16
303.33	3086.29
303.54	3649.48
303.76	3172.30
303.97	2955.22
304.19	3164.11
304.40	3086.29
304.61	3354.57
304.83	3106.77
305.04	3059.67
305.26	3411.92
305.47	3147.73
305.68	3067.86
305.90	2838.48
306.11	3534.79
306.33	3301.33
306.54	2873.30
306.75	2924.50
306.97	3037.14
307.18	3157.97
307.39	2987.99
307.61	2987.99
307.82	3284.94
308.04	3319.76
308.25	2893.78
308.46	3135.44
308.68	3250.13
308.89	3286.99
309.10	3106.77
309.32	3074.00
309.53	3221.45
309.74	3403.72
309.96	2944.98
310.17	3092.43
310.39	3160.02
310.60	3383.24
310.81	3186.64
311.03	2949.08
311.24	3442.64
311.45	3346.38
311.67	3256.27
311.88	3114.96
312.09	3176.40
312.31	3168.21
312.52	2920.40
312.73	2942.93
312.95	3000.27
313.16	3117.01
313.37	3182.54
313.59	3188.69
313.80	3481.55
314.01	3499.98
314.23	3037.14
314.44	2899.92
314.65	3049.43
314.87	3155.92
315.08	2953.17
315.29	2971.60
315.51	3131.34
315.72	3090.38
315.93	3049.43
316.15	3004.37
316.36	3241.93
316.57	3377.10
316.79	2977.75
317.00	2885.59
317.21	3446.73
317.43	3098.58
317.64	2975.70
317.85	2877.40
318.07	3049.43
318.28	3203.02
318.49	3067.86
318.70	3188.69
318.92	3319.76
319.13	3344.33
319.34	3221.45
319.56	2992.08
319.77	3407.82
319.98	3442.64
320.20	3243.98
320.41	3121.10
320.62	3409.87
320.83	3049.43
321.05	3239.89
321.26	2977.75
321.47	3325.90
321.69	3502.03
321.90	2897.88
322.11	2994.13
322.32	3289.04
322.54	3524.55
322.75	3033.04
322.96	4040.64
323.18	3020.75
323.39	2889.68
323.60	2942.93
323.81	3071.95
324.03	3137.49
324.24	3258.32
324.45	3110.86
324.66	2885.59
324.88	3469.26
325.09	3581.90
325.30	3000.27
325.52	2930.64
325.73	3362.76
325.94	3114.96
326.15	2908.12
326.37	2936.79
326.58	3430.35
326.79	3641.29
327.00	2893.78
327.22	2932.69
327.43	3194.83
327.64	3065.81
327.85	3090.38
328.07	2951.12
328.28	3651.53
328.49	3123.15
328.70	3055.57
328.92	3000.27
329.13	3200.98
329.34	3401.68
329.55	3286.99
329.76	3092.43
329.98	3133.39
330.19	3502.03
330.40	3061.71
330.61	3155.92
330.83	3444.68
331.04	3047.38
331.25	3065.81
331.46	3131.34
331.68	2992.08
331.89	3387.34
332.10	3039.19
332.31	2879.44
332.52	3311.57
332.74	3487.69
332.95	2834.39
333.16	2971.60
333.37	3403.72
333.58	3196.88
333.80	2961.36
334.01	2854.87
334.22	3297.23
334.43	3198.93
334.64	2854.87
334.86	2965.46
335.07	3022.80
335.28	3604.42
335.49	2897.88
335.70	3057.62
335.92	3518.41
336.13	3641.29
336.34	3041.23
336.55	2977.75
336.76	3364.81
336.98	2869.20
337.19	3008.47
337.40	3057.62
337.61	3825.61
337.82	3215.31
338.04	3123.15
338.25	2865.11
338.46	3250.13
338.67	3252.17
338.88	2875.35
339.09	2947.03
339.31	3198.93
339.52	3035.09
339.73	2897.88
339.94	3039.19
340.15	3465.16
340.36	3180.50
340.58	3102.67
340.79	2979.79
341.00	3461.07
341.21	3098.58
341.42	3268.56
341.63	3069.91
341.85	3479.50
342.06	3342.28
342.27	2930.64
342.48	3127.25
342.69	3059.67
342.90	3293.13
343.12	3504.07
343.33	2916.31
343.54	3432.40
343.75	3571.66
343.96	3151.82
344.17	2887.64
344.38	3194.83
344.60	3084.24
344.81	2928.60
345.02	3008.47
345.23	3506.12
345.44	3878.85
345.65	3088.34
345.86	3094.48
346.07	3188.69
346.29	3166.16
346.50	3178.45
346.71	3119.06
346.92	3524.55
347.13	3665.86
347.34	3137.49
347.55	2912.21
347.76	3385.29
347.98	2996.18
348.19	3069.91
348.40	3190.74
348.61	3151.82
348.82	3565.51
349.03	3090.38
349.24	2916.31
349.45	3706.82
349.66	2883.54
349.88	2877.40
350.09	2912.21
350.30	3653.58
350.51	3526.60
350.72	3278.80
350.93	3049.43
351.14	3215.31
351.35	3432.40
351.56	3102.67
351.77	3104.72
351.99	3368.91
352.20	3573.71
352.41	3155.92
352.62	2828.24
352.83	3176.40
353.04	3293.13
353.25	3014.61
353.46	3069.91
353.67	3545.03
353.88	2867.16
354.09	2854.87
354.30	3020.75
354.52	3352.52
354.73	3198.93
354.94	2936.79
355.15	3057.62
355.36	3649.48
355.57	3145.68
355.78	2904.02
355.99	2973.65
356.20	3291.09
356.41	3518.41
356.62	3100.62
356.83	3018.71
357.04	3518.41
357.25	2971.60
357.46	2973.65
357.68	2836.44
357.89	3098.58
358.10	3319.76
358.31	3002.32
358.52	3057.62
358.73	2998.23
358.94	3026.90
359.15	3061.71
359.36	2998.23
359.57	3295.18
359.78	3258.32
359.99	3184.59
360.20	2940.88
360.41	3239.89
360.62	3387.34
360.83	3074.00
361.04	2996.18
361.25	3311.57
361.46	3606.47
361.67	3131.34
361.88	3033.04
362.09	3475.40
362.30	3459.02
362.51	2916.31
362.72	3024.85
362.93	3418.06
363.14	3393.48
363.35	3139.54
363.56	2940.88
363.78	3575.75
363.99	3467.21
364.20	3026.90
364.41	3053.52
364.62	3737.54
364.83	3307.47
365.04	3000.27
365.25	3084.24
365.46	3770.31
365.67	3143.63
365.88	3170.26
366.09	3059.67
366.30	3176.40
366.51	3319.76
366.72	2975.70
366.93	2944.98
367.14	3307.47
367.35	3493.83
367.56	2914.26
367.77	3180.50
367.98	3280.85
368.18	3375.05
368.39	3176.40
368.60	2944.98
368.81	3471.31
369.02	3354.57
369.23	3033.04
369.44	2906.07
369.65	3207.12
369.86	3360.72
370.07	3112.91
370.28	2897.88
370.49	3336.14
370.70	3327.95
370.91	2914.26
371.12	2871.25
371.33	3473.36
371.54	3221.45
371.75	3092.43
371.96	2725.85
372.17	3291.09
372.38	3223.50
372.59	3008.47
372.80	2961.36
373.01	3209.17
373.22	3377.10
373.43	2994.13
373.64	2893.78
373.85	3518.41
374.06	3614.66
374.26	3137.49
374.47	3125.20
374.68	3629.00
374.89	3309.52
375.10	2920.40
375.31	3090.38
375.52	3344.33
375.73	3254.22
375.94	2883.54
376.15	3033.04
376.36	3078.10
376.57	3209.17
376.78	3002.32
376.99	3047.38
377.20	3557.32
377.40	3200.98
377.61	3332.05
377.82	2938.84
378.03	3647.43
378.24	3387.34
378.45	3061.71
378.66	3033.04
378.87	3020.75
379.08	2987.99
379.29	2985.94
379.50	3110.86
379.71	3246.03
379.91	3364.81
380.12	2955.22
380.33	3135.44
380.54	3278.80
380.75	3344.33
380.96	2924.50
381.17	3010.51
381.38	3243.98
381.59	3313.61
381.80	3166.16
382.00	3190.74
382.21	3297.23
382.42	3610.57
382.63	3456.97
382.84	3071.95
383.05	3483.59
383.26	3624.90
383.47	3057.62
383.68	2983.89
383.88	3399.63
384.09	3319.76
384.30	3215.31
384.51	3049.43
384.72	3205.07
384.93	2992.08
385.14	3104.72
385.35	3274.70
385.55	3043.28
385.76	3555.27
385.97	3030.99
386.18	2742.23
386.39	3166.16
386.60	3166.16
386.81	3010.51
387.02	2959.31
387.22	2979.79
387.43	3420.11
387.64	3090.38
387.85	3203.02
388.06	3319.76
388.27	4429.76
388.48	7806.86
388.68	11765.58
388.89	15200.02
389.10	16523.01
389.31	15992.59
389.52	13057.85
389.73	11106.13
389.93	10391.39
390.14	9455.47
390.35	8515.45
390.56	7849.86
390.77	6621.08
390.98	5027.76
391.18	4196.29
391.39	3895.24
391.60	3368.91
391.81	3311.57
392.02	3063.76
392.23	3696.58
392.43	3336.14
392.64	3147.73
392.85	3123.15
393.06	3610.57
393.27	3209.17
393.47	2994.13
393.68	3074.00
393.89	3221.45
394.10	3536.84
394.31	2994.13
394.52	3002.32
394.72	3166.16
394.93	3571.66
395.14	2971.60
395.35	3092.43
395.56	3141.58
395.76	3286.99
395.97	3024.85
396.18	3063.76
396.39	3272.65
396.60	3930.05
396.80	3418.06
397.01	3223.50
397.22	3413.96
397.43	3442.64
397.64	3039.19
397.84	3123.15
398.05	3725.26
398.26	3272.65
398.47	3141.58
398.67	3330.00
398.88	3274.70
399.09	3467.21
399.30	3018.71
399.51	3119.06
399.71	3127.25
399.92	3243.98
400.13	3108.82
400.34	2996.18
400.54	3256.27
400.75	3545.03
400.96	3233.74
401.17	3393.48
401.37	3387.34
401.58	3162.06
401.79	3018.71
402.00	3164.11
402.21	3778.50
402.41	3456.97
402.62	3272.65
402.83	3477.45
403.04	3774.41
403.24	4073.41
403.45	3131.34
403.66	3332.05
403.87	3487.69
404.07	3647.43
404.28	3325.90
404.49	3358.67
404.70	3444.68
404.90	3442.64
405.11	3037.14
405.32	3160.02
405.52	3172.30
405.73	3229.65
405.94	2979.79
406.15	3104.72
406.35	3407.82
406.56	3461.07
406.77	3053.52
406.98	3028.95
407.18	3100.62
407.39	3647.43
407.60	3053.52
407.80	3074.00
408.01	3284.94
408.22	3413.96
408.43	2981.84
408.63	3139.54
408.84	3461.07
409.05	3485.64
409.25	3000.27
409.46	3059.67
409.67	3172.30
409.88	3192.78
410.08	3114.96
410.29	3067.86
410.50	3450.83
410.70	3323.85
410.91	3053.52
411.12	3117.01
411.32	3352.52
411.53	3084.24
411.74	3082.19
411.95	3131.34
412.15	3321.81
412.36	3391.44
412.57	3258.32
412.77	3180.50
412.98	3254.22
413.19	3067.86
413.39	3133.39
413.60	3082.19
413.81	3585.99
414.01	3033.04
414.22	3121.10
414.43	3254.22
414.63	3319.76
414.84	3479.50
415.05	3030.99
415.25	2889.68
415.46	3475.40
415.67	3221.45
415.87	3049.43
416.08	3067.86
416.29	3194.83
416.49	3446.73
416.70	3139.54
416.91	3047.38
417.11	3334.09
417.32	3475.40
417.53	3147.73
417.73	3114.96
417.94	3299.28
418.15	3286.99
418.35	3160.02
418.56	3086.29
418.77	3786.69
418.97	3315.66
419.18	3178.45
419.38	2744.28
419.59	3280.85
419.80	3565.51
420.00	2955.22
420.21	3045.33
420.42	3524.55
420.62	3348.43
420.83	3000.27
421.04	3082.19
421.24	3368.91
421.45	3401.68
421.65	3020.75
421.86	3057.62
422.07	3469.26
422.27	3418.06
422.48	2965.46
422.69	2856.92
422.89	3264.46
423.10	3180.50
423.30	3033.04
423.51	3114.96
423.72	3356.62
423.92	3399.63
424.13	2887.64
424.33	3065.81
424.54	3377.10
424.75	3237.84
424.95	3266.51
425.16	3008.47
425.36	3237.84
425.57	3448.78
425.78	3155.92
425.98	3139.54
426.19	3278.80
426.39	3176.40
426.60	3157.97
426.81	3180.50
427.01	3432.40
427.22	3098.58
427.42	2852.82
427.63	2961.36
427.83	3485.64
428.04	3553.23
428.25	3133.39
428.45	3141.58
428.66	3545.03
428.86	3223.50
429.07	3051.47
429.28	3094.48
429.48	3246.03
429.69	3153.87
429.89	3170.26
430.10	2979.79
430.30	3461.07
430.51	3493.83
430.71	2971.60
430.92	3143.63
431.13	3180.50
431.33	3362.76
431.54	3133.39
431.74	3235.79
431.95	3667.91
432.15	3026.90
432.36	3074.00
432.56	3098.58
432.77	3688.39
432.98	3633.10
433.18	3110.86
433.39	2951.12
433.59	3270.61
433.80	3770.31
434.00	3225.55
434.21	3106.77
434.41	3043.28
434.62	3784.65
434.82	2928.60
435.03	2983.89
435.23	3403.72
435.44	2912.21
435.64	3018.71
435.85	3098.58
436.06	3516.36
436.26	3497.93
436.47	3092.43
436.67	3033.04
436.88	3237.84
437.08	3379.15
437.29	3200.98
437.49	3155.92
437.70	3571.66
437.90	3205.07
438.11	3293.13
438.31	3194.83
438.52	3551.18
438.72	3520.46
438.93	3428.30
439.13	3133.39
439.34	3592.14
439.54	3196.88
439.75	3200.98
439.95	3137.49
440.16	3162.06
440.36	3340.24
440.57	3129.30
440.77	3112.91
440.98	3291.09
441.18	3330.00
441.39	2983.89
441.59	2899.92
441.80	3712.97
442.00	3276.75
442.21	3190.74
442.41	2910.16
442.62	3483.59
442.82	3043.28
443.02	3059.67
443.23	3053.52
443.43	3291.09
443.64	3518.41
443.84	2953.17
444.05	3084.24
444.25	3303.37
444.46	3209.17
444.66	3022.80
444.87	3260.37
445.07	2975.70
445.28	3211.22
445.48	3313.61
445.69	3108.82
445.89	3856.33
446.09	3348.43
446.30	3305.42
446.50	3499.98
446.71	5115.83
446.91	6305.70
447.12	7059.35
447.32	7628.68
447.53	7581.58
447.73	6250.40
447.93	5543.85
448.14	5332.91
448.34	5453.74
448.55	4503.48
448.75	4386.75
448.96	4298.69
449.16	4059.07
449.36	4001.73
449.57	3391.44
449.77	3196.88
449.98	3213.26
450.18	3348.43
450.39	3041.23
450.59	3387.34
450.79	3196.88
451.00	3121.10
451.20	3246.03
451.41	3045.33
451.61	3360.72
451.81	3178.45
452.02	3033.04
452.22	3045.33
452.43	3168.21
