SpectraSuite Data File
++++++++++++++++++++++++++++++++++++
Date: Fri May 06 08:14:36 CEST 2016
User: root
Dark Spectrum Present: No
Reference Spectrum Present: No
Number of Sampled Component Spectra: 1
Spectrometers: USB4C02835
Integration Time (usec): 100000 (USB4C02835)
Spectra Averaged: 1 (USB4C02835)
Boxcar Smoothing: 0 (USB4C02835)
Correct for Electrical Dark: No (USB4C02835)
Strobe/Lamp Enabled: No (USB4C02835)
Correct for Detector Non-linearity: No (USB4C02835)
Correct for Stray Light: No (USB4C02835)
Number of Pixels in Processed Spectrum: 3648
>>>>>Begin Processed Spectral Data<<<<<
177.47	2281.44
177.69	2281.44
177.91	2281.44
178.13	2195.42
178.36	2306.01
178.58	3008.47
178.80	3180.50
179.02	2994.13
179.24	3049.43
179.46	2789.33
179.68	2832.34
179.90	3297.23
180.13	3284.94
180.35	2625.50
180.57	2881.49
180.79	3459.02
181.01	3321.81
181.23	2820.05
181.45	3035.09
181.67	3422.16
181.90	3389.39
182.12	2936.79
182.34	2648.02
182.56	3440.59
182.78	3362.76
183.00	2828.24
183.22	2918.36
183.44	2869.20
183.66	3844.04
183.89	2942.93
184.11	2822.10
184.33	3405.77
184.55	3551.18
184.77	2852.82
184.99	2824.15
185.21	3213.26
185.43	3792.84
185.65	2901.97
185.87	2881.49
186.10	3751.88
186.32	3794.89
186.54	3008.47
186.76	3016.66
186.98	3438.54
187.20	3196.88
187.42	2848.72
187.64	2828.24
187.86	3450.83
188.08	3471.31
188.30	2779.09
188.52	2887.64
188.75	3536.84
188.97	3549.13
189.19	2842.58
189.41	2867.16
189.63	3420.11
189.85	3250.13
190.07	2742.23
190.29	2699.22
190.51	3383.24
190.73	3024.85
190.95	3104.72
191.17	2975.70
191.39	3016.66
191.61	3223.50
191.84	2828.24
192.06	3028.95
192.28	3000.27
192.50	3925.96
192.72	3016.66
192.94	2940.88
193.16	3493.83
193.38	3389.39
193.60	2756.57
193.82	3008.47
194.04	3428.30
194.26	3395.53
194.48	2869.20
194.70	2822.10
194.92	3121.10
195.14	3325.90
195.36	2807.77
195.58	2885.59
195.80	3174.35
196.02	3147.73
196.24	2791.38
196.46	3010.51
196.69	3174.35
196.91	3784.65
197.13	2881.49
197.35	2947.03
197.57	3553.23
197.79	3387.34
198.01	2930.64
198.23	2932.69
198.45	3409.87
198.67	3100.62
198.89	2699.22
199.11	2990.03
199.33	3192.78
199.55	2820.05
199.77	2844.63
199.99	3020.75
200.21	3225.55
200.43	3391.44
200.65	2731.99
200.87	2678.74
201.09	3321.81
201.31	3270.61
201.53	2858.96
201.75	2916.31
201.97	3256.27
202.19	3198.93
202.41	3006.42
202.63	3004.37
202.85	3426.25
203.07	3413.96
203.29	2938.84
203.51	2781.14
203.73	3086.29
203.95	3758.02
204.17	2885.59
204.39	2992.08
204.61	3297.23
204.83	3190.74
205.05	2992.08
205.27	2865.11
205.49	3747.78
205.71	3264.46
205.93	2770.90
206.15	2758.61
206.37	3239.89
206.59	3231.69
206.81	2729.94
207.03	2738.13
207.25	3071.95
207.47	3418.06
207.69	2869.20
207.91	3006.42
208.13	3635.14
208.34	3117.01
208.56	2791.38
208.78	2914.26
209.00	3278.80
209.22	3278.80
209.44	2897.88
209.66	2815.96
209.88	3284.94
210.10	3162.06
210.32	2904.02
210.54	2942.93
210.76	3293.13
210.98	3520.46
211.20	2707.41
211.42	2916.31
211.64	3569.61
211.86	3340.24
212.08	2975.70
212.30	2865.11
212.52	3186.64
212.74	3422.16
212.96	3016.66
213.17	2901.97
213.39	3418.06
213.61	3534.79
213.83	2914.26
214.05	2826.20
214.27	3571.66
214.49	3096.53
214.71	2805.72
214.93	2889.68
215.15	3291.09
215.37	3502.03
215.59	2764.76
215.81	2953.17
216.03	3577.80
216.24	3280.85
216.46	2807.77
216.68	2858.96
216.90	3475.40
217.12	3499.98
217.34	2832.34
217.56	3006.42
217.78	3594.19
218.00	3389.39
218.22	2959.31
218.44	2963.41
218.66	3354.57
218.87	3706.82
219.09	2893.78
219.31	2854.87
219.53	3373.00
219.75	3164.11
219.97	2856.92
220.19	2848.72
220.41	3223.50
220.63	3622.86
220.85	2844.63
221.06	2957.27
221.28	3561.42
221.50	3385.29
221.72	2760.66
221.94	2723.80
222.16	3340.24
222.38	3336.14
222.60	2856.92
222.82	2918.36
223.03	3395.53
223.25	3035.09
223.47	2832.34
223.69	3123.15
223.91	3456.97
224.13	3217.36
224.35	2772.95
224.57	3084.24
224.78	3395.53
225.00	3147.73
225.22	3026.90
225.44	2807.77
225.66	3385.29
225.88	3209.17
226.10	3008.47
226.32	2875.35
226.53	3553.23
226.75	3141.58
226.97	2899.92
227.19	2840.53
227.41	3094.48
227.63	3155.92
227.85	2693.08
228.06	2987.99
228.28	3338.19
228.50	3510.22
228.72	2703.32
228.94	2830.29
229.16	2818.00
229.37	2957.27
229.59	2738.13
229.81	3153.87
230.03	3114.96
230.25	3035.09
230.47	2707.41
230.69	2791.38
230.90	3401.68
231.12	3084.24
231.34	2949.08
231.56	2957.27
231.78	3039.19
232.00	3303.37
232.21	2877.40
232.43	2881.49
232.65	2861.01
232.87	3334.09
233.09	2754.52
233.30	2795.48
233.52	3446.73
233.74	3176.40
233.96	2781.14
234.18	3041.23
234.40	3166.16
234.61	3737.54
234.83	2721.75
235.05	2815.96
235.27	3753.93
235.49	3467.21
235.70	2729.94
235.92	2924.50
236.14	3389.39
236.36	3768.26
236.58	2756.57
236.79	2977.75
237.01	3377.10
237.23	3246.03
237.45	3090.38
237.67	2844.63
237.88	3360.72
238.10	3610.57
238.32	2742.23
238.54	2754.52
238.76	3200.98
238.97	2965.46
239.19	2666.46
239.41	2901.97
239.63	3463.12
239.85	3147.73
240.06	2973.65
240.28	2822.10
240.50	3448.78
240.72	3289.04
240.93	2834.39
241.15	2998.23
241.37	3268.56
241.59	3598.28
241.81	2863.06
242.02	2951.12
242.24	3336.14
242.46	3364.81
242.68	2693.08
242.89	2797.53
243.11	3440.59
243.33	3303.37
243.55	2918.36
243.76	2879.44
243.98	3176.40
244.20	3311.57
244.42	2879.44
244.64	2830.29
244.85	2971.60
245.07	3096.53
245.29	2885.59
245.51	2856.92
245.72	3336.14
245.94	3504.07
246.16	2811.86
246.38	2901.97
246.59	3190.74
246.81	3135.44
247.03	2818.00
247.24	2731.99
247.46	3192.78
247.68	3393.48
247.90	2803.67
248.11	2912.21
248.33	3432.40
248.55	3307.47
248.77	2940.88
248.98	2985.94
249.20	3606.47
249.42	3321.81
249.64	2861.01
249.85	2932.69
250.07	3239.89
250.29	3426.25
250.50	2983.89
250.72	2805.72
250.94	3395.53
251.16	3731.40
251.37	2832.34
251.59	2973.65
251.81	3409.87
252.02	3563.47
252.24	2791.38
252.46	3000.27
252.68	3151.82
252.89	3198.93
253.11	2742.23
253.33	2981.84
253.54	3547.08
253.76	2992.08
253.98	2818.00
254.20	2789.33
254.41	3053.52
254.63	3217.36
254.85	2717.65
255.06	2961.36
255.28	3391.44
255.50	3131.34
255.71	2826.20
255.93	2668.50
256.15	3196.88
256.36	3452.88
256.58	2668.50
256.80	2731.99
257.02	3274.70
257.23	3246.03
257.45	2930.64
257.67	3024.85
257.88	3166.16
258.10	3352.52
258.32	2820.05
258.53	2969.55
258.75	3633.10
258.97	3174.35
259.18	2789.33
259.40	2854.87
259.62	3633.10
259.83	3612.62
260.05	2885.59
260.27	3774.41
260.48	3377.10
260.70	3041.23
260.92	2746.33
261.13	2836.44
261.35	3311.57
261.57	3325.90
261.78	2762.71
262.00	2820.05
262.22	3385.29
262.43	3125.20
262.65	2865.11
262.86	2877.40
263.08	3809.22
263.30	3309.52
263.51	2672.60
263.73	2785.24
263.95	3649.48
264.16	3092.43
264.38	2674.65
264.60	2799.57
264.81	3217.36
265.03	3469.26
265.25	3330.00
265.46	2758.61
265.68	3510.22
265.89	3428.30
266.11	2631.64
266.33	2889.68
266.54	3516.36
266.76	3385.29
266.98	2961.36
267.19	2992.08
267.41	3461.07
267.62	3272.65
267.84	2707.41
268.06	3076.05
268.27	3336.14
268.49	3456.97
268.70	3051.47
268.92	2910.16
269.14	3155.92
269.35	2981.84
269.57	3053.52
269.79	2947.03
270.00	3176.40
270.22	3692.49
270.43	2746.33
270.65	2709.46
270.87	3274.70
271.08	3334.09
271.30	2963.41
271.51	2887.64
271.73	3407.82
271.95	3471.31
272.16	2789.33
272.38	2987.99
272.59	3119.06
272.81	3448.78
273.02	2783.19
273.24	2987.99
273.46	3571.66
273.67	3002.32
273.89	2764.76
274.10	2813.91
274.32	3524.55
274.54	3358.67
274.75	2908.12
274.97	2934.74
275.18	3407.82
275.40	3442.64
275.61	2883.54
275.83	3045.33
276.05	3088.34
276.26	3284.94
276.48	2938.84
276.69	3053.52
276.91	3233.74
277.12	3606.47
277.34	3102.67
277.55	3125.20
277.77	3246.03
277.99	3147.73
278.20	3022.80
278.42	2904.02
278.63	3102.67
278.85	3071.95
279.06	3024.85
279.28	3065.81
279.49	3471.31
279.71	3469.26
279.93	2979.79
280.14	3084.24
280.36	3160.02
280.57	3401.68
280.79	3162.06
281.00	2918.36
281.22	3104.72
281.43	3469.26
281.65	2721.75
281.86	2928.60
282.08	3375.05
282.29	3725.26
282.51	2893.78
282.73	2863.06
282.94	3000.27
283.16	3397.58
283.37	3092.43
283.59	3008.47
283.80	3366.86
284.02	3268.56
284.23	2963.41
284.45	3074.00
284.66	3067.86
284.88	3141.58
285.09	2861.01
285.31	3145.68
285.52	3383.24
285.74	2959.31
285.95	3108.82
286.17	3043.28
286.38	3524.55
286.60	3160.02
286.81	2961.36
287.03	2918.36
287.24	3233.74
287.46	3332.05
287.67	3155.92
287.89	3321.81
288.10	3282.89
288.32	3358.67
288.53	3153.87
288.75	3149.78
288.96	3407.82
289.18	3137.49
289.39	2914.26
289.61	2987.99
289.82	3684.30
290.04	3745.73
290.25	2854.87
290.47	3092.43
290.68	3266.51
290.90	3477.45
291.11	2822.10
291.33	3166.16
291.54	3108.82
291.76	3198.93
291.97	3131.34
292.18	3090.38
292.40	3270.61
292.61	3137.49
292.83	3299.28
293.04	3022.80
293.26	3301.33
293.47	3272.65
293.69	2992.08
293.90	2893.78
294.12	3612.62
294.33	3237.84
294.55	3110.86
294.76	3307.47
294.97	3518.41
295.19	3735.50
295.40	3028.95
295.62	3020.75
295.83	3485.64
296.05	3084.24
296.26	3246.03
296.48	3020.75
296.69	3241.93
296.90	3289.04
297.12	3168.21
297.33	3108.82
297.55	3340.24
297.76	3446.73
297.98	3063.76
298.19	3196.88
298.41	3256.27
298.62	3098.58
298.83	3131.34
299.05	3069.91
299.26	3172.30
299.48	3063.76
299.69	3059.67
299.90	2975.70
300.12	3059.67
300.33	3432.40
300.55	3037.14
300.76	3026.90
300.98	3131.34
301.19	3440.59
301.40	2932.69
301.62	2981.84
301.83	3379.15
302.05	3297.23
302.26	3020.75
302.47	3041.23
302.69	3024.85
302.90	3223.50
303.12	2834.39
303.33	3164.11
303.54	3686.34
303.76	3149.78
303.97	3033.04
304.19	3164.11
304.40	3020.75
304.61	3358.67
304.83	3170.26
305.04	3043.28
305.26	3381.20
305.47	3078.10
305.68	3074.00
305.90	2916.31
306.11	3477.45
306.33	3237.84
306.54	2967.51
306.75	2944.98
306.97	2928.60
307.18	3065.81
307.39	2987.99
307.61	3024.85
307.82	3217.36
308.04	3278.80
308.25	2863.06
308.46	3123.15
308.68	3344.33
308.89	3233.74
309.10	3065.81
309.32	2975.70
309.53	3250.13
309.74	3391.44
309.96	2914.26
310.17	3082.19
310.39	3182.54
310.60	3379.15
310.81	3045.33
311.03	2889.68
311.24	3381.20
311.45	3246.03
311.67	3190.74
311.88	3106.77
312.09	3237.84
312.31	3123.15
312.52	2910.16
312.73	2953.17
312.95	2992.08
313.16	3037.14
313.37	3196.88
313.59	3121.10
313.80	3399.63
314.01	3600.33
314.23	3065.81
314.44	2863.06
314.65	3004.37
314.87	3096.53
315.08	3037.14
315.29	2918.36
315.51	3117.01
315.72	3008.47
315.93	3000.27
316.15	3014.61
316.36	3139.54
316.57	3301.33
316.79	3010.51
317.00	2916.31
317.21	3321.81
317.43	3188.69
317.64	3033.04
317.85	2908.12
318.07	3082.19
318.28	3180.50
318.49	3010.51
318.70	3248.08
318.92	3313.61
319.13	3280.85
319.34	3254.22
319.56	3033.04
319.77	3407.82
319.98	3499.98
320.20	3311.57
320.41	3143.63
320.62	3495.88
320.83	3106.77
321.05	3229.65
321.26	3041.23
321.47	3262.41
321.69	3461.07
321.90	2828.24
322.11	2893.78
322.32	3274.70
322.54	3624.90
322.75	2979.79
322.96	4026.31
323.18	2934.74
323.39	2901.97
323.60	2844.63
323.81	3010.51
324.03	3131.34
324.24	3291.09
324.45	3078.10
324.66	2992.08
324.88	3510.22
325.09	3682.25
325.30	2992.08
325.52	2885.59
325.73	3321.81
325.94	3157.97
326.15	2957.27
326.37	2912.21
326.58	3456.97
326.79	3665.86
327.00	2928.60
327.22	2895.83
327.43	3268.56
327.64	3026.90
327.85	3168.21
328.07	3010.51
328.28	3657.67
328.49	3190.74
328.70	3020.75
328.92	3028.95
329.13	3219.41
329.34	3344.33
329.55	3311.57
329.76	3207.12
329.98	3215.31
330.19	3506.12
330.40	3069.91
330.61	3117.01
330.83	3432.40
331.04	3059.67
331.25	3094.48
331.46	3090.38
331.68	3057.62
331.89	3459.02
332.10	3041.23
332.31	2846.68
332.52	3342.28
332.74	3432.40
332.95	2877.40
333.16	2971.60
333.37	3432.40
333.58	3131.34
333.80	3020.75
334.01	2803.67
334.22	3239.89
334.43	3104.72
334.64	2928.60
334.86	2918.36
335.07	3086.29
335.28	3549.13
335.49	2836.44
335.70	3094.48
335.92	3581.90
336.13	3700.68
336.34	3141.58
336.55	3004.37
336.76	3448.78
336.98	2885.59
337.19	2906.07
337.40	3071.95
337.61	3780.55
337.82	3227.60
338.04	3096.53
338.25	2883.54
338.46	3198.93
338.67	3291.09
338.88	2926.55
339.09	2940.88
339.31	3250.13
339.52	3074.00
339.73	2916.31
339.94	3033.04
340.15	3385.29
340.36	3139.54
340.58	3076.05
340.79	2920.40
341.00	3323.85
341.21	2985.94
341.42	3309.52
341.63	3008.47
341.85	3512.27
342.06	3311.57
342.27	2914.26
342.48	3147.73
342.69	3008.47
342.90	3409.87
343.12	3291.09
343.33	2936.79
343.54	3547.08
343.75	3551.18
343.96	3022.80
344.17	2852.82
344.38	3164.11
344.60	3141.58
344.81	2893.78
345.02	3067.86
345.23	3442.64
345.44	3819.46
345.65	3065.81
345.86	3074.00
346.07	3391.44
346.29	3151.82
346.50	3082.19
346.71	2998.23
346.92	3565.51
347.13	3708.87
347.34	3094.48
347.55	2822.10
347.76	3418.06
347.98	2953.17
348.19	3069.91
348.40	3145.68
348.61	3221.45
348.82	3602.38
349.03	3090.38
349.24	2906.07
349.45	3686.34
349.66	2914.26
349.88	3002.32
350.09	2942.93
350.30	3596.23
350.51	3545.03
350.72	3174.35
350.93	2983.89
351.14	3239.89
351.35	3330.00
351.56	3045.33
351.77	3123.15
351.99	3297.23
352.20	3510.22
352.41	3135.44
352.62	2856.92
352.83	3246.03
353.04	3219.41
353.25	2981.84
353.46	3084.24
353.67	3608.52
353.88	2889.68
354.09	2924.50
354.30	3024.85
354.52	3461.07
354.73	3164.11
354.94	2961.36
355.15	3094.48
355.36	3755.97
355.57	3200.98
355.78	2955.22
355.99	2979.79
356.20	3209.17
356.41	3508.17
356.62	3092.43
356.83	2975.70
357.04	3497.93
357.25	2908.12
357.46	2979.79
357.68	2832.34
357.89	3143.63
358.10	3264.46
358.31	2961.36
358.52	2961.36
358.73	3057.62
358.94	3209.17
359.15	2983.89
359.36	3069.91
359.57	3356.62
359.78	3221.45
359.99	3188.69
360.20	2930.64
360.41	3188.69
360.62	3397.58
360.83	3059.67
361.04	2973.65
361.25	3270.61
361.46	3631.05
361.67	3125.20
361.88	3059.67
362.09	3461.07
362.30	3327.95
362.51	2924.50
362.72	3051.47
362.93	3430.35
363.14	3370.96
363.35	3018.71
363.56	2977.75
363.78	3553.23
363.99	3504.07
364.20	2985.94
364.41	3067.86
364.62	3635.14
364.83	3270.61
365.04	3024.85
365.25	3028.95
365.46	3602.38
365.67	3106.77
365.88	3131.34
366.09	2985.94
366.30	3180.50
366.51	3327.95
366.72	2914.26
366.93	2875.35
367.14	3299.28
367.35	3561.42
367.56	2922.45
367.77	3190.74
367.98	3217.36
368.18	3397.58
368.39	3133.39
368.60	3002.32
368.81	3411.92
369.02	3356.62
369.23	3004.37
369.44	2877.40
369.65	3213.26
369.86	3321.81
370.07	3078.10
370.28	2865.11
370.49	3348.43
370.70	3344.33
370.91	2934.74
371.12	2934.74
371.33	3479.50
371.54	3117.01
371.75	3110.86
371.96	2738.13
372.17	3346.38
372.38	3198.93
372.59	3008.47
372.80	2904.02
373.01	3100.62
373.22	3241.93
373.43	3004.37
373.64	2934.74
373.85	3590.09
374.06	3583.95
374.26	3084.24
374.47	3139.54
374.68	3674.06
374.89	3356.62
375.10	2916.31
375.31	3067.86
375.52	3231.69
375.73	3274.70
375.94	2815.96
376.15	3076.05
376.36	3168.21
376.57	3106.77
376.78	3000.27
376.99	3082.19
377.20	3510.22
377.40	3209.17
377.61	3301.33
377.82	3008.47
378.03	3542.99
378.24	3434.44
378.45	3022.80
378.66	3145.68
378.87	3010.51
379.08	3049.43
379.29	3008.47
379.50	3164.11
379.71	3262.41
379.91	3362.76
380.12	3057.62
380.33	3082.19
380.54	3180.50
380.75	3192.78
380.96	2979.79
381.17	3049.43
381.38	3219.41
381.59	3317.71
381.80	3098.58
382.00	3301.33
382.21	3354.57
382.42	3612.62
382.63	3405.77
382.84	3180.50
383.05	3354.57
383.26	3540.94
383.47	3145.68
383.68	2926.55
383.88	3377.10
384.09	3270.61
384.30	3233.74
384.51	3125.20
384.72	3239.89
384.93	2918.36
385.14	3045.33
385.35	3188.69
385.55	3002.32
385.76	3491.79
385.97	2969.55
386.18	2914.26
386.39	3147.73
386.60	3174.35
386.81	3045.33
387.02	3026.90
387.22	3000.27
387.43	3319.76
387.64	3117.01
387.85	3311.57
388.06	3352.52
388.27	4399.04
388.48	7745.42
388.68	11915.08
388.89	14954.27
389.10	16441.09
389.31	16094.99
389.52	12650.30
389.73	11349.84
389.93	10225.51
390.14	9162.61
390.35	8585.08
390.56	7982.98
390.77	6594.46
390.98	5029.81
391.18	4124.61
391.39	3893.19
391.60	3352.52
391.81	3233.74
392.02	2934.74
392.23	3794.89
392.43	3338.19
392.64	3104.72
392.85	3137.49
393.06	3653.58
393.27	3246.03
393.47	3037.14
393.68	3141.58
393.89	3196.88
394.10	3577.80
394.31	2996.18
394.52	2938.84
394.72	3145.68
394.93	3588.04
395.14	2914.26
395.35	3082.19
395.56	3133.39
395.76	3317.71
395.97	3094.48
396.18	3170.26
396.39	3229.65
396.60	3885.00
396.80	3446.73
397.01	3207.12
397.22	3420.11
397.43	3461.07
397.64	3037.14
397.84	3139.54
398.05	3639.24
398.26	3231.69
398.47	3143.63
398.67	3239.89
398.88	3268.56
399.09	3409.87
399.30	3022.80
399.51	3067.86
399.71	3078.10
399.92	3270.61
400.13	3045.33
400.34	3041.23
400.54	3280.85
400.75	3600.33
400.96	3237.84
401.17	3303.37
401.37	3364.81
401.58	3262.41
401.79	3016.66
402.00	3166.16
402.21	3831.75
402.41	3444.68
402.62	3274.70
402.83	3352.52
403.04	3835.85
403.24	4069.31
403.45	3198.93
403.66	3420.11
403.87	3551.18
404.07	3651.53
404.28	3295.18
404.49	3327.95
404.70	3391.44
404.90	3450.83
405.11	3080.14
405.32	3164.11
405.52	3184.59
405.73	3168.21
405.94	2975.70
406.15	3016.66
406.35	3379.15
406.56	3512.27
406.77	3121.10
406.98	3061.71
407.18	3100.62
407.39	3563.47
407.60	3092.43
407.80	3147.73
408.01	3145.68
408.22	3358.67
408.43	2951.12
408.63	3203.02
408.84	3450.83
409.05	3520.46
409.25	3004.37
409.46	3033.04
409.67	3186.64
409.88	3166.16
410.08	3061.71
410.29	3024.85
410.50	3418.06
410.70	3356.62
410.91	3008.47
411.12	3094.48
411.32	3295.18
411.53	3141.58
411.74	3102.67
411.95	3094.48
412.15	3338.19
412.36	3436.49
412.57	3182.54
412.77	3192.78
412.98	3262.41
413.19	3194.83
413.39	3151.82
413.60	3076.05
413.81	3493.83
414.01	3051.47
414.22	3086.29
414.43	3221.45
414.63	3172.30
414.84	3463.12
415.05	3125.20
415.25	2963.41
415.46	3430.35
415.67	3182.54
415.87	3086.29
416.08	2998.23
416.29	3227.60
416.49	3346.38
416.70	3090.38
416.91	3047.38
417.11	3123.15
417.32	3436.49
417.53	3104.72
417.73	3233.74
417.94	3297.23
418.15	3313.61
418.35	3119.06
418.56	3149.78
418.77	3733.45
418.97	3272.65
419.18	3125.20
419.38	2781.14
419.59	3235.79
419.80	3561.42
420.00	3016.66
420.21	3067.86
420.42	3545.03
420.62	3338.19
420.83	3076.05
421.04	3014.61
421.24	3194.83
421.45	3397.58
421.65	3059.67
421.86	3055.57
422.07	3469.26
422.27	3301.33
422.48	2951.12
422.69	2897.88
422.89	3291.09
423.10	3215.31
423.30	2947.03
423.51	3100.62
423.72	3319.76
423.92	3436.49
424.13	2996.18
424.33	3102.67
424.54	3440.59
424.75	3319.76
424.95	3237.84
425.16	2975.70
425.36	3213.26
425.57	3424.20
425.78	3196.88
425.98	3164.11
426.19	3246.03
426.39	3131.34
426.60	3067.86
426.81	3248.08
427.01	3295.18
427.22	3090.38
427.42	2861.01
427.63	2953.17
427.83	3467.21
428.04	3674.06
428.25	3096.53
428.45	3149.78
428.66	3567.56
428.86	3272.65
429.07	3145.68
429.28	3092.43
429.48	3344.33
429.69	3082.19
429.89	3078.10
430.10	2963.41
430.30	3479.50
430.51	3528.65
430.71	2996.18
430.92	3117.01
431.13	3141.58
431.33	3436.49
431.54	3174.35
431.74	3241.93
431.95	3698.63
432.15	3065.81
432.36	2979.79
432.56	3108.82
432.77	3616.71
432.98	3616.71
433.18	3102.67
433.39	2906.07
433.59	3332.05
433.80	3717.06
434.00	3223.50
434.21	3043.28
434.41	3088.34
434.62	3852.23
434.82	2908.12
435.03	2994.13
435.23	3266.51
435.44	2936.79
435.64	3035.09
435.85	3016.66
436.06	3456.97
436.26	3448.78
436.47	3018.71
436.67	2957.27
436.88	3231.69
437.08	3452.88
437.29	3223.50
437.49	3217.36
437.70	3477.45
437.90	3200.98
438.11	3241.93
438.31	3108.82
438.52	3485.64
438.72	3508.17
438.93	3391.44
439.13	3221.45
439.34	3477.45
439.54	3166.16
439.75	3131.34
439.95	3172.30
440.16	3155.92
440.36	3289.04
440.57	3096.53
440.77	3039.19
440.98	3229.65
441.18	3356.62
441.39	2891.73
441.59	2904.02
441.80	3659.72
442.00	3221.45
442.21	3112.91
442.41	2944.98
442.62	3512.27
442.82	3071.95
443.02	3051.47
443.23	3043.28
443.43	3268.56
443.64	3612.62
443.84	2975.70
444.05	3114.96
444.25	3284.94
444.46	3248.08
444.66	3028.95
444.87	3313.61
445.07	3033.04
445.28	3237.84
445.48	3221.45
445.69	3182.54
445.89	3792.84
446.09	3182.54
446.30	3373.00
446.50	3565.51
446.71	4984.76
446.91	6260.64
447.12	7190.42
447.32	7825.29
447.53	7616.40
447.73	6352.80
447.93	5574.57
448.14	5318.57
448.34	5334.96
448.55	4575.16
448.75	4413.37
448.96	4229.06
449.16	4020.16
449.36	3936.20
449.57	3258.32
449.77	3123.15
449.98	3252.17
450.18	3356.62
450.39	3039.19
450.59	3231.69
450.79	3327.95
451.00	3125.20
451.20	3256.27
451.41	3065.81
451.61	3299.28
451.81	3272.65
452.02	3020.75
452.22	3030.99
452.43	3198.93
