SpectraSuite Data File
++++++++++++++++++++++++++++++++++++
Date: Fri May 06 08:14:29 CEST 2016
User: root
Dark Spectrum Present: No
Reference Spectrum Present: No
Number of Sampled Component Spectra: 1
Spectrometers: USB4C02835
Integration Time (usec): 100000 (USB4C02835)
Spectra Averaged: 1 (USB4C02835)
Boxcar Smoothing: 0 (USB4C02835)
Correct for Electrical Dark: No (USB4C02835)
Strobe/Lamp Enabled: No (USB4C02835)
Correct for Detector Non-linearity: No (USB4C02835)
Correct for Stray Light: No (USB4C02835)
Number of Pixels in Processed Spectrum: 3648
>>>>>Begin Processed Spectral Data<<<<<
177.47	2316.25
177.69	2316.25
177.91	2316.25
178.13	2306.01
178.36	2246.62
178.58	2967.51
178.80	3186.64
179.02	3016.66
179.24	3094.48
179.46	2705.37
179.68	2822.10
179.90	3231.69
180.13	3305.42
180.35	2617.30
180.57	2811.86
180.79	3448.78
181.01	3211.22
181.23	2879.44
181.45	3033.04
181.67	3385.29
181.90	3403.72
182.12	2951.12
182.34	2607.06
182.56	3358.67
182.78	3319.76
183.00	2822.10
183.22	2811.86
183.44	2981.84
183.66	3979.20
183.89	3053.52
184.11	2852.82
184.33	3424.20
184.55	3583.95
184.77	2795.48
184.99	2879.44
185.21	3145.68
185.43	3760.07
185.65	2867.16
185.87	2848.72
186.10	3672.01
186.32	3811.27
186.54	2983.89
186.76	2955.22
186.98	3522.51
187.20	3164.11
187.42	2904.02
187.64	2895.83
187.86	3356.62
188.08	3534.79
188.30	2742.23
188.52	2979.79
188.75	3520.46
188.97	3524.55
189.19	2850.77
189.41	2858.96
189.63	3315.66
189.85	3135.44
190.07	2791.38
190.29	2813.91
190.51	3375.05
190.73	3057.62
190.95	3045.33
191.17	2942.93
191.39	2918.36
191.61	3237.84
191.84	2846.68
192.06	2971.60
192.28	2959.31
192.50	3966.92
192.72	2959.31
192.94	2955.22
193.16	3516.36
193.38	3411.92
193.60	2861.01
193.82	3024.85
194.04	3485.64
194.26	3336.14
194.48	2863.06
194.70	2854.87
194.92	3137.49
195.14	3467.21
195.36	2873.30
195.58	2918.36
195.80	3323.85
196.02	3200.98
196.24	2762.71
196.46	2930.64
196.69	3145.68
196.91	3762.12
197.13	2865.11
197.35	2936.79
197.57	3618.76
197.79	3403.72
198.01	2924.50
198.23	2904.02
198.45	3416.01
198.67	3020.75
198.89	2654.17
199.11	3008.47
199.33	3135.44
199.55	2820.05
199.77	2842.58
199.99	3053.52
200.21	3299.28
200.43	3377.10
200.65	2744.28
200.87	2676.70
201.09	3307.47
201.31	3186.64
201.53	2883.54
201.75	2967.51
201.97	3248.08
202.19	3209.17
202.41	2850.77
202.63	2920.40
202.85	3391.44
203.07	3262.41
203.29	2957.27
203.51	2791.38
203.73	3100.62
203.95	3782.60
204.17	2955.22
204.39	3076.05
204.61	3289.04
204.83	3190.74
205.05	3028.95
205.27	2910.16
205.49	3735.50
205.71	3295.18
205.93	2680.79
206.15	2746.33
206.37	3252.17
206.59	3231.69
206.81	2688.98
207.03	2744.28
207.25	3125.20
207.47	3479.50
207.69	2889.68
207.91	3100.62
208.13	3704.78
208.34	3172.30
208.56	2873.30
208.78	2901.97
209.00	3237.84
209.22	3219.41
209.44	2820.05
209.66	2809.81
209.88	3276.75
210.10	3198.93
210.32	2758.61
210.54	2924.50
210.76	3209.17
210.98	3434.44
211.20	2703.32
211.42	2940.88
211.64	3477.45
211.86	3299.28
212.08	2961.36
212.30	2832.34
212.52	3268.56
212.74	3407.82
212.96	2924.50
213.17	2957.27
213.39	3393.48
213.61	3678.15
213.83	2772.95
214.05	2738.13
214.27	3383.24
214.49	2959.31
214.71	2783.19
214.93	2936.79
215.15	3348.43
215.37	3461.07
215.59	2688.98
215.81	2949.08
216.03	3559.37
216.24	3352.52
216.46	2820.05
216.68	2934.74
216.90	3485.64
217.12	3493.83
217.34	2918.36
217.56	3049.43
217.78	3643.34
218.00	3413.96
218.22	2965.46
218.44	2957.27
218.66	3379.15
218.87	3604.42
219.09	2865.11
219.31	2834.39
219.53	3286.99
219.75	3268.56
219.97	2987.99
220.19	2936.79
220.41	3295.18
220.63	3557.32
220.85	2852.82
221.06	2854.87
221.28	3575.75
221.50	3409.87
221.72	2873.30
221.94	2781.14
222.16	3311.57
222.38	3463.12
222.60	2799.57
222.82	2865.11
223.03	3409.87
223.25	3084.24
223.47	2795.48
223.69	3080.14
223.91	3387.34
224.13	3311.57
224.35	2750.42
224.57	3059.67
224.78	3536.84
225.00	3037.14
225.22	2969.55
225.44	2818.00
225.66	3450.83
225.88	3133.39
226.10	2975.70
226.32	2901.97
226.53	3598.28
226.75	3301.33
226.97	2940.88
227.19	2957.27
227.41	3172.30
227.63	3147.73
227.85	2664.41
228.06	2901.97
228.28	3276.75
228.50	3491.79
228.72	2715.61
228.94	2867.16
229.16	2926.55
229.37	3080.14
229.59	2799.57
229.81	3166.16
230.03	3200.98
230.25	3020.75
230.47	2787.29
230.69	2822.10
230.90	3432.40
231.12	3207.12
231.34	2895.83
231.56	2906.07
231.78	2977.75
232.00	3246.03
232.21	2889.68
232.43	2885.59
232.65	2914.26
232.87	3362.76
233.09	2676.70
233.30	2799.57
233.52	3647.43
233.74	3256.27
233.96	2844.63
234.18	3053.52
234.40	3200.98
234.61	3690.44
234.83	2803.67
235.05	2770.90
235.27	3856.33
235.49	3559.37
235.70	2811.86
235.92	2983.89
236.14	3385.29
236.36	3778.50
236.58	2787.29
236.79	2977.75
237.01	3235.79
237.23	3248.08
237.45	3162.06
237.67	2891.73
237.88	3385.29
238.10	3622.86
238.32	2760.66
238.54	2897.88
238.76	3246.03
238.97	3035.09
239.19	2746.33
239.41	2899.92
239.63	3442.64
239.85	3160.02
240.06	2928.60
240.28	2861.01
240.50	3401.68
240.72	3284.94
240.93	2688.98
241.15	3018.71
241.37	3303.37
241.59	3561.42
241.81	2885.59
242.02	2928.60
242.24	3321.81
242.46	3506.12
242.68	2721.75
242.89	2844.63
243.11	3467.21
243.33	3237.84
243.55	2861.01
243.76	2977.75
243.98	3141.58
244.20	3239.89
244.42	2897.88
244.64	2869.20
244.85	3074.00
245.07	3121.10
245.29	2863.06
245.51	2918.36
245.72	3413.96
245.94	3450.83
246.16	2762.71
246.38	2918.36
246.59	3145.68
246.81	3100.62
247.03	2787.29
247.24	2734.04
247.46	3143.63
247.68	3344.33
247.90	2768.85
248.11	2906.07
248.33	3373.00
248.55	3180.50
248.77	2926.55
248.98	2994.13
249.20	3604.42
249.42	3375.05
249.64	2869.20
249.85	2803.67
250.07	3086.29
250.29	3420.11
250.50	2951.12
250.72	2799.57
250.94	3364.81
251.16	3710.92
251.37	2811.86
251.59	2920.40
251.81	3350.48
252.02	3637.19
252.24	2818.00
252.46	3053.52
252.68	3114.96
252.89	3241.93
253.11	2713.56
253.33	3020.75
253.54	3620.81
253.76	3055.57
253.98	2938.84
254.20	2842.58
254.41	3028.95
254.63	3278.80
254.85	2787.29
255.06	2953.17
255.28	3350.48
255.50	3166.16
255.71	2766.81
255.93	2645.98
256.15	3301.33
256.36	3469.26
256.58	2772.95
256.80	2752.47
257.02	3270.61
257.23	3178.45
257.45	2844.63
257.67	2981.84
257.88	3123.15
258.10	3344.33
258.32	2824.15
258.53	2942.93
258.75	3557.32
258.97	3164.11
259.18	2805.72
259.40	2795.48
259.62	3665.86
259.83	3559.37
260.05	2906.07
260.27	3735.50
260.48	3510.22
260.70	3135.44
260.92	2797.53
261.13	2914.26
261.35	3379.15
261.57	3393.48
261.78	2711.51
262.00	2777.05
262.22	3373.00
262.43	3110.86
262.65	2850.77
262.86	2908.12
263.08	3774.41
263.30	3248.08
263.51	2664.41
263.73	2787.29
263.95	3622.86
264.16	3080.14
264.38	2801.62
264.60	2813.91
264.81	3260.37
265.03	3524.55
265.25	3319.76
265.46	2760.66
265.68	3526.60
265.89	3362.76
266.11	2762.71
266.33	2824.15
266.54	3520.46
266.76	3368.91
266.98	2885.59
267.19	3090.38
267.41	3471.31
267.62	3274.70
267.84	2656.22
268.06	3000.27
268.27	3327.95
268.49	3471.31
268.70	2918.36
268.92	2885.59
269.14	3151.82
269.35	3018.71
269.57	2922.45
269.79	2906.07
270.00	3172.30
270.22	3624.90
270.43	2795.48
270.65	2697.17
270.87	3274.70
271.08	3456.97
271.30	2951.12
271.51	2832.34
271.73	3354.57
271.95	3641.29
272.16	2822.10
272.38	3004.37
272.59	3233.74
272.81	3444.68
273.02	2861.01
273.24	2969.55
273.46	3467.21
273.67	3067.86
273.89	2738.13
274.10	2861.01
274.32	3510.22
274.54	3334.09
274.75	2926.55
274.97	3000.27
275.18	3428.30
275.40	3332.05
275.61	2910.16
275.83	3024.85
276.05	3114.96
276.26	3305.42
276.48	2959.31
276.69	2994.13
276.91	3139.54
277.12	3606.47
277.34	3076.05
277.55	3143.63
277.77	3299.28
277.99	3196.88
278.20	2985.94
278.42	2887.64
278.63	3133.39
278.85	3020.75
279.06	2967.51
279.28	3082.19
279.49	3471.31
279.71	3450.83
279.93	3051.47
280.14	3030.99
280.36	3121.10
280.57	3452.88
280.79	3082.19
281.00	2807.77
281.22	3188.69
281.43	3522.51
281.65	2775.00
281.86	2856.92
282.08	3407.82
282.29	3641.29
282.51	2842.58
282.73	2938.84
282.94	2938.84
283.16	3475.40
283.37	3028.95
283.59	2967.51
283.80	3375.05
284.02	3248.08
284.23	3084.24
284.45	3074.00
284.66	3043.28
284.88	3053.52
285.09	2797.53
285.31	3065.81
285.52	3426.25
285.74	2963.41
285.95	3256.27
286.17	3012.56
286.38	3459.02
286.60	3145.68
286.81	2949.08
287.03	2938.84
287.24	3321.81
287.46	3373.00
287.67	3125.20
287.89	3205.07
288.10	3305.42
288.32	3260.37
288.53	3151.82
288.75	3024.85
288.96	3434.44
289.18	3160.02
289.39	2951.12
289.61	3074.00
289.82	3676.10
290.04	3751.88
290.25	2879.44
290.47	3063.76
290.68	3264.46
290.90	3510.22
291.11	2748.37
291.33	3090.38
291.54	3125.20
291.76	3133.39
291.97	3123.15
292.18	3082.19
292.40	3190.74
292.61	3088.34
292.83	3262.41
293.04	2969.55
293.26	3276.75
293.47	3223.50
293.69	2844.63
293.90	2832.34
294.12	3536.84
294.33	3317.71
294.55	3053.52
294.76	3186.64
294.97	3577.80
295.19	3676.10
295.40	2930.64
295.62	2987.99
295.83	3526.60
296.05	3157.97
296.26	3278.80
296.48	2981.84
296.69	3207.12
296.90	3309.52
297.12	3119.06
297.33	3114.96
297.55	3260.37
297.76	3420.11
297.98	3033.04
298.19	3100.62
298.41	3280.85
298.62	3106.77
298.83	3205.07
299.05	3106.77
299.26	3190.74
299.48	3114.96
299.69	2985.94
299.90	2957.27
300.12	3123.15
300.33	3389.39
300.55	3061.71
300.76	3188.69
300.98	3018.71
301.19	3286.99
301.40	2957.27
301.62	2940.88
301.83	3360.72
302.05	3264.46
302.26	2971.60
302.47	3035.09
302.69	3051.47
302.90	3307.47
303.12	2822.10
303.33	3168.21
303.54	3661.77
303.76	3061.71
303.97	3041.23
304.19	3211.22
304.40	3016.66
304.61	3409.87
304.83	3112.91
305.04	2979.79
305.26	3416.01
305.47	3143.63
305.68	3051.47
305.90	2918.36
306.11	3489.74
306.33	3291.09
306.54	2869.20
306.75	2957.27
306.97	3106.77
307.18	3137.49
307.39	2965.46
307.61	3164.11
307.82	3233.74
308.04	3418.06
308.25	2867.16
308.46	3100.62
308.68	3270.61
308.89	3289.04
309.10	3151.82
309.32	3033.04
309.53	3313.61
309.74	3463.12
309.96	2879.44
310.17	3153.87
310.39	3203.02
310.60	3411.92
310.81	3037.14
311.03	2877.40
311.24	3463.12
311.45	3260.37
311.67	3239.89
311.88	3061.71
312.09	3170.26
312.31	3135.44
312.52	2918.36
312.73	2967.51
312.95	3057.62
313.16	3084.24
313.37	3182.54
313.59	3188.69
313.80	3508.17
314.01	3557.32
314.23	2971.60
314.44	2901.97
314.65	3061.71
314.87	3092.43
315.08	2975.70
315.29	3006.42
315.51	3096.53
315.72	3002.32
315.93	3043.28
316.15	3018.71
316.36	3246.03
316.57	3344.33
316.79	2994.13
317.00	2904.02
317.21	3483.59
317.43	3141.58
317.64	2996.18
317.85	2867.16
318.07	3110.86
318.28	3205.07
318.49	3063.76
318.70	3286.99
318.92	3311.57
319.13	3401.68
319.34	3256.27
319.56	2987.99
319.77	3409.87
319.98	3391.44
320.20	3323.85
320.41	3137.49
320.62	3393.48
320.83	3106.77
321.05	3164.11
321.26	3041.23
321.47	3258.32
321.69	3499.98
321.90	2879.44
322.11	2955.22
322.32	3303.37
322.54	3614.66
322.75	3010.51
322.96	3964.87
323.18	3018.71
323.39	2879.44
323.60	2883.54
323.81	3139.54
324.03	3164.11
324.24	3297.23
324.45	3160.02
324.66	2906.07
324.88	3542.99
325.09	3581.90
325.30	2955.22
325.52	2953.17
325.73	3418.06
325.94	3147.73
326.15	2942.93
326.37	2807.77
326.58	3512.27
326.79	3635.14
327.00	2887.64
327.22	2992.08
327.43	3213.26
327.64	3059.67
327.85	3082.19
328.07	3039.19
328.28	3704.78
328.49	3147.73
328.70	3030.99
328.92	2965.46
329.13	3227.60
329.34	3411.92
329.55	3223.50
329.76	3205.07
329.98	3317.71
330.19	3477.45
330.40	3098.58
330.61	3117.01
330.83	3432.40
331.04	3059.67
331.25	3094.48
331.46	3135.44
331.68	3000.27
331.89	3450.83
332.10	3045.33
332.31	2850.77
332.52	3262.41
332.74	3502.03
332.95	2842.58
333.16	2969.55
333.37	3407.82
333.58	3129.30
333.80	3033.04
334.01	2834.39
334.22	3239.89
334.43	3223.50
334.64	2850.77
334.86	2926.55
335.07	3123.15
335.28	3465.16
335.49	2848.72
335.70	3010.51
335.92	3647.43
336.13	3729.35
336.34	3053.52
336.55	3035.09
336.76	3360.72
336.98	2942.93
337.19	3006.42
337.40	3086.29
337.61	3872.71
337.82	3235.79
338.04	3117.01
338.25	2875.35
338.46	3319.76
338.67	3229.65
338.88	2828.24
339.09	2875.35
339.31	3184.59
339.52	3002.32
339.73	2922.45
339.94	3055.57
340.15	3467.21
340.36	3198.93
340.58	3047.38
340.79	2842.58
341.00	3436.49
341.21	2944.98
341.42	3272.65
341.63	3012.56
341.85	3467.21
342.06	3219.41
342.27	2994.13
342.48	3123.15
342.69	2985.94
342.90	3364.81
343.12	3454.92
343.33	2930.64
343.54	3438.54
343.75	3469.26
343.96	3114.96
344.17	2961.36
344.38	3221.45
344.60	3106.77
344.81	2924.50
345.02	2967.51
345.23	3483.59
345.44	3729.35
345.65	3123.15
345.86	3053.52
346.07	3303.37
346.29	3239.89
346.50	3086.29
346.71	3117.01
346.92	3567.56
347.13	3606.47
347.34	3149.78
347.55	2916.31
347.76	3438.54
347.98	2924.50
348.19	3006.42
348.40	3203.02
348.61	3219.41
348.82	3600.33
349.03	3039.19
349.24	2832.34
349.45	3653.58
349.66	2910.16
349.88	2934.74
350.09	2969.55
350.30	3616.71
350.51	3518.41
350.72	3170.26
350.93	2975.70
351.14	3219.41
351.35	3299.28
351.56	3000.27
351.77	2992.08
351.99	3354.57
352.20	3561.42
352.41	3094.48
352.62	2813.91
352.83	3188.69
353.04	3289.04
353.25	3012.56
353.46	3106.77
353.67	3495.88
353.88	2887.64
354.09	2947.03
354.30	2996.18
354.52	3401.68
354.73	3217.36
354.94	3000.27
355.15	3016.66
355.36	3708.87
355.57	3178.45
355.78	2969.55
355.99	2961.36
356.20	3176.40
356.41	3473.36
356.62	3061.71
356.83	2975.70
357.04	3540.94
357.25	3012.56
357.46	2967.51
357.68	2799.57
357.89	3114.96
358.10	3241.93
358.31	2983.89
358.52	3098.58
358.73	3004.37
358.94	3024.85
359.15	3033.04
359.36	3039.19
359.57	3354.57
359.78	3182.54
359.99	3176.40
360.20	2922.45
360.41	3225.55
360.62	3356.62
360.83	3086.29
361.04	3074.00
361.25	3289.04
361.46	3674.06
361.67	3053.52
361.88	3053.52
362.09	3487.69
362.30	3307.47
362.51	2918.36
362.72	3057.62
362.93	3348.43
363.14	3391.44
363.35	3061.71
363.56	2914.26
363.78	3536.84
363.99	3516.36
364.20	3020.75
364.41	3084.24
364.62	3680.20
364.83	3360.72
365.04	2973.65
365.25	3067.86
365.46	3680.20
365.67	3139.54
365.88	3229.65
366.09	2977.75
366.30	3211.22
366.51	3338.19
366.72	2889.68
366.93	2922.45
367.14	3252.17
367.35	3526.60
367.56	3012.56
367.77	3160.02
367.98	3235.79
368.18	3420.11
368.39	3155.92
368.60	2983.89
368.81	3352.52
369.02	3407.82
369.23	3035.09
369.44	2856.92
369.65	3225.55
369.86	3454.92
370.07	3127.25
370.28	2928.60
370.49	3348.43
370.70	3334.09
370.91	2877.40
371.12	2842.58
371.33	3377.10
371.54	3131.34
371.75	3018.71
371.96	2766.81
372.17	3309.52
372.38	3325.90
372.59	2990.03
372.80	2938.84
373.01	3332.05
373.22	3264.46
373.43	3014.61
373.64	2838.48
373.85	3538.89
374.06	3579.85
374.26	3135.44
374.47	3125.20
374.68	3622.86
374.89	3289.04
375.10	2953.17
375.31	3100.62
375.52	3235.79
375.73	3330.00
375.94	2881.49
376.15	3168.21
376.36	3145.68
376.57	3182.54
376.78	2987.99
376.99	3004.37
377.20	3473.36
377.40	3198.93
377.61	3336.14
377.82	2930.64
378.03	3614.66
378.24	3358.67
378.45	3170.26
378.66	3123.15
378.87	2985.94
379.08	2961.36
379.29	3051.47
379.50	3198.93
379.71	3303.37
379.91	3459.02
380.12	3026.90
380.33	3172.30
380.54	3252.17
380.75	3280.85
380.96	3022.80
381.17	2975.70
381.38	3282.89
381.59	3350.48
381.80	3102.67
382.00	3223.50
382.21	3352.52
382.42	3645.38
382.63	3368.91
382.84	3186.64
383.05	3456.97
383.26	3559.37
383.47	3139.54
383.68	2965.46
383.88	3401.68
384.09	3188.69
384.30	3170.26
384.51	3106.77
384.72	3213.26
384.93	3002.32
385.14	3129.30
385.35	3235.79
385.55	3026.90
385.76	3626.95
385.97	3041.23
386.18	2850.77
386.39	3172.30
386.60	3227.60
386.81	3037.14
387.02	2893.78
387.22	3059.67
387.43	3401.68
387.64	3096.53
387.85	3268.56
388.06	3321.81
388.27	4315.07
388.48	7837.58
388.68	12019.53
388.89	14860.06
389.10	16412.42
389.31	16369.41
389.52	13039.42
389.73	11243.35
389.93	10438.50
390.14	9156.47
390.35	8535.93
390.56	7909.26
390.77	6662.04
390.98	5085.11
391.18	4167.62
391.39	3911.62
391.60	3319.76
391.81	3289.04
392.02	3024.85
392.23	3774.41
392.43	3280.85
392.64	3143.63
392.85	3121.10
393.06	3614.66
393.27	3258.32
393.47	3059.67
393.68	3106.77
393.89	3241.93
394.10	3532.75
394.31	2979.79
394.52	2947.03
394.72	3174.35
394.93	3573.71
395.14	2942.93
395.35	3055.57
395.56	3205.07
395.76	3274.70
395.97	2977.75
396.18	3153.87
396.39	3276.75
396.60	3950.53
396.80	3391.44
397.01	3352.52
397.22	3549.13
397.43	3512.27
397.64	3000.27
397.84	3067.86
398.05	3696.58
398.26	3303.37
398.47	3176.40
398.67	3286.99
398.88	3254.22
399.09	3436.49
399.30	3024.85
399.51	3098.58
399.71	3127.25
399.92	3266.51
400.13	3090.38
400.34	2990.03
400.54	3301.33
400.75	3481.55
400.96	3233.74
401.17	3280.85
401.37	3373.00
401.58	3405.77
401.79	2957.27
402.00	3094.48
402.21	3774.41
402.41	3493.83
402.62	3364.81
402.83	3508.17
403.04	3762.12
403.24	4046.79
403.45	3229.65
403.66	3370.96
403.87	3553.23
404.07	3629.00
404.28	3260.37
404.49	3342.28
404.70	3346.38
404.90	3393.48
405.11	3008.47
405.32	3018.71
405.52	3209.17
405.73	3139.54
405.94	2975.70
406.15	3139.54
406.35	3405.77
406.56	3430.35
406.77	3067.86
406.98	3043.28
407.18	3164.11
407.39	3606.47
407.60	3090.38
407.80	3088.34
408.01	3207.12
408.22	3364.81
408.43	2967.51
408.63	3160.02
408.84	3442.64
409.05	3508.17
409.25	2916.31
409.46	3041.23
409.67	3192.78
409.88	3182.54
410.08	3117.01
410.29	2926.55
410.50	3487.69
410.70	3366.86
410.91	2930.64
411.12	3114.96
411.32	3364.81
411.53	3090.38
411.74	3110.86
411.95	3104.72
412.15	3330.00
412.36	3520.46
412.57	3207.12
412.77	3207.12
412.98	3284.94
413.19	3090.38
413.39	3182.54
413.60	3147.73
413.81	3530.70
414.01	3157.97
414.22	3102.67
414.43	3270.61
414.63	3233.74
414.84	3409.87
415.05	3160.02
415.25	2918.36
415.46	3362.76
415.67	3125.20
415.87	3076.05
416.08	3033.04
416.29	3274.70
416.49	3389.39
416.70	3143.63
416.91	3008.47
417.11	3219.41
417.32	3540.94
417.53	3131.34
417.73	3182.54
417.94	3274.70
418.15	3295.18
418.35	3059.67
418.56	2992.08
418.77	3829.70
418.97	3198.93
419.18	3155.92
419.38	2754.52
419.59	3315.66
419.80	3526.60
420.00	2992.08
420.21	3051.47
420.42	3520.46
420.62	3370.96
420.83	3069.91
421.04	3018.71
421.24	3256.27
421.45	3434.44
421.65	3090.38
421.86	3012.56
422.07	3475.40
422.27	3368.91
422.48	2969.55
422.69	2930.64
422.89	3260.37
423.10	3229.65
423.30	3006.42
423.51	3102.67
423.72	3379.15
423.92	3499.98
424.13	2912.21
424.33	3106.77
424.54	3493.83
424.75	3352.52
424.95	3330.00
425.16	2992.08
425.36	3233.74
425.57	3497.93
425.78	3221.45
425.98	3153.87
426.19	3190.74
426.39	3143.63
426.60	3112.91
426.81	3248.08
427.01	3381.20
427.22	3102.67
427.42	2850.77
427.63	2994.13
427.83	3502.03
428.04	3545.03
428.25	3149.78
428.45	3207.12
428.66	3434.44
428.86	3213.26
429.07	3051.47
429.28	3067.86
429.48	3205.07
429.69	3184.59
429.89	3170.26
430.10	2994.13
430.30	3422.16
430.51	3438.54
430.71	3069.91
430.92	3117.01
431.13	3174.35
431.33	3442.64
431.54	3098.58
431.74	3239.89
431.95	3768.26
432.15	3092.43
432.36	3047.38
432.56	3117.01
432.77	3704.78
432.98	3631.05
433.18	3129.30
433.39	2895.83
433.59	3317.71
433.80	3755.97
434.00	3182.54
434.21	3121.10
434.41	3184.59
434.62	3772.36
434.82	2901.97
435.03	2973.65
435.23	3309.52
435.44	2844.63
435.64	3006.42
435.85	3149.78
436.06	3434.44
436.26	3502.03
436.47	3082.19
436.67	3053.52
436.88	3280.85
437.08	3512.27
437.29	3139.54
437.49	3194.83
437.70	3456.97
437.90	3174.35
438.11	3317.71
438.31	3094.48
438.52	3616.71
438.72	3512.27
438.93	3411.92
439.13	3168.21
439.34	3475.40
439.54	3176.40
439.75	3141.58
439.95	3166.16
440.16	3164.11
440.36	3266.51
440.57	3030.99
440.77	3053.52
440.98	3299.28
441.18	3411.92
441.39	3018.71
441.59	2904.02
441.80	3794.89
442.00	3278.80
442.21	3229.65
442.41	2881.49
442.62	3514.31
442.82	3131.34
443.02	2994.13
443.23	3145.68
443.43	3241.93
443.64	3542.99
443.84	2990.03
444.05	3137.49
444.25	3330.00
444.46	3162.06
444.66	3002.32
444.87	3229.65
445.07	2992.08
445.28	3221.45
445.48	3284.94
445.69	3213.26
445.89	3823.56
446.09	3225.55
446.30	3340.24
446.50	3444.68
446.71	5160.88
446.91	6442.91
447.12	7223.19
447.32	7823.24
447.53	7636.88
447.73	6391.71
447.93	5623.72
448.14	5308.34
448.34	5531.56
448.55	4595.64
448.75	4378.56
448.96	4208.58
449.16	3985.35
449.36	3829.70
449.57	3409.87
449.77	3153.87
449.98	3198.93
450.18	3344.33
450.39	2985.94
450.59	3266.51
450.79	3264.46
451.00	3153.87
451.20	3213.26
451.41	3008.47
451.61	3483.59
451.81	3237.84
452.02	2961.36
452.22	3071.95
452.43	3190.74
