SpectraSuite Data File
++++++++++++++++++++++++++++++++++++
Date: Fri May 06 08:14:28 CEST 2016
User: root
Dark Spectrum Present: No
Reference Spectrum Present: No
Number of Sampled Component Spectra: 1
Spectrometers: USB4C02835
Integration Time (usec): 100000 (USB4C02835)
Spectra Averaged: 1 (USB4C02835)
Boxcar Smoothing: 0 (USB4C02835)
Correct for Electrical Dark: No (USB4C02835)
Strobe/Lamp Enabled: No (USB4C02835)
Correct for Detector Non-linearity: No (USB4C02835)
Correct for Stray Light: No (USB4C02835)
Number of Pixels in Processed Spectrum: 3648
>>>>>Begin Processed Spectral Data<<<<<
177.47	2195.42
177.69	2195.42
177.91	2195.42
178.13	2346.97
178.36	2281.44
178.58	3086.29
178.80	3131.34
179.02	2973.65
179.24	2940.88
179.46	2670.55
179.68	2820.05
179.90	3252.17
180.13	3321.81
180.35	2787.29
180.57	2836.44
180.79	3403.72
181.01	3196.88
181.23	2889.68
181.45	2965.46
181.67	3356.62
181.90	3385.29
182.12	2926.55
182.34	2672.60
182.56	3397.58
182.78	3344.33
183.00	2775.00
183.22	2951.12
183.44	2940.88
183.66	3903.43
183.89	2949.08
184.11	2885.59
184.33	3377.10
184.55	3499.98
184.77	2807.77
184.99	2803.67
185.21	3188.69
185.43	3762.12
185.65	2873.30
185.87	2799.57
186.10	3737.54
186.32	3755.97
186.54	3059.67
186.76	2973.65
186.98	3428.30
187.20	3268.56
187.42	2883.54
187.64	2850.77
187.86	3405.77
188.08	3411.92
188.30	2777.05
188.52	2867.16
188.75	3561.42
188.97	3592.14
189.19	2865.11
189.41	2846.68
189.63	3389.39
189.85	3157.97
190.07	2693.08
190.29	2723.80
190.51	3432.40
190.73	3020.75
190.95	3010.51
191.17	2985.94
191.39	3094.48
191.61	3235.79
191.84	2904.02
192.06	2942.93
192.28	3012.56
192.50	3973.06
192.72	3045.33
192.94	2920.40
193.16	3430.35
193.38	3346.38
193.60	2770.90
193.82	3020.75
194.04	3393.48
194.26	3377.10
194.48	2869.20
194.70	2768.85
194.92	3262.41
195.14	3409.87
195.36	2791.38
195.58	2959.31
195.80	3186.64
196.02	3088.34
196.24	2754.52
196.46	2983.89
196.69	3248.08
196.91	3846.09
197.13	2889.68
197.35	2944.98
197.57	3538.89
197.79	3387.34
198.01	2955.22
198.23	2893.78
198.45	3450.83
198.67	3004.37
198.89	2697.17
199.11	3039.19
199.33	3039.19
199.55	2885.59
199.77	2858.96
199.99	3065.81
200.21	3137.49
200.43	3338.19
200.65	2666.46
200.87	2775.00
201.09	3278.80
201.31	3239.89
201.53	2838.48
201.75	2951.12
201.97	3295.18
202.19	3286.99
202.41	2957.27
202.63	3020.75
202.85	3405.77
203.07	3286.99
203.29	2975.70
203.51	2750.42
203.73	3151.82
203.95	3905.48
204.17	2822.10
204.39	3014.61
204.61	3289.04
204.83	3215.31
205.05	3076.05
205.27	3018.71
205.49	3686.34
205.71	3248.08
205.93	2754.52
206.15	2746.33
206.37	3450.83
206.59	3241.93
206.81	2699.22
207.03	2838.48
207.25	3084.24
207.47	3403.72
207.69	2842.58
207.91	3110.86
208.13	3610.57
208.34	3221.45
208.56	2875.35
208.78	2879.44
209.00	3205.07
209.22	3190.74
209.44	2934.74
209.66	2803.67
209.88	3336.14
210.10	3256.27
210.32	2820.05
210.54	2928.60
210.76	3123.15
210.98	3448.78
211.20	2746.33
211.42	3028.95
211.64	3612.62
211.86	3422.16
212.08	2947.03
212.30	2863.06
212.52	3192.78
212.74	3475.40
212.96	2944.98
213.17	3004.37
213.39	3413.96
213.61	3696.58
213.83	2897.88
214.05	2705.37
214.27	3508.17
214.49	3051.47
214.71	2854.87
214.93	3014.61
215.15	3332.05
215.37	3514.31
215.59	2756.57
215.81	2930.64
216.03	3549.13
216.24	3231.69
216.46	2824.15
216.68	2908.12
216.90	3397.58
217.12	3436.49
217.34	2820.05
217.56	3071.95
217.78	3549.13
218.00	3313.61
218.22	2951.12
218.44	2998.23
218.66	3420.11
218.87	3704.78
219.09	2869.20
219.31	2844.63
219.53	3301.33
219.75	3180.50
219.97	2887.64
220.19	2936.79
220.41	3319.76
220.63	3520.46
220.85	2983.89
221.06	2891.73
221.28	3545.03
221.50	3327.95
221.72	2826.20
221.94	2762.71
222.16	3330.00
222.38	3438.54
222.60	2832.34
222.82	2971.60
223.03	3459.02
223.25	2977.75
223.47	2865.11
223.69	3055.57
223.91	3377.10
224.13	3282.89
224.35	2760.66
224.57	3119.06
224.78	3393.48
225.00	3037.14
225.22	2926.55
225.44	2779.09
225.66	3434.44
225.88	3190.74
226.10	3008.47
226.32	2824.15
226.53	3583.95
226.75	3155.92
226.97	2938.84
227.19	2852.82
227.41	3067.86
227.63	3270.61
227.85	2719.70
228.06	2926.55
228.28	3313.61
228.50	3428.30
228.72	2707.41
228.94	2838.48
229.16	2883.54
229.37	3141.58
229.59	2721.75
229.81	3123.15
230.03	3213.26
230.25	3018.71
230.47	2607.06
230.69	2795.48
230.90	3545.03
231.12	3090.38
231.34	2994.13
231.56	2897.88
231.78	3143.63
232.00	3327.95
232.21	2908.12
232.43	2893.78
232.65	2861.01
232.87	3356.62
233.09	2734.04
233.30	2789.33
233.52	3565.51
233.74	3284.94
233.96	2760.66
234.18	2987.99
234.40	3272.65
234.61	3790.79
234.83	2799.57
235.05	2846.68
235.27	3755.97
235.49	3602.38
235.70	2762.71
235.92	2932.69
236.14	3303.37
236.36	3839.94
236.58	2729.94
236.79	2975.70
237.01	3213.26
237.23	3231.69
237.45	3121.10
237.67	2942.93
237.88	3366.86
238.10	3622.86
238.32	2830.29
238.54	2838.48
238.76	3276.75
238.97	3180.50
239.19	2822.10
239.41	2822.10
239.63	3508.17
239.85	3172.30
240.06	2961.36
240.28	2834.39
240.50	3405.77
240.72	3229.65
240.93	2791.38
241.15	3063.76
241.37	3256.27
241.59	3545.03
241.81	2975.70
242.02	2983.89
242.24	3370.96
242.46	3418.06
242.68	2758.61
242.89	2885.59
243.11	3508.17
243.33	3301.33
243.55	2858.96
243.76	2832.34
243.98	3160.02
244.20	3274.70
244.42	2858.96
244.64	2912.21
244.85	3053.52
245.07	3102.67
245.29	2840.53
245.51	2844.63
245.72	3266.51
245.94	3510.22
246.16	2865.11
246.38	2983.89
246.59	3082.19
246.81	3139.54
247.03	2729.94
247.24	2762.71
247.46	3162.06
247.68	3274.70
247.90	2797.53
248.11	2885.59
248.33	3413.96
248.55	3356.62
248.77	2934.74
248.98	2957.27
249.20	3657.67
249.42	3401.68
249.64	2861.01
249.85	2861.01
250.07	3168.21
250.29	3418.06
250.50	2969.55
250.72	2766.81
250.94	3370.96
251.16	3698.63
251.37	2930.64
251.59	3049.43
251.81	3379.15
252.02	3585.99
252.24	2766.81
252.46	2985.94
252.68	3151.82
252.89	3139.54
253.11	2709.46
253.33	3049.43
253.54	3577.80
253.76	3053.52
253.98	2895.83
254.20	2787.29
254.41	3008.47
254.63	3270.61
254.85	2721.75
255.06	3047.38
255.28	3309.52
255.50	3276.75
255.71	2826.20
255.93	2736.09
256.15	3205.07
256.36	3338.19
256.58	2682.84
256.80	2844.63
257.02	3188.69
257.23	3223.50
257.45	2906.07
257.67	3049.43
257.88	3209.17
258.10	3409.87
258.32	2858.96
258.53	2871.25
258.75	3573.71
258.97	3153.87
259.18	2813.91
259.40	2785.24
259.62	3626.95
259.83	3567.56
260.05	2936.79
260.27	3686.34
260.48	3395.53
260.70	3133.39
260.92	2783.19
261.13	2871.25
261.35	3321.81
261.57	3315.66
261.78	2770.90
262.00	2826.20
262.22	3354.57
262.43	3114.96
262.65	2861.01
262.86	2885.59
263.08	3778.50
263.30	3213.26
263.51	2594.78
263.73	2797.53
263.95	3620.81
264.16	3153.87
264.38	2783.19
264.60	2838.48
264.81	3235.79
265.03	3530.70
265.25	3289.04
265.46	2867.16
265.68	3512.27
265.89	3356.62
266.11	2693.08
266.33	2789.33
266.54	3534.79
266.76	3303.37
266.98	3000.27
267.19	3059.67
267.41	3530.70
267.62	3291.09
267.84	2633.69
268.06	2969.55
268.27	3254.22
268.49	3465.16
268.70	2979.79
268.92	2904.02
269.14	3125.20
269.35	3108.82
269.57	2930.64
269.79	2916.31
270.00	3200.98
270.22	3641.29
270.43	2781.14
270.65	2734.04
270.87	3389.39
271.08	3442.64
271.30	2979.79
271.51	2867.16
271.73	3336.14
271.95	3545.03
272.16	2820.05
272.38	3076.05
272.59	3221.45
272.81	3366.86
273.02	2822.10
273.24	2983.89
273.46	3618.76
273.67	2985.94
273.89	2772.95
274.10	2848.72
274.32	3522.51
274.54	3266.51
274.75	2918.36
274.97	2969.55
275.18	3368.91
275.40	3379.15
275.61	2936.79
275.83	3045.33
276.05	3153.87
276.26	3291.09
276.48	3018.71
276.69	2990.03
276.91	3186.64
277.12	3596.23
277.34	3114.96
277.55	3196.88
277.77	3297.23
277.99	3268.56
278.20	2977.75
278.42	2850.77
278.63	3090.38
278.85	3043.28
279.06	2918.36
279.28	3123.15
279.49	3481.55
279.71	3467.21
279.93	3059.67
280.14	3000.27
280.36	3104.72
280.57	3440.59
280.79	3049.43
281.00	2887.64
281.22	3241.93
281.43	3520.46
281.65	2734.04
281.86	2803.67
282.08	3358.67
282.29	3721.16
282.51	2848.72
282.73	2867.16
282.94	2979.79
283.16	3473.36
283.37	3020.75
283.59	2951.12
283.80	3422.16
284.02	3286.99
284.23	3065.81
284.45	3000.27
284.66	3145.68
284.88	3090.38
285.09	2971.60
285.31	3102.67
285.52	3309.52
285.74	2967.51
285.95	3188.69
286.17	3014.61
286.38	3463.12
286.60	3119.06
286.81	2906.07
287.03	2963.41
287.24	3182.54
287.46	3352.52
287.67	3110.86
287.89	3266.51
288.10	3309.52
288.32	3325.90
288.53	3139.54
288.75	3061.71
288.96	3463.12
289.18	3147.73
289.39	2922.45
289.61	3092.43
289.82	3758.02
290.04	3657.67
290.25	2846.68
290.47	3010.51
290.68	3246.03
290.90	3467.21
291.11	2803.67
291.33	3155.92
291.54	3080.14
291.76	3149.78
291.97	3166.16
292.18	3028.95
292.40	3270.61
292.61	3176.40
292.83	3246.03
293.04	3026.90
293.26	3266.51
293.47	3200.98
293.69	2861.01
293.90	2879.44
294.12	3545.03
294.33	3229.65
294.55	2996.18
294.76	3145.68
294.97	3491.79
295.19	3747.78
295.40	3047.38
295.62	3057.62
295.83	3383.24
296.05	3133.39
296.26	3258.32
296.48	2998.23
296.69	3301.33
296.90	3282.89
297.12	3139.54
297.33	3221.45
297.55	3262.41
297.76	3346.38
297.98	3127.25
298.19	3166.16
298.41	3225.55
298.62	3033.04
298.83	3217.36
299.05	3078.10
299.26	3284.94
299.48	3141.58
299.69	3080.14
299.90	2975.70
300.12	3123.15
300.33	3379.15
300.55	3018.71
300.76	3065.81
300.98	3110.86
301.19	3456.97
301.40	3002.32
301.62	3012.56
301.83	3325.90
302.05	3325.90
302.26	2992.08
302.47	3123.15
302.69	3106.77
302.90	3266.51
303.12	2828.24
303.33	3078.10
303.54	3649.48
303.76	3153.87
303.97	2938.84
304.19	3074.00
304.40	3094.48
304.61	3381.20
304.83	3065.81
305.04	3037.14
305.26	3422.16
305.47	3182.54
305.68	2971.60
305.90	2912.21
306.11	3616.71
306.33	3260.37
306.54	2820.05
306.75	3045.33
306.97	3002.32
307.18	3149.78
307.39	3008.47
307.61	3123.15
307.82	3246.03
308.04	3428.30
308.25	2901.97
308.46	3123.15
308.68	3266.51
308.89	3323.85
309.10	3098.58
309.32	2953.17
309.53	3239.89
309.74	3436.49
309.96	2934.74
310.17	3166.16
310.39	3188.69
310.60	3360.72
310.81	3037.14
311.03	2996.18
311.24	3413.96
311.45	3239.89
311.67	3293.13
311.88	3125.20
312.09	3274.70
312.31	3114.96
312.52	2926.55
312.73	3020.75
312.95	3018.71
313.16	3086.29
313.37	3194.83
313.59	3237.84
313.80	3469.26
314.01	3590.09
314.23	3028.95
314.44	2967.51
314.65	3020.75
314.87	3164.11
315.08	3041.23
315.29	2994.13
315.51	3053.52
315.72	3049.43
315.93	3047.38
316.15	3008.47
316.36	3108.82
316.57	3346.38
316.79	3002.32
317.00	2949.08
317.21	3358.67
317.43	3039.19
317.64	3041.23
317.85	2959.31
318.07	3139.54
318.28	3184.59
318.49	3106.77
318.70	3256.27
318.92	3409.87
319.13	3321.81
319.34	3221.45
319.56	2967.51
319.77	3387.34
319.98	3411.92
320.20	3303.37
320.41	3172.30
320.62	3416.01
320.83	3049.43
321.05	3180.50
321.26	3071.95
321.47	3270.61
321.69	3573.71
321.90	2897.88
322.11	2967.51
322.32	3379.15
322.54	3600.33
322.75	3078.10
322.96	4073.41
323.18	2983.89
323.39	2844.63
323.60	2873.30
323.81	3074.00
324.03	3178.45
324.24	3196.88
324.45	3114.96
324.66	2863.06
324.88	3557.32
325.09	3555.27
325.30	2963.41
325.52	2914.26
325.73	3377.10
325.94	3135.44
326.15	2840.53
326.37	2914.26
326.58	3346.38
326.79	3555.27
327.00	2959.31
327.22	3033.04
327.43	3270.61
327.64	3094.48
327.85	3166.16
328.07	3051.47
328.28	3706.82
328.49	3211.22
328.70	2926.55
328.92	2992.08
329.13	3260.37
329.34	3321.81
329.55	3207.12
329.76	3117.01
329.98	3207.12
330.19	3481.55
330.40	3129.30
330.61	3121.10
330.83	3456.97
331.04	3086.29
331.25	3045.33
331.46	3014.61
331.68	3000.27
331.89	3442.64
332.10	3030.99
332.31	2844.63
332.52	3301.33
332.74	3526.60
332.95	2893.78
333.16	2992.08
333.37	3438.54
333.58	3178.45
333.80	3018.71
334.01	2760.66
334.22	3278.80
334.43	3256.27
334.64	2910.16
334.86	2992.08
335.07	3100.62
335.28	3604.42
335.49	2881.49
335.70	3076.05
335.92	3649.48
336.13	3706.82
336.34	3108.82
336.55	3069.91
336.76	3397.58
336.98	2887.64
337.19	3037.14
337.40	3108.82
337.61	3844.04
337.82	3237.84
338.04	3041.23
338.25	2846.68
338.46	3235.79
338.67	3233.74
338.88	2938.84
339.09	2942.93
339.31	3145.68
339.52	2998.23
339.73	2904.02
339.94	3076.05
340.15	3444.68
340.36	3221.45
340.58	3002.32
340.79	2887.64
341.00	3403.72
341.21	3090.38
341.42	3233.74
341.63	2994.13
341.85	3463.12
342.06	3385.29
342.27	2920.40
342.48	3178.45
342.69	3006.42
342.90	3379.15
343.12	3377.10
343.33	2983.89
343.54	3413.96
343.75	3674.06
343.96	3096.53
344.17	2942.93
344.38	3286.99
344.60	3090.38
344.81	2942.93
345.02	2926.55
345.23	3545.03
345.44	3872.71
345.65	3119.06
345.86	3112.91
346.07	3348.43
346.29	3147.73
346.50	3172.30
346.71	3057.62
346.92	3502.03
347.13	3700.68
347.34	3078.10
347.55	2901.97
347.76	3461.07
347.98	2963.41
348.19	3100.62
348.40	3184.59
348.61	3147.73
348.82	3598.28
349.03	3045.33
349.24	2899.92
349.45	3676.10
349.66	2881.49
349.88	2947.03
350.09	2953.17
350.30	3581.90
350.51	3561.42
350.72	3280.85
350.93	3010.51
351.14	3303.37
351.35	3346.38
351.56	3004.37
351.77	3063.76
351.99	3426.25
352.20	3540.94
352.41	3114.96
352.62	2801.62
352.83	3282.89
353.04	3260.37
353.25	2932.69
353.46	2985.94
353.67	3516.36
353.88	2908.12
354.09	2924.50
354.30	3022.80
354.52	3350.48
354.73	3286.99
354.94	3063.76
355.15	3026.90
355.36	3655.62
355.57	3014.61
355.78	2934.74
355.99	2930.64
356.20	3178.45
356.41	3538.89
356.62	3137.49
356.83	2987.99
357.04	3565.51
357.25	2901.97
357.46	3069.91
357.68	2815.96
357.89	3129.30
358.10	3186.64
358.31	2992.08
358.52	2990.03
358.73	3106.77
358.94	3045.33
359.15	2998.23
359.36	3043.28
359.57	3317.71
359.78	3223.50
359.99	3180.50
360.20	2869.20
360.41	3256.27
360.62	3405.77
360.83	3041.23
361.04	3037.14
361.25	3319.76
361.46	3545.03
361.67	3164.11
361.88	3049.43
362.09	3475.40
362.30	3352.52
362.51	2920.40
362.72	3063.76
362.93	3481.55
363.14	3350.48
363.35	3145.68
363.56	2944.98
363.78	3616.71
363.99	3510.22
364.20	2985.94
364.41	3051.47
364.62	3659.72
364.83	3368.91
365.04	3037.14
365.25	3041.23
365.46	3684.30
365.67	3190.74
365.88	3160.02
366.09	2893.78
366.30	3190.74
366.51	3207.12
366.72	2949.08
366.93	3010.51
367.14	3409.87
367.35	3499.98
367.56	2947.03
367.77	3157.97
367.98	3262.41
368.18	3409.87
368.39	3114.96
368.60	2951.12
368.81	3395.53
369.02	3354.57
369.23	3051.47
369.44	2838.48
369.65	3248.08
369.86	3321.81
370.07	3127.25
370.28	2820.05
370.49	3364.81
370.70	3397.58
370.91	2981.84
371.12	2865.11
371.33	3452.88
371.54	3094.48
371.75	3059.67
371.96	2691.03
372.17	3295.18
372.38	3270.61
372.59	2996.18
372.80	2967.51
373.01	3250.13
373.22	3416.01
373.43	3080.14
373.64	2975.70
373.85	3545.03
374.06	3610.57
374.26	3211.22
374.47	3092.43
374.68	3567.56
374.89	3297.23
375.10	2895.83
375.31	3102.67
375.52	3205.07
375.73	3254.22
375.94	2801.62
376.15	3106.77
376.36	3170.26
376.57	3098.58
376.78	3018.71
376.99	3065.81
377.20	3620.81
377.40	3125.20
377.61	3336.14
377.82	2975.70
378.03	3549.13
378.24	3342.28
378.45	3114.96
378.66	3135.44
378.87	2912.21
379.08	3020.75
379.29	3020.75
379.50	3170.26
379.71	3221.45
379.91	3420.11
380.12	2949.08
380.33	3096.53
380.54	3188.69
380.75	3266.51
380.96	3035.09
381.17	3026.90
381.38	3213.26
381.59	3248.08
381.80	3100.62
382.00	3207.12
382.21	3246.03
382.42	3604.42
382.63	3465.16
382.84	3155.92
383.05	3395.53
383.26	3499.98
383.47	3164.11
383.68	2975.70
383.88	3397.58
384.09	3370.96
384.30	3270.61
384.51	3110.86
384.72	3215.31
384.93	3049.43
385.14	3139.54
385.35	3248.08
385.55	3016.66
385.76	3581.90
385.97	3071.95
386.18	2869.20
386.39	3061.71
386.60	3110.86
386.81	2975.70
387.02	2928.60
387.22	2957.27
387.43	3424.20
387.64	3080.14
387.85	3293.13
388.06	3368.91
388.27	4294.59
388.48	7841.67
388.68	12087.11
388.89	14808.86
389.10	16054.03
389.31	15912.72
389.52	12975.93
389.73	11269.97
389.93	10401.63
390.14	9181.04
390.35	8439.68
390.56	7911.30
390.77	6629.27
390.98	5019.57
391.18	4151.23
391.39	3923.91
391.60	3356.62
391.81	3229.65
392.02	3037.14
392.23	3772.36
392.43	3364.81
392.64	3143.63
392.85	3106.77
393.06	3626.95
393.27	3299.28
393.47	2992.08
393.68	3059.67
393.89	3196.88
394.10	3545.03
394.31	3016.66
394.52	3004.37
394.72	3139.54
394.93	3581.90
395.14	2869.20
395.35	3184.59
395.56	3143.63
395.76	3198.93
395.97	2983.89
396.18	3108.82
396.39	3354.57
396.60	3968.96
396.80	3436.49
397.01	3272.65
397.22	3418.06
397.43	3510.22
397.64	3006.42
397.84	3026.90
398.05	3680.20
398.26	3276.75
398.47	3119.06
398.67	3276.75
398.88	3258.32
399.09	3407.82
399.30	3028.95
399.51	3098.58
399.71	3139.54
399.92	3276.75
400.13	3092.43
400.34	2985.94
400.54	3319.76
400.75	3579.85
400.96	3237.84
401.17	3356.62
401.37	3418.06
401.58	3192.78
401.79	3055.57
402.00	3180.50
402.21	3753.93
402.41	3461.07
402.62	3319.76
402.83	3551.18
403.04	3739.59
403.24	4093.89
403.45	3190.74
403.66	3340.24
403.87	3436.49
404.07	3645.38
404.28	3252.17
404.49	3381.20
404.70	3430.35
404.90	3418.06
405.11	3041.23
405.32	3166.16
405.52	3125.20
405.73	3203.02
405.94	2967.51
406.15	3090.38
406.35	3469.26
406.56	3416.01
406.77	3153.87
406.98	3063.76
407.18	3137.49
407.39	3557.32
407.60	3065.81
407.80	3098.58
408.01	3168.21
408.22	3350.48
408.43	2983.89
408.63	3172.30
408.84	3459.02
409.05	3508.17
409.25	2938.84
409.46	3037.14
409.67	3235.79
409.88	3153.87
410.08	3082.19
410.29	3002.32
410.50	3471.31
410.70	3379.15
410.91	2979.79
411.12	3112.91
411.32	3299.28
411.53	3033.04
411.74	3045.33
411.95	3137.49
412.15	3286.99
412.36	3465.16
412.57	3215.31
412.77	3303.37
412.98	3256.27
413.19	3221.45
413.39	3123.15
413.60	3139.54
413.81	3616.71
414.01	2965.46
414.22	3041.23
414.43	3291.09
414.63	3145.68
414.84	3418.06
415.05	3067.86
415.25	2908.12
415.46	3461.07
415.67	3155.92
415.87	3059.67
416.08	3014.61
416.29	3178.45
416.49	3336.14
416.70	3117.01
416.91	3049.43
417.11	3246.03
417.32	3481.55
417.53	3149.78
417.73	3180.50
417.94	3272.65
418.15	3389.39
418.35	3082.19
418.56	3100.62
418.77	3737.54
418.97	3334.09
419.18	3139.54
419.38	2729.94
419.59	3297.23
419.80	3585.99
420.00	3008.47
420.21	3094.48
420.42	3577.80
420.62	3391.44
420.83	2959.31
421.04	3010.51
421.24	3270.61
421.45	3420.11
421.65	3055.57
421.86	3061.71
422.07	3450.83
422.27	3346.38
422.48	2951.12
422.69	2840.53
422.89	3295.18
423.10	3125.20
423.30	2967.51
423.51	3078.10
423.72	3327.95
423.92	3499.98
424.13	2951.12
424.33	3131.34
424.54	3405.77
424.75	3256.27
424.95	3307.47
425.16	2996.18
425.36	3166.16
425.57	3499.98
425.78	3239.89
425.98	3182.54
426.19	3270.61
426.39	3061.71
426.60	3164.11
426.81	3248.08
427.01	3243.98
427.22	3057.62
427.42	2852.82
427.63	3022.80
427.83	3377.10
428.04	3606.47
428.25	3098.58
428.45	3170.26
428.66	3502.03
428.86	3172.30
429.07	3119.06
429.28	3061.71
429.48	3297.23
429.69	3141.58
429.89	3178.45
430.10	2951.12
430.30	3381.20
430.51	3444.68
430.71	2949.08
430.92	3088.34
431.13	3172.30
431.33	3317.71
431.54	3123.15
431.74	3301.33
431.95	3753.93
432.15	3131.34
432.36	3000.27
432.56	3076.05
432.77	3723.21
432.98	3682.25
433.18	3119.06
433.39	2959.31
433.59	3241.93
433.80	3749.83
434.00	3262.41
434.21	3057.62
434.41	3194.83
434.62	3737.54
434.82	2951.12
435.03	2965.46
435.23	3375.05
435.44	2934.74
435.64	2983.89
435.85	3090.38
436.06	3434.44
436.26	3487.69
436.47	3082.19
436.67	2985.94
436.88	3200.98
437.08	3426.25
437.29	3188.69
437.49	3174.35
437.70	3577.80
437.90	3262.41
438.11	3338.19
438.31	3125.20
438.52	3495.88
438.72	3499.98
438.93	3416.01
439.13	3139.54
439.34	3516.36
439.54	3219.41
439.75	3190.74
439.95	3145.68
440.16	3106.77
440.36	3254.22
440.57	3098.58
440.77	2977.75
440.98	3313.61
441.18	3393.48
441.39	2992.08
441.59	3012.56
441.80	3776.45
442.00	3264.46
442.21	3174.35
442.41	2922.45
442.62	3487.69
442.82	3157.97
443.02	3067.86
443.23	3110.86
443.43	3256.27
443.64	3626.95
443.84	2987.99
444.05	3098.58
444.25	3311.57
444.46	3123.15
444.66	3000.27
444.87	3278.80
445.07	2947.03
445.28	3178.45
445.48	3188.69
445.69	3149.78
445.89	3760.07
446.09	3160.02
446.30	3327.95
446.50	3516.36
446.71	5048.24
446.91	6328.22
447.12	7133.08
447.32	7616.40
447.53	7518.09
447.73	6367.13
447.93	5470.12
448.14	5224.37
448.34	5490.60
448.55	4476.86
448.75	4478.91
448.96	4292.54
449.16	4118.47
449.36	3899.33
449.57	3379.15
449.77	3188.69
449.98	3246.03
450.18	3373.00
450.39	3014.61
450.59	3196.88
450.79	3231.69
451.00	3088.34
451.20	3272.65
451.41	2940.88
451.61	3395.53
451.81	3235.79
452.02	2979.79
452.22	3012.56
452.43	3188.69
