SpectraSuite Data File
++++++++++++++++++++++++++++++++++++
Date: Fri May 06 08:14:34 CEST 2016
User: root
Dark Spectrum Present: No
Reference Spectrum Present: No
Number of Sampled Component Spectra: 1
Spectrometers: USB4C02835
Integration Time (usec): 100000 (USB4C02835)
Spectra Averaged: 1 (USB4C02835)
Boxcar Smoothing: 0 (USB4C02835)
Correct for Electrical Dark: No (USB4C02835)
Strobe/Lamp Enabled: No (USB4C02835)
Correct for Detector Non-linearity: No (USB4C02835)
Correct for Stray Light: No (USB4C02835)
Number of Pixels in Processed Spectrum: 3648
>>>>>Begin Processed Spectral Data<<<<<
177.47	2207.71
177.69	2207.71
177.91	2207.71
178.13	2301.92
178.36	2246.62
178.58	3022.80
178.80	3160.02
179.02	2983.89
179.24	3059.67
179.46	2756.57
179.68	2869.20
179.90	3270.61
180.13	3370.96
180.35	2656.22
180.57	2750.42
180.79	3405.77
181.01	3192.78
181.23	2965.46
181.45	2994.13
181.67	3373.00
181.90	3469.26
182.12	2947.03
182.34	2682.84
182.56	3305.42
182.78	3393.48
183.00	2791.38
183.22	2901.97
183.44	2879.44
183.66	3977.16
183.89	2985.94
184.11	2947.03
184.33	3461.07
184.55	3491.79
184.77	2838.48
184.99	2897.88
185.21	3237.84
185.43	3719.11
185.65	2942.93
185.87	2901.97
186.10	3796.93
186.32	3688.39
186.54	3033.04
186.76	2918.36
186.98	3422.16
187.20	3243.98
187.42	2942.93
187.64	2797.53
187.86	3393.48
188.08	3475.40
188.30	2777.05
188.52	2858.96
188.75	3577.80
188.97	3542.99
189.19	2785.24
189.41	2836.44
189.63	3373.00
189.85	3264.46
190.07	2772.95
190.29	2707.41
190.51	3291.09
190.73	3024.85
190.95	3098.58
191.17	2871.25
191.39	2992.08
191.61	3348.43
191.84	2883.54
192.06	2987.99
192.28	2891.73
192.50	3868.61
192.72	2987.99
192.94	2994.13
193.16	3631.05
193.38	3342.28
193.60	2807.77
193.82	2981.84
194.04	3616.71
194.26	3389.39
194.48	2815.96
194.70	2901.97
194.92	3233.74
195.14	3432.40
195.36	2820.05
195.58	2957.27
195.80	3286.99
196.02	3248.08
196.24	2830.29
196.46	3012.56
196.69	3129.30
196.91	3784.65
197.13	2899.92
197.35	2987.99
197.57	3659.72
197.79	3358.67
198.01	2934.74
198.23	2861.01
198.45	3366.86
198.67	3074.00
198.89	2695.13
199.11	2967.51
199.33	3108.82
199.55	2846.68
199.77	2756.57
199.99	3074.00
200.21	3213.26
200.43	3379.15
200.65	2688.98
200.87	2758.61
201.09	3252.17
201.31	3246.03
201.53	2895.83
201.75	2920.40
201.97	3352.52
202.19	3274.70
202.41	2897.88
202.63	3000.27
202.85	3459.02
203.07	3362.76
203.29	2932.69
203.51	2832.34
203.73	3135.44
203.95	3827.65
204.17	2785.24
204.39	2987.99
204.61	3231.69
204.83	3145.68
205.05	3035.09
205.27	2897.88
205.49	3751.88
205.71	3336.14
205.93	2766.81
206.15	2713.56
206.37	3280.85
206.59	3293.13
206.81	2711.51
207.03	2795.48
207.25	3125.20
207.47	3436.49
207.69	2813.91
207.91	2985.94
208.13	3577.80
208.34	3139.54
208.56	2822.10
208.78	2865.11
209.00	3246.03
209.22	3172.30
209.44	2930.64
209.66	2852.82
209.88	3323.85
210.10	3188.69
210.32	2854.87
210.54	3000.27
210.76	3184.59
210.98	3514.31
211.20	2668.50
211.42	3030.99
211.64	3622.86
211.86	3413.96
212.08	2920.40
212.30	2918.36
212.52	3225.55
212.74	3393.48
212.96	3043.28
213.17	2942.93
213.39	3459.02
213.61	3600.33
213.83	2920.40
214.05	2731.99
214.27	3497.93
214.49	3098.58
214.71	2717.65
214.93	3037.14
215.15	3356.62
215.37	3538.89
215.59	2717.65
215.81	2955.22
216.03	3575.75
216.24	3207.12
216.46	2801.62
216.68	2938.84
216.90	3508.17
217.12	3510.22
217.34	2914.26
217.56	3024.85
217.78	3571.66
218.00	3407.82
218.22	2942.93
218.44	3041.23
218.66	3276.75
218.87	3606.47
219.09	2875.35
219.31	2953.17
219.53	3356.62
219.75	3203.02
219.97	2963.41
220.19	2889.68
220.41	3295.18
220.63	3610.57
220.85	2904.02
221.06	2883.54
221.28	3596.23
221.50	3411.92
221.72	2799.57
221.94	2783.19
222.16	3332.05
222.38	3426.25
222.60	2789.33
222.82	2944.98
223.03	3561.42
223.25	3024.85
223.47	2793.43
223.69	3084.24
223.91	3395.53
224.13	3272.65
224.35	2742.23
224.57	3018.71
224.78	3428.30
225.00	3082.19
225.22	3055.57
225.44	2832.34
225.66	3405.77
225.88	3164.11
226.10	3024.85
226.32	2899.92
226.53	3606.47
226.75	3209.17
226.97	2899.92
227.19	2944.98
227.41	3213.26
227.63	3209.17
227.85	2709.46
228.06	2942.93
228.28	3239.89
228.50	3403.72
228.72	2799.57
228.94	2813.91
229.16	3018.71
229.37	3080.14
229.59	2770.90
229.81	3112.91
230.03	3151.82
230.25	3033.04
230.47	2639.83
230.69	2840.53
230.90	3479.50
231.12	3155.92
231.34	3045.33
231.56	2996.18
231.78	3133.39
232.00	3237.84
232.21	2885.59
232.43	2910.16
232.65	2836.44
232.87	3375.05
233.09	2668.50
233.30	2809.81
233.52	3502.03
233.74	3233.74
233.96	2777.05
234.18	2981.84
234.40	3237.84
234.61	3764.17
234.83	2756.57
235.05	2848.72
235.27	3782.60
235.49	3411.92
235.70	2750.42
235.92	2875.35
236.14	3395.53
236.36	3819.46
236.58	2783.19
236.79	2994.13
237.01	3280.85
237.23	3190.74
237.45	3147.73
237.67	2904.02
237.88	3286.99
238.10	3676.10
238.32	2752.47
238.54	2754.52
238.76	3297.23
238.97	3139.54
239.19	2779.09
239.41	2920.40
239.63	3532.75
239.85	3172.30
240.06	2885.59
240.28	2852.82
240.50	3473.36
240.72	3379.15
240.93	2789.33
241.15	2959.31
241.37	3235.79
241.59	3495.88
241.81	2928.60
242.02	3057.62
242.24	3338.19
242.46	3364.81
242.68	2672.60
242.89	2791.38
243.11	3495.88
243.33	3256.27
243.55	2893.78
243.76	2887.64
243.98	3112.91
244.20	3295.18
244.42	2856.92
244.64	2830.29
244.85	3041.23
245.07	3035.09
245.29	2854.87
245.51	2930.64
245.72	3327.95
245.94	3520.46
246.16	2820.05
246.38	2922.45
246.59	3217.36
246.81	3133.39
247.03	2787.29
247.24	2715.61
247.46	3225.55
247.68	3258.32
247.90	2852.82
248.11	2887.64
248.33	3454.92
248.55	3262.41
248.77	2897.88
248.98	2955.22
249.20	3557.32
249.42	3352.52
249.64	2850.77
249.85	2820.05
250.07	3233.74
250.29	3395.53
250.50	2938.84
250.72	2766.81
250.94	3360.72
251.16	3674.06
251.37	2813.91
251.59	2922.45
251.81	3479.50
252.02	3614.66
252.24	2727.89
252.46	3016.66
252.68	3082.19
252.89	3168.21
253.11	2756.57
253.33	3028.95
253.54	3610.57
253.76	3092.43
253.98	2875.35
254.20	2832.34
254.41	3008.47
254.63	3243.98
254.85	2734.04
255.06	2852.82
255.28	3393.48
255.50	3278.80
255.71	2861.01
255.93	2691.03
256.15	3241.93
256.36	3403.72
256.58	2674.65
256.80	2783.19
257.02	3246.03
257.23	3200.98
257.45	2922.45
257.67	2949.08
257.88	3170.26
258.10	3284.94
258.32	2893.78
258.53	2959.31
258.75	3620.81
258.97	3131.34
259.18	2793.43
259.40	2793.43
259.62	3610.57
259.83	3581.90
260.05	2848.72
260.27	3794.89
260.48	3573.71
260.70	3110.86
260.92	2777.05
261.13	2928.60
261.35	3231.69
261.57	3254.22
261.78	2740.18
262.00	2797.53
262.22	3389.39
262.43	3168.21
262.65	2897.88
262.86	2936.79
263.08	3721.16
263.30	3295.18
263.51	2697.17
263.73	2772.95
263.95	3715.02
264.16	3151.82
264.38	2672.60
264.60	2793.43
264.81	3280.85
265.03	3502.03
265.25	3454.92
265.46	2820.05
265.68	3602.38
265.89	3452.88
266.11	2764.76
266.33	2818.00
266.54	3493.83
266.76	3311.57
266.98	2992.08
267.19	3074.00
267.41	3512.27
267.62	3272.65
267.84	2660.31
268.06	2975.70
268.27	3295.18
268.49	3467.21
268.70	2922.45
268.92	2897.88
269.14	3125.20
269.35	3061.71
269.57	2973.65
269.79	2959.31
270.00	3172.30
270.22	3581.90
270.43	2725.85
270.65	2668.50
270.87	3352.52
271.08	3424.20
271.30	2975.70
271.51	2873.30
271.73	3360.72
271.95	3565.51
272.16	2832.34
272.38	2944.98
272.59	3166.16
272.81	3368.91
273.02	2861.01
273.24	2934.74
273.46	3479.50
273.67	3049.43
273.89	2740.18
274.10	2828.24
274.32	3514.31
274.54	3434.44
274.75	2979.79
274.97	2969.55
275.18	3379.15
275.40	3309.52
275.61	2891.73
275.83	3053.52
276.05	2994.13
276.26	3223.50
276.48	2957.27
276.69	2963.41
276.91	3268.56
277.12	3616.71
277.34	3033.04
277.55	3162.06
277.77	3262.41
277.99	3207.12
278.20	2981.84
278.42	2930.64
278.63	3147.73
278.85	3043.28
279.06	2969.55
279.28	3135.44
279.49	3491.79
279.71	3428.30
279.93	3016.66
280.14	3090.38
280.36	3092.43
280.57	3399.63
280.79	3051.47
281.00	2881.49
281.22	3121.10
281.43	3438.54
281.65	2803.67
281.86	2926.55
282.08	3338.19
282.29	3669.96
282.51	2824.15
282.73	2893.78
282.94	2877.40
283.16	3463.12
283.37	3061.71
283.59	3041.23
283.80	3389.39
284.02	3299.28
284.23	3018.71
284.45	2965.46
284.66	3020.75
284.88	3125.20
285.09	2987.99
285.31	3035.09
285.52	3428.30
285.74	3004.37
285.95	3190.74
286.17	3090.38
286.38	3461.07
286.60	3209.17
286.81	2996.18
287.03	2947.03
287.24	3139.54
287.46	3450.83
287.67	3100.62
287.89	3270.61
288.10	3356.62
288.32	3360.72
288.53	3129.30
288.75	3094.48
288.96	3411.92
289.18	3057.62
289.39	2981.84
289.61	2994.13
289.82	3762.12
290.04	3694.54
290.25	2861.01
290.47	3004.37
290.68	3276.75
290.90	3504.07
291.11	2848.72
291.33	3188.69
291.54	3155.92
291.76	3184.59
291.97	3098.58
292.18	3041.23
292.40	3129.30
292.61	3155.92
292.83	3246.03
293.04	3000.27
293.26	3327.95
293.47	3272.65
293.69	2975.70
293.90	2895.83
294.12	3631.05
294.33	3272.65
294.55	3047.38
294.76	3106.77
294.97	3569.61
295.19	3792.84
295.40	3067.86
295.62	3102.67
295.83	3512.27
296.05	3071.95
296.26	3303.37
296.48	3053.52
296.69	3231.69
296.90	3319.76
297.12	3180.50
297.33	3153.87
297.55	3276.75
297.76	3323.85
297.98	3030.99
298.19	3166.16
298.41	3256.27
298.62	3074.00
298.83	3172.30
299.05	3059.67
299.26	3172.30
299.48	3080.14
299.69	3110.86
299.90	3071.95
300.12	3088.34
300.33	3313.61
300.55	2934.74
300.76	3071.95
300.98	3092.43
301.19	3405.77
301.40	3033.04
301.62	3051.47
301.83	3354.57
302.05	3272.65
302.26	2922.45
302.47	3057.62
302.69	3082.19
302.90	3336.14
303.12	2856.92
303.33	3145.68
303.54	3725.26
303.76	3262.41
303.97	2947.03
304.19	3176.40
304.40	3069.91
304.61	3342.28
304.83	3106.77
305.04	3147.73
305.26	3350.48
305.47	3155.92
305.68	3028.95
305.90	2942.93
306.11	3485.64
306.33	3262.41
306.54	2840.53
306.75	3045.33
306.97	2994.13
307.18	3080.14
307.39	3047.38
307.61	3057.62
307.82	3301.33
308.04	3276.75
308.25	2904.02
308.46	3235.79
308.68	3268.56
308.89	3303.37
309.10	3047.38
309.32	3078.10
309.53	3307.47
309.74	3334.09
309.96	2881.49
310.17	3164.11
310.39	3217.36
310.60	3315.66
310.81	3102.67
311.03	2916.31
311.24	3516.36
311.45	3334.09
311.67	3231.69
311.88	3108.82
312.09	3198.93
312.31	3239.89
312.52	2938.84
312.73	2938.84
312.95	3088.34
313.16	3123.15
313.37	3135.44
313.59	3157.97
313.80	3467.21
314.01	3647.43
314.23	3004.37
314.44	2979.79
314.65	3057.62
314.87	3141.58
315.08	2947.03
315.29	3041.23
315.51	3112.91
315.72	2983.89
315.93	3076.05
316.15	3035.09
316.36	3196.88
316.57	3305.42
316.79	3010.51
317.00	2865.11
317.21	3459.02
317.43	3160.02
317.64	3053.52
317.85	2877.40
318.07	3084.24
318.28	3149.78
318.49	3053.52
318.70	3239.89
318.92	3401.68
319.13	3266.51
319.34	3139.54
319.56	3002.32
319.77	3403.72
319.98	3448.78
320.20	3289.04
320.41	3157.97
320.62	3307.47
320.83	3018.71
321.05	3250.13
321.26	3041.23
321.47	3254.22
321.69	3434.44
321.90	2901.97
322.11	3002.32
322.32	3364.81
322.54	3557.32
322.75	3008.47
322.96	4157.38
323.18	3026.90
323.39	2877.40
323.60	2893.78
323.81	3039.19
324.03	3106.77
324.24	3270.61
324.45	3047.38
324.66	2926.55
324.88	3532.75
325.09	3624.90
325.30	2959.31
325.52	2887.64
325.73	3370.96
325.94	3080.14
326.15	2871.25
326.37	2877.40
326.58	3401.68
326.79	3645.38
327.00	2920.40
327.22	2852.82
327.43	3289.04
327.64	3090.38
327.85	3176.40
328.07	2930.64
328.28	3639.24
328.49	3086.29
328.70	3041.23
328.92	2928.60
329.13	3241.93
329.34	3286.99
329.55	3190.74
329.76	3141.58
329.98	3303.37
330.19	3493.83
330.40	3014.61
330.61	3076.05
330.83	3440.59
331.04	3112.91
331.25	3108.82
331.46	3090.38
331.68	3092.43
331.89	3520.46
332.10	2965.46
332.31	2861.01
332.52	3282.89
332.74	3436.49
332.95	2768.85
333.16	2951.12
333.37	3452.88
333.58	3076.05
333.80	2987.99
334.01	2760.66
334.22	3221.45
334.43	3209.17
334.64	2924.50
334.86	2963.41
335.07	3024.85
335.28	3629.00
335.49	2906.07
335.70	3037.14
335.92	3557.32
336.13	3743.69
336.34	3086.29
336.55	2971.60
336.76	3422.16
336.98	2934.74
337.19	3051.47
337.40	3041.23
337.61	3893.19
337.82	3174.35
338.04	3065.81
338.25	2766.81
338.46	3248.08
338.67	3186.64
338.88	2848.72
339.09	2850.77
339.31	3108.82
339.52	3035.09
339.73	2877.40
339.94	3037.14
340.15	3446.73
340.36	3192.78
340.58	3065.81
340.79	2920.40
341.00	3395.53
341.21	2994.13
341.42	3254.22
341.63	3057.62
341.85	3493.83
342.06	3299.28
342.27	2957.27
342.48	3215.31
342.69	3078.10
342.90	3375.05
343.12	3456.97
343.33	2891.73
343.54	3473.36
343.75	3514.31
343.96	3213.26
344.17	2912.21
344.38	3317.71
344.60	3135.44
344.81	2947.03
345.02	3051.47
345.23	3434.44
345.44	3798.98
345.65	3053.52
345.86	3059.67
346.07	3336.14
346.29	3137.49
346.50	3117.01
346.71	3102.67
346.92	3479.50
347.13	3669.96
347.34	3020.75
347.55	2934.74
347.76	3407.82
347.98	2967.51
348.19	3090.38
348.40	3155.92
348.61	3237.84
348.82	3559.37
349.03	3049.43
349.24	2940.88
349.45	3637.19
349.66	2875.35
349.88	2949.08
350.09	2899.92
350.30	3557.32
350.51	3540.94
350.72	3157.97
350.93	2955.22
351.14	3112.91
351.35	3383.24
351.56	3028.95
351.77	3051.47
351.99	3430.35
352.20	3614.66
352.41	3162.06
352.62	2852.82
352.83	3239.89
353.04	3256.27
353.25	3016.66
353.46	3016.66
353.67	3430.35
353.88	2904.02
354.09	2985.94
354.30	3037.14
354.52	3463.12
354.73	3217.36
354.94	2987.99
355.15	3104.72
355.36	3655.62
355.57	3184.59
355.78	2969.55
355.99	3006.42
356.20	3243.98
356.41	3542.99
356.62	3063.76
356.83	3067.86
357.04	3551.18
357.25	2996.18
357.46	2963.41
357.68	2822.10
357.89	3092.43
358.10	3289.04
358.31	3053.52
358.52	3016.66
358.73	3078.10
358.94	3164.11
359.15	2992.08
359.36	3010.51
359.57	3358.67
359.78	3307.47
359.99	3217.36
360.20	2920.40
360.41	3186.64
360.62	3379.15
360.83	3082.19
361.04	3024.85
361.25	3352.52
361.46	3622.86
361.67	3061.71
361.88	2983.89
362.09	3471.31
362.30	3291.09
362.51	2940.88
362.72	3049.43
362.93	3461.07
363.14	3405.77
363.35	3076.05
363.56	2930.64
363.78	3598.28
363.99	3401.68
364.20	2975.70
364.41	3090.38
364.62	3655.62
364.83	3426.25
365.04	2944.98
365.25	2979.79
365.46	3692.49
365.67	3102.67
365.88	3170.26
366.09	2959.31
366.30	3225.55
366.51	3297.23
366.72	2959.31
366.93	2959.31
367.14	3352.52
367.35	3581.90
367.56	2856.92
367.77	3030.99
367.98	3231.69
368.18	3325.90
368.39	3131.34
368.60	2994.13
368.81	3438.54
369.02	3309.52
369.23	3053.52
369.44	2951.12
369.65	3157.97
369.86	3338.19
370.07	3112.91
370.28	2893.78
370.49	3405.77
370.70	3356.62
370.91	2928.60
371.12	2924.50
371.33	3506.12
371.54	3135.44
371.75	3084.24
371.96	2738.13
372.17	3291.09
372.38	3280.85
372.59	3022.80
372.80	2961.36
373.01	3252.17
373.22	3319.76
373.43	3004.37
373.64	2863.06
373.85	3512.27
374.06	3610.57
374.26	3110.86
374.47	3127.25
374.68	3624.90
374.89	3348.43
375.10	2969.55
375.31	3074.00
375.52	3362.76
375.73	3401.68
375.94	2897.88
376.15	3160.02
376.36	3164.11
376.57	3135.44
376.78	3018.71
376.99	3037.14
377.20	3512.27
377.40	3131.34
377.61	3266.51
377.82	3000.27
378.03	3491.79
378.24	3450.83
378.45	3147.73
378.66	3074.00
378.87	2928.60
379.08	3000.27
379.29	3018.71
379.50	3186.64
379.71	3303.37
379.91	3407.82
380.12	3018.71
380.33	3078.10
380.54	3241.93
380.75	3344.33
380.96	2969.55
381.17	3065.81
381.38	3248.08
381.59	3313.61
381.80	3069.91
382.00	3258.32
382.21	3291.09
382.42	3561.42
382.63	3405.77
382.84	3182.54
383.05	3459.02
383.26	3475.40
383.47	3166.16
383.68	2973.65
383.88	3381.20
384.09	3278.80
384.30	3256.27
384.51	3155.92
384.72	3200.98
384.93	3088.34
385.14	3102.67
385.35	3295.18
385.55	2992.08
385.76	3512.27
385.97	2947.03
386.18	2863.06
386.39	3110.86
386.60	3123.15
386.81	3004.37
387.02	2897.88
387.22	2967.51
387.43	3411.92
387.64	3074.00
387.85	3295.18
388.06	3368.91
388.27	4345.79
388.48	7710.60
388.68	11745.10
388.89	14890.78
389.10	16279.30
389.31	15693.58
389.52	12805.95
389.73	11114.33
389.93	10162.02
390.14	9373.55
390.35	8384.38
390.56	7927.69
390.77	6563.74
390.98	4947.89
391.18	4198.34
391.39	3954.63
391.60	3352.52
391.81	3278.80
392.02	3035.09
392.23	3803.08
392.43	3344.33
392.64	3149.78
392.85	3207.12
393.06	3622.86
393.27	3301.33
393.47	2975.70
393.68	3147.73
393.89	3166.16
394.10	3465.16
394.31	2916.31
394.52	2891.73
394.72	3157.97
394.93	3506.12
395.14	2932.69
395.35	3088.34
395.56	3090.38
395.76	3291.09
395.97	3022.80
396.18	3153.87
396.39	3229.65
396.60	3960.77
396.80	3321.81
397.01	3256.27
397.22	3399.63
397.43	3477.45
397.64	2973.65
397.84	3117.01
398.05	3669.96
398.26	3299.28
398.47	3205.07
398.67	3291.09
398.88	3270.61
399.09	3459.02
399.30	2979.79
399.51	3098.58
399.71	3110.86
399.92	3280.85
400.13	3078.10
400.34	2994.13
400.54	3319.76
400.75	3616.71
400.96	3233.74
401.17	3336.14
401.37	3381.20
401.58	3239.89
401.79	2969.55
402.00	3174.35
402.21	3758.02
402.41	3407.82
402.62	3463.12
402.83	3467.21
403.04	3690.44
403.24	4118.47
403.45	3170.26
403.66	3368.91
403.87	3483.59
404.07	3667.91
404.28	3280.85
404.49	3303.37
404.70	3336.14
404.90	3467.21
405.11	3065.81
405.32	3104.72
405.52	3196.88
405.73	3149.78
405.94	2977.75
406.15	3022.80
406.35	3420.11
406.56	3413.96
406.77	3106.77
406.98	2985.94
407.18	3209.17
407.39	3565.51
407.60	3084.24
407.80	3100.62
408.01	3198.93
408.22	3377.10
408.43	2922.45
408.63	3098.58
408.84	3442.64
409.05	3452.88
409.25	2936.79
409.46	3061.71
409.67	3217.36
409.88	3205.07
410.08	3047.38
410.29	3039.19
410.50	3483.59
410.70	3325.90
410.91	2953.17
411.12	3088.34
411.32	3319.76
411.53	3180.50
411.74	3127.25
411.95	3139.54
412.15	3297.23
412.36	3483.59
412.57	3203.02
412.77	3299.28
412.98	3276.75
413.19	3205.07
413.39	3104.72
413.60	3063.76
413.81	3581.90
414.01	3090.38
414.22	3041.23
414.43	3225.55
414.63	3246.03
414.84	3475.40
415.05	3026.90
415.25	2934.74
415.46	3483.59
415.67	3188.69
415.87	3131.34
416.08	3090.38
416.29	3223.50
416.49	3366.86
416.70	3145.68
416.91	3024.85
417.11	3211.22
417.32	3592.14
417.53	3139.54
417.73	3182.54
417.94	3291.09
418.15	3246.03
418.35	3071.95
418.56	3016.66
418.77	3790.79
418.97	3291.09
419.18	3170.26
419.38	2813.91
419.59	3264.46
419.80	3542.99
420.00	3002.32
420.21	3076.05
420.42	3581.90
420.62	3297.23
420.83	2934.74
421.04	3002.32
421.24	3237.84
421.45	3405.77
421.65	3084.24
421.86	3051.47
422.07	3456.97
422.27	3407.82
422.48	2963.41
422.69	2873.30
422.89	3200.98
423.10	3227.60
423.30	2996.18
423.51	3147.73
423.72	3360.72
423.92	3467.21
424.13	2918.36
424.33	3088.34
424.54	3526.60
424.75	3239.89
424.95	3309.52
425.16	3004.37
425.36	3260.37
425.57	3542.99
425.78	3168.21
425.98	3164.11
426.19	3262.41
426.39	3076.05
426.60	3102.67
426.81	3182.54
427.01	3274.70
427.22	3063.76
427.42	2891.73
427.63	3010.51
427.83	3463.12
428.04	3618.76
428.25	3110.86
428.45	3157.97
428.66	3491.79
428.86	3274.70
429.07	3067.86
429.28	3108.82
429.48	3225.55
429.69	3086.29
429.89	3139.54
430.10	2957.27
430.30	3411.92
430.51	3540.94
430.71	2942.93
430.92	3061.71
431.13	3215.31
431.33	3362.76
431.54	3160.02
431.74	3213.26
431.95	3745.73
432.15	3051.47
432.36	3041.23
432.56	3088.34
432.77	3717.06
432.98	3618.76
433.18	3096.53
433.39	2908.12
433.59	3241.93
433.80	3694.54
434.00	3233.74
434.21	3096.53
434.41	3157.97
434.62	3854.28
434.82	2951.12
435.03	3012.56
435.23	3393.48
435.44	2910.16
435.64	2963.41
435.85	3100.62
436.06	3391.44
436.26	3485.64
436.47	3045.33
436.67	2979.79
436.88	3209.17
437.08	3549.13
437.29	3157.97
437.49	3182.54
437.70	3590.09
437.90	3215.31
438.11	3291.09
438.31	3215.31
438.52	3635.14
438.72	3542.99
438.93	3461.07
439.13	3157.97
439.34	3461.07
439.54	3182.54
439.75	3141.58
439.95	3078.10
440.16	3127.25
440.36	3278.80
440.57	3092.43
440.77	3041.23
440.98	3282.89
441.18	3321.81
441.39	2879.44
441.59	2901.97
441.80	3680.20
442.00	3229.65
442.21	3180.50
442.41	2990.03
442.62	3467.21
442.82	3186.64
443.02	3086.29
443.23	3112.91
443.43	3295.18
443.64	3590.09
443.84	2967.51
444.05	3160.02
444.25	3319.76
444.46	3215.31
444.66	3067.86
444.87	3264.46
445.07	2885.59
445.28	3248.08
445.48	3153.87
445.69	3160.02
445.89	3923.91
446.09	3254.22
446.30	3352.52
446.50	3467.21
446.71	5064.63
446.91	6186.91
447.12	7073.68
447.32	7595.92
447.53	7661.45
447.73	6293.41
447.93	5588.91
448.14	5265.33
448.34	5468.08
448.55	4558.78
448.75	4405.18
448.96	4175.81
449.16	4022.21
449.36	3860.42
449.57	3356.62
449.77	3174.35
449.98	3162.06
450.18	3413.96
450.39	2967.51
450.59	3266.51
450.79	3256.27
451.00	3090.38
451.20	3317.71
451.41	3010.51
451.61	3373.00
451.81	3264.46
452.02	2994.13
452.22	3024.85
452.43	3205.07
