SpectraSuite Data File
++++++++++++++++++++++++++++++++++++
Date: Fri May 06 08:13:53 CEST 2016
User: root
Dark Spectrum Present: No
Reference Spectrum Present: No
Number of Sampled Component Spectra: 1
Spectrometers: USB4C02835
Integration Time (usec): 100000 (USB4C02835)
Spectra Averaged: 1 (USB4C02835)
Boxcar Smoothing: 0 (USB4C02835)
Correct for Electrical Dark: No (USB4C02835)
Strobe/Lamp Enabled: No (USB4C02835)
Correct for Detector Non-linearity: No (USB4C02835)
Correct for Stray Light: No (USB4C02835)
Number of Pixels in Processed Spectrum: 3648
>>>>>Begin Processed Spectral Data<<<<<
177.47	2322.40
177.69	2322.40
177.91	2322.40
178.13	2181.09
178.36	2166.75
178.58	2977.75
178.80	3057.62
179.02	3008.47
179.24	3057.62
179.46	2738.13
179.68	2811.86
179.90	3209.17
180.13	3303.37
180.35	2705.37
180.57	2838.48
180.79	3434.44
181.01	3278.80
181.23	2828.24
181.45	2959.31
181.67	3409.87
181.90	3485.64
182.12	2934.74
182.34	2721.75
182.56	3381.20
182.78	3399.63
183.00	2791.38
183.22	2863.06
183.44	2975.70
183.66	3958.72
183.89	2981.84
184.11	2850.77
184.33	3405.77
184.55	3575.75
184.77	2840.53
184.99	2813.91
185.21	3256.27
185.43	3803.08
185.65	2854.87
185.87	2813.91
186.10	3721.16
186.32	3786.69
186.54	2977.75
186.76	3069.91
186.98	3569.61
187.20	3227.60
187.42	2846.68
187.64	2826.20
187.86	3397.58
188.08	3518.41
188.30	2717.65
188.52	2912.21
188.75	3614.66
188.97	3516.36
189.19	2840.53
189.41	2758.61
189.63	3405.77
189.85	3243.98
190.07	2656.22
190.29	2766.81
190.51	3395.53
190.73	2961.36
190.95	3104.72
191.17	2893.78
191.39	3074.00
191.61	3213.26
191.84	2832.34
192.06	3074.00
192.28	2987.99
192.50	3999.68
192.72	2992.08
192.94	2953.17
193.16	3567.56
193.38	3375.05
193.60	2756.57
193.82	3030.99
194.04	3508.17
194.26	3303.37
194.48	2914.26
194.70	2846.68
194.92	3260.37
195.14	3428.30
195.36	2770.90
195.58	3018.71
195.80	3264.46
196.02	3219.41
196.24	2832.34
196.46	2936.79
196.69	3231.69
196.91	3753.93
197.13	2985.94
197.35	2918.36
197.57	3571.66
197.79	3391.44
198.01	2889.68
198.23	2914.26
198.45	3368.91
198.67	3078.10
198.89	2697.17
199.11	2932.69
199.33	3129.30
199.55	2922.45
199.77	2791.38
199.99	3053.52
200.21	3092.43
200.43	3360.72
200.65	2664.41
200.87	2660.31
201.09	3385.29
201.31	3190.74
201.53	2920.40
201.75	2926.55
201.97	3321.81
202.19	3231.69
202.41	2955.22
202.63	2985.94
202.85	3426.25
203.07	3428.30
203.29	2994.13
203.51	2783.19
203.73	3110.86
203.95	3925.96
204.17	2891.73
204.39	3084.24
204.61	3227.60
204.83	3149.78
205.05	3094.48
205.27	2906.07
205.49	3747.78
205.71	3254.22
205.93	2779.09
206.15	2775.00
206.37	3381.20
206.59	3248.08
206.81	2731.99
207.03	2772.95
207.25	3131.34
207.47	3366.86
207.69	2830.29
207.91	3112.91
208.13	3614.66
208.34	3114.96
208.56	2824.15
208.78	2897.88
209.00	3188.69
209.22	3160.02
209.44	2875.35
209.66	2795.48
209.88	3282.89
210.10	3237.84
210.32	2883.54
210.54	2906.07
210.76	3192.78
210.98	3524.55
211.20	2695.13
211.42	2994.13
211.64	3514.31
211.86	3481.55
212.08	2959.31
212.30	2910.16
212.52	3205.07
212.74	3409.87
212.96	2975.70
213.17	2932.69
213.39	3403.72
213.61	3565.51
213.83	2766.81
214.05	2770.90
214.27	3592.14
214.49	3076.05
214.71	2871.25
214.93	2987.99
215.15	3293.13
215.37	3524.55
215.59	2738.13
215.81	2918.36
216.03	3614.66
216.24	3282.89
216.46	2850.77
216.68	2871.25
216.90	3332.05
217.12	3426.25
217.34	2803.67
217.56	3065.81
217.78	3557.32
218.00	3409.87
218.22	2975.70
218.44	2967.51
218.66	3340.24
218.87	3665.86
219.09	2932.69
219.31	2844.63
219.53	3389.39
219.75	3229.65
219.97	2875.35
220.19	2828.24
220.41	3274.70
220.63	3551.18
220.85	2879.44
221.06	2897.88
221.28	3549.13
221.50	3368.91
221.72	2920.40
221.94	2715.61
222.16	3256.27
222.38	3389.39
222.60	2809.81
222.82	2940.88
223.03	3428.30
223.25	3061.71
223.47	2781.14
223.69	3119.06
223.91	3493.83
224.13	3270.61
224.35	2779.09
224.57	3020.75
224.78	3450.83
225.00	3074.00
225.22	2920.40
225.44	2867.16
225.66	3567.56
225.88	3164.11
226.10	2983.89
226.32	2877.40
226.53	3653.58
226.75	3209.17
226.97	2975.70
227.19	2877.40
227.41	3135.44
227.63	3151.82
227.85	2684.89
228.06	2955.22
228.28	3428.30
228.50	3450.83
228.72	2695.13
228.94	2832.34
229.16	2942.93
229.37	3004.37
229.59	2852.82
229.81	3106.77
230.03	3205.07
230.25	2985.94
230.47	2717.65
230.69	2828.24
230.90	3473.36
231.12	3168.21
231.34	2914.26
231.56	3000.27
231.78	3080.14
232.00	3266.51
232.21	2975.70
232.43	2879.44
232.65	2840.53
232.87	3344.33
233.09	2744.28
233.30	2756.57
233.52	3616.71
233.74	3237.84
233.96	2805.72
234.18	3100.62
234.40	3241.93
234.61	3835.85
234.83	2766.81
235.05	2881.49
235.27	3774.41
235.49	3524.55
235.70	2727.89
235.92	2871.25
236.14	3442.64
236.36	3813.32
236.58	2758.61
236.79	3024.85
237.01	3250.13
237.23	3262.41
237.45	3012.56
237.67	2828.24
237.88	3311.57
238.10	3667.91
238.32	2766.81
238.54	2840.53
238.76	3258.32
238.97	3092.43
239.19	2781.14
239.41	2938.84
239.63	3651.53
239.85	3192.78
240.06	2983.89
240.28	2772.95
240.50	3436.49
240.72	3266.51
240.93	2740.18
241.15	2967.51
241.37	3264.46
241.59	3598.28
241.81	2887.64
242.02	2885.59
242.24	3344.33
242.46	3418.06
242.68	2672.60
242.89	2838.48
243.11	3467.21
243.33	3155.92
243.55	2854.87
243.76	2844.63
243.98	3184.59
244.20	3260.37
244.42	2887.64
244.64	2828.24
244.85	3108.82
245.07	3078.10
245.29	2951.12
245.51	2965.46
245.72	3252.17
245.94	3459.02
246.16	2811.86
246.38	2889.68
246.59	3190.74
246.81	3190.74
247.03	2731.99
247.24	2750.42
247.46	3188.69
247.68	3364.81
247.90	2793.43
248.11	2830.29
248.33	3381.20
248.55	3272.65
248.77	2895.83
248.98	2975.70
249.20	3684.30
249.42	3272.65
249.64	2805.72
249.85	2797.53
250.07	3145.68
250.29	3459.02
250.50	3045.33
250.72	2756.57
250.94	3323.85
251.16	3729.35
251.37	2809.81
251.59	2971.60
251.81	3409.87
252.02	3600.33
252.24	2795.48
252.46	2983.89
252.68	3180.50
252.89	3059.67
253.11	2666.46
253.33	3061.71
253.54	3612.62
253.76	3090.38
253.98	2852.82
254.20	2881.49
254.41	3053.52
254.63	3264.46
254.85	2731.99
255.06	2916.31
255.28	3377.10
255.50	3192.78
255.71	2770.90
255.93	2787.29
256.15	3272.65
256.36	3330.00
256.58	2756.57
256.80	2729.94
257.02	3200.98
257.23	3180.50
257.45	2936.79
257.67	3020.75
257.88	3180.50
258.10	3379.15
258.32	2826.20
258.53	3000.27
258.75	3592.14
258.97	3186.64
259.18	2766.81
259.40	2811.86
259.62	3616.71
259.83	3467.21
260.05	2947.03
260.27	3803.08
260.48	3428.30
260.70	3092.43
260.92	2803.67
261.13	2887.64
261.35	3344.33
261.57	3397.58
261.78	2830.29
262.00	2787.29
262.22	3422.16
262.43	3008.47
262.65	2836.44
262.86	2885.59
263.08	3768.26
263.30	3250.13
263.51	2678.74
263.73	2844.63
263.95	3643.34
264.16	2981.84
264.38	2717.65
264.60	2779.09
264.81	3307.47
265.03	3549.13
265.25	3325.90
265.46	2815.96
265.68	3497.93
265.89	3471.31
266.11	2729.94
266.33	2752.47
266.54	3567.56
266.76	3327.95
266.98	2834.39
267.19	3014.61
267.41	3489.74
267.62	3184.59
267.84	2633.69
268.06	3053.52
268.27	3291.09
268.49	3512.27
268.70	2867.16
268.92	2863.06
269.14	3123.15
269.35	2979.79
269.57	3045.33
269.79	2904.02
270.00	3188.69
270.22	3622.86
270.43	2770.90
270.65	2662.36
270.87	3373.00
271.08	3497.93
271.30	3004.37
271.51	2832.34
271.73	3424.20
271.95	3495.88
272.16	2830.29
272.38	3051.47
272.59	3137.49
272.81	3346.38
273.02	2777.05
273.24	2971.60
273.46	3446.73
273.67	3071.95
273.89	2807.77
274.10	2838.48
274.32	3487.69
274.54	3422.16
274.75	2936.79
274.97	2887.64
275.18	3393.48
275.40	3436.49
275.61	2863.06
275.83	3076.05
276.05	3043.28
276.26	3243.98
276.48	2955.22
276.69	3082.19
276.91	3106.77
277.12	3571.66
277.34	3057.62
277.55	3088.34
277.77	3188.69
277.99	3180.50
278.20	3053.52
278.42	2930.64
278.63	3149.78
278.85	3008.47
279.06	2967.51
279.28	3110.86
279.49	3536.84
279.71	3358.67
279.93	2967.51
280.14	3065.81
280.36	3114.96
280.57	3518.41
280.79	3045.33
281.00	2926.55
281.22	3225.55
281.43	3524.55
281.65	2760.66
281.86	2885.59
282.08	3434.44
282.29	3631.05
282.51	2893.78
282.73	2914.26
282.94	3049.43
283.16	3413.96
283.37	3147.73
283.59	2998.23
283.80	3323.85
284.02	3295.18
284.23	3053.52
284.45	2985.94
284.66	3125.20
284.88	3127.25
285.09	2836.44
285.31	3125.20
285.52	3286.99
285.74	2969.55
285.95	3219.41
286.17	3049.43
286.38	3549.13
286.60	3237.84
286.81	2959.31
287.03	2922.45
287.24	3213.26
287.46	3391.44
287.67	3123.15
287.89	3262.41
288.10	3325.90
288.32	3262.41
288.53	3155.92
288.75	2985.94
288.96	3405.77
289.18	3211.22
289.39	2934.74
289.61	3074.00
289.82	3682.25
290.04	3760.07
290.25	2856.92
290.47	3100.62
290.68	3237.84
290.90	3504.07
291.11	2846.68
291.33	3207.12
291.54	3092.43
291.76	3114.96
291.97	3096.53
292.18	3110.86
292.40	3262.41
292.61	3114.96
292.83	3332.05
293.04	3004.37
293.26	3387.34
293.47	3221.45
293.69	2877.40
293.90	2904.02
294.12	3518.41
294.33	3336.14
294.55	3094.48
294.76	3203.02
294.97	3585.99
295.19	3659.72
295.40	2942.93
295.62	3082.19
295.83	3499.98
296.05	3092.43
296.26	3196.88
296.48	2944.98
296.69	3211.22
296.90	3237.84
297.12	3151.82
297.33	3166.16
297.55	3364.81
297.76	3399.63
297.98	3125.20
298.19	3219.41
298.41	3254.22
298.62	3082.19
298.83	3180.50
299.05	3117.01
299.26	3194.83
299.48	3059.67
299.69	3076.05
299.90	3020.75
300.12	3096.53
300.33	3377.10
300.55	3082.19
300.76	3074.00
300.98	3051.47
301.19	3391.44
301.40	2951.12
301.62	3026.90
301.83	3340.24
302.05	3289.04
302.26	2918.36
302.47	3069.91
302.69	3053.52
302.90	3280.85
303.12	2805.72
303.33	3135.44
303.54	3706.82
303.76	3149.78
303.97	2910.16
304.19	3295.18
304.40	3135.44
304.61	3379.15
304.83	3067.86
305.04	3024.85
305.26	3370.96
305.47	3145.68
305.68	3049.43
305.90	2840.53
306.11	3585.99
306.33	3217.36
306.54	2858.96
306.75	3012.56
306.97	2987.99
307.18	3131.34
307.39	2938.84
307.61	3053.52
307.82	3223.50
308.04	3336.14
308.25	2885.59
308.46	3131.34
308.68	3375.05
308.89	3278.80
309.10	3051.47
309.32	3053.52
309.53	3260.37
309.74	3375.05
309.96	2947.03
310.17	3074.00
310.39	3231.69
310.60	3389.39
310.81	3045.33
311.03	2912.21
311.24	3506.12
311.45	3299.28
311.67	3340.24
311.88	3106.77
312.09	3262.41
312.31	3184.59
312.52	2934.74
312.73	2963.41
312.95	3018.71
313.16	3074.00
313.37	3155.92
313.59	3139.54
313.80	3403.72
314.01	3639.24
314.23	2934.74
314.44	2926.55
314.65	3051.47
314.87	3102.67
315.08	3063.76
315.29	3039.19
315.51	3168.21
315.72	2965.46
315.93	3018.71
316.15	3033.04
316.36	3155.92
316.57	3274.70
316.79	2992.08
317.00	2924.50
317.21	3434.44
317.43	3127.25
317.64	3098.58
317.85	2918.36
318.07	3086.29
318.28	3237.84
318.49	3127.25
318.70	3272.65
318.92	3352.52
319.13	3403.72
319.34	3227.60
319.56	2971.60
319.77	3471.31
319.98	3477.45
320.20	3348.43
320.41	3239.89
320.62	3385.29
320.83	3149.78
321.05	3295.18
321.26	3106.77
321.47	3225.55
321.69	3528.65
321.90	2922.45
322.11	2959.31
322.32	3307.47
322.54	3641.29
322.75	3008.47
322.96	4018.11
323.18	3020.75
323.39	2922.45
323.60	2904.02
323.81	3055.57
324.03	3211.22
324.24	3246.03
324.45	3067.86
324.66	2942.93
324.88	3532.75
325.09	3510.22
325.30	2963.41
325.52	2940.88
325.73	3334.09
325.94	3039.19
326.15	2877.40
326.37	2836.44
326.58	3393.48
326.79	3563.47
327.00	2936.79
327.22	2992.08
327.43	3266.51
327.64	3139.54
327.85	3149.78
328.07	3074.00
328.28	3610.57
328.49	3260.37
328.70	2996.18
328.92	2983.89
329.13	3188.69
329.34	3313.61
329.55	3174.35
329.76	3139.54
329.98	3192.78
330.19	3520.46
330.40	3028.95
330.61	3139.54
330.83	3467.21
331.04	3131.34
331.25	3086.29
331.46	3055.57
331.68	3123.15
331.89	3491.79
332.10	2994.13
332.31	2906.07
332.52	3278.80
332.74	3577.80
332.95	2752.47
333.16	3008.47
333.37	3370.96
333.58	3225.55
333.80	2992.08
334.01	2836.44
334.22	3266.51
334.43	3119.06
334.64	2965.46
334.86	2940.88
335.07	3094.48
335.28	3688.39
335.49	2881.49
335.70	3057.62
335.92	3528.65
336.13	3692.49
336.34	3125.20
336.55	3028.95
336.76	3297.23
336.98	2932.69
337.19	3053.52
337.40	3063.76
337.61	3692.49
337.82	3237.84
338.04	3133.39
338.25	2861.01
338.46	3198.93
338.67	3184.59
338.88	2844.63
339.09	2928.60
339.31	3215.31
339.52	3022.80
339.73	2910.16
339.94	3065.81
340.15	3370.96
340.36	3213.26
340.58	3102.67
340.79	2924.50
341.00	3350.48
341.21	2998.23
341.42	3303.37
341.63	3016.66
341.85	3383.24
342.06	3291.09
342.27	2834.39
342.48	3135.44
342.69	3102.67
342.90	3377.10
343.12	3399.63
343.33	2918.36
343.54	3438.54
343.75	3598.28
343.96	3125.20
344.17	2963.41
344.38	3266.51
344.60	3090.38
344.81	2899.92
345.02	3076.05
345.23	3411.92
345.44	3753.93
345.65	3102.67
345.86	3086.29
346.07	3342.28
346.29	3135.44
346.50	3155.92
346.71	3065.81
346.92	3483.59
347.13	3674.06
347.34	3098.58
347.55	2920.40
347.76	3475.40
347.98	2938.84
348.19	3078.10
348.40	3147.73
348.61	3209.17
348.82	3520.46
349.03	3071.95
349.24	2944.98
349.45	3667.91
349.66	2836.44
349.88	2926.55
350.09	2930.64
350.30	3579.85
350.51	3502.03
350.72	3231.69
350.93	3041.23
351.14	3168.21
351.35	3393.48
351.56	3028.95
351.77	3088.34
351.99	3370.96
352.20	3446.73
352.41	3139.54
352.62	2869.20
352.83	3266.51
353.04	3270.61
353.25	3065.81
353.46	3000.27
353.67	3528.65
353.88	2969.55
354.09	2965.46
354.30	3125.20
354.52	3450.83
354.73	3231.69
354.94	3004.37
355.15	3057.62
355.36	3682.25
355.57	3071.95
355.78	2938.84
355.99	3041.23
356.20	3241.93
356.41	3459.02
356.62	3106.77
356.83	3084.24
357.04	3622.86
357.25	2975.70
357.46	2918.36
357.68	2947.03
357.89	3045.33
358.10	3264.46
358.31	2930.64
358.52	2981.84
358.73	3041.23
358.94	3092.43
359.15	3033.04
359.36	3012.56
359.57	3319.76
359.78	3211.22
359.99	3254.22
360.20	2879.44
360.41	3153.87
360.62	3364.81
360.83	3141.58
361.04	2971.60
361.25	3352.52
361.46	3516.36
361.67	3092.43
361.88	3008.47
362.09	3444.68
362.30	3350.48
362.51	2944.98
362.72	3084.24
362.93	3438.54
363.14	3334.09
363.35	3092.43
363.56	2869.20
363.78	3516.36
363.99	3520.46
364.20	2996.18
364.41	2969.55
364.62	3688.39
364.83	3311.57
365.04	2936.79
365.25	3100.62
365.46	3796.93
365.67	3110.86
365.88	3200.98
366.09	2947.03
366.30	3196.88
366.51	3362.76
366.72	2947.03
366.93	3033.04
367.14	3286.99
367.35	3532.75
367.56	2969.55
367.77	3155.92
367.98	3354.57
368.18	3254.22
368.39	3119.06
368.60	2955.22
368.81	3332.05
369.02	3356.62
369.23	3004.37
369.44	2861.01
369.65	3239.89
369.86	3391.44
370.07	3090.38
370.28	2899.92
370.49	3377.10
370.70	3375.05
370.91	2899.92
371.12	2846.68
371.33	3471.31
371.54	3174.35
371.75	3166.16
371.96	2775.00
372.17	3282.89
372.38	3237.84
372.59	2998.23
372.80	2895.83
373.01	3252.17
373.22	3327.95
373.43	2932.69
373.64	2809.81
373.85	3577.80
374.06	3487.69
374.26	3125.20
374.47	3182.54
374.68	3583.95
374.89	3346.38
375.10	2889.68
375.31	3104.72
375.52	3291.09
375.73	3246.03
375.94	2844.63
376.15	3059.67
376.36	3133.39
376.57	3114.96
376.78	3086.29
376.99	3028.95
377.20	3549.13
377.40	3246.03
377.61	3289.04
377.82	2963.41
378.03	3649.48
378.24	3489.74
378.45	3117.01
378.66	3123.15
378.87	2994.13
379.08	3043.28
379.29	2969.55
379.50	3162.06
379.71	3176.40
379.91	3420.11
380.12	3004.37
380.33	3108.82
380.54	3317.71
380.75	3248.08
380.96	3026.90
381.17	3018.71
381.38	3299.28
381.59	3291.09
381.80	3028.95
382.00	3198.93
382.21	3319.76
382.42	3588.04
382.63	3430.35
382.84	3237.84
383.05	3471.31
383.26	3585.99
383.47	3088.34
383.68	2975.70
383.88	3438.54
384.09	3291.09
384.30	3278.80
384.51	3141.58
384.72	3172.30
384.93	3131.34
385.14	3100.62
385.35	3270.61
385.55	3041.23
385.76	3575.75
385.97	3082.19
386.18	2873.30
386.39	3080.14
386.60	3188.69
386.81	2996.18
387.02	2967.51
387.22	3147.73
387.43	3373.00
387.64	3131.34
387.85	3321.81
388.06	3362.76
388.27	4259.78
388.48	8007.56
388.68	12265.28
388.89	15382.29
389.10	16783.10
389.31	16445.19
389.52	12998.46
389.73	11276.12
389.93	10383.20
390.14	9234.29
390.35	8488.83
390.56	7862.15
390.77	6580.12
390.98	5021.62
391.18	4280.25
391.39	3885.00
391.60	3370.96
391.81	3264.46
392.02	3053.52
392.23	3727.30
392.43	3377.10
392.64	3133.39
392.85	3143.63
393.06	3665.86
393.27	3280.85
393.47	2955.22
393.68	3100.62
393.89	3258.32
394.10	3528.65
394.31	3004.37
394.52	2985.94
394.72	3125.20
394.93	3520.46
395.14	2885.59
395.35	3096.53
395.56	3205.07
395.76	3221.45
395.97	3022.80
396.18	3119.06
396.39	3246.03
396.60	3966.92
396.80	3393.48
397.01	3254.22
397.22	3489.74
397.43	3438.54
397.64	2983.89
397.84	3176.40
398.05	3653.58
398.26	3237.84
398.47	3164.11
398.67	3260.37
398.88	3215.31
399.09	3360.72
399.30	2998.23
399.51	3053.52
399.71	3139.54
399.92	3289.04
400.13	3114.96
400.34	3047.38
400.54	3291.09
400.75	3674.06
400.96	3151.82
401.17	3344.33
401.37	3444.68
401.58	3200.98
401.79	3026.90
402.00	3100.62
402.21	3661.77
402.41	3499.98
402.62	3317.71
402.83	3506.12
403.04	3596.23
403.24	4110.27
403.45	3264.46
403.66	3383.24
403.87	3504.07
404.07	3540.94
404.28	3389.39
404.49	3330.00
404.70	3366.86
404.90	3442.64
405.11	3078.10
405.32	3106.77
405.52	3157.97
405.73	3227.60
405.94	2932.69
406.15	3139.54
406.35	3432.40
406.56	3393.48
406.77	3047.38
406.98	2983.89
407.18	3147.73
407.39	3604.42
407.60	3082.19
407.80	3155.92
408.01	3219.41
408.22	3311.57
408.43	2895.83
408.63	3168.21
408.84	3434.44
409.05	3411.92
409.25	3024.85
409.46	3121.10
409.67	3272.65
409.88	3096.53
410.08	3129.30
410.29	3039.19
410.50	3422.16
410.70	3354.57
410.91	2965.46
411.12	3028.95
411.32	3321.81
411.53	3010.51
411.74	3051.47
411.95	3186.64
412.15	3274.70
412.36	3438.54
412.57	3260.37
412.77	3336.14
412.98	3260.37
413.19	3194.83
413.39	3104.72
413.60	3037.14
413.81	3577.80
414.01	3024.85
414.22	3065.81
414.43	3264.46
414.63	3164.11
414.84	3467.21
415.05	3071.95
415.25	2897.88
415.46	3454.92
415.67	3092.43
415.87	3020.75
416.08	3067.86
416.29	3250.13
416.49	3430.35
416.70	3082.19
416.91	3033.04
417.11	3147.73
417.32	3532.75
417.53	3131.34
417.73	3157.97
417.94	3239.89
418.15	3323.85
418.35	3137.49
418.56	3112.91
418.77	3762.12
418.97	3252.17
419.18	3147.73
419.38	2727.89
419.59	3286.99
419.80	3561.42
420.00	3004.37
420.21	3057.62
420.42	3448.78
420.62	3289.04
420.83	3110.86
421.04	2985.94
421.24	3250.13
421.45	3475.40
421.65	3074.00
421.86	3094.48
422.07	3467.21
422.27	3348.43
422.48	2967.51
422.69	2879.44
422.89	3297.23
423.10	3172.30
423.30	2973.65
423.51	3094.48
423.72	3327.95
423.92	3370.96
424.13	2969.55
424.33	3143.63
424.54	3471.31
424.75	3303.37
424.95	3227.60
425.16	3026.90
425.36	3311.57
425.57	3454.92
425.78	3198.93
425.98	3139.54
426.19	3303.37
426.39	3145.68
426.60	3248.08
426.81	3227.60
427.01	3356.62
427.22	3106.77
427.42	2924.50
427.63	2992.08
427.83	3512.27
428.04	3755.97
428.25	3098.58
428.45	3178.45
428.66	3493.83
428.86	3241.93
429.07	3071.95
429.28	3117.01
429.48	3278.80
429.69	3147.73
429.89	3176.40
430.10	2985.94
430.30	3399.63
430.51	3506.12
430.71	2936.79
430.92	3053.52
431.13	3182.54
431.33	3368.91
431.54	3166.16
431.74	3147.73
431.95	3762.12
432.15	3147.73
432.36	3035.09
432.56	3131.34
432.77	3692.49
432.98	3606.47
433.18	3125.20
433.39	2959.31
433.59	3254.22
433.80	3725.26
434.00	3225.55
434.21	3086.29
434.41	3147.73
434.62	3729.35
434.82	2971.60
435.03	2926.55
435.23	3354.57
435.44	2992.08
435.64	2906.07
435.85	3080.14
436.06	3495.88
436.26	3479.50
436.47	3045.33
436.67	3026.90
436.88	3282.89
437.08	3557.32
437.29	3168.21
437.49	3237.84
437.70	3598.28
437.90	3272.65
438.11	3319.76
438.31	3184.59
438.52	3518.41
438.72	3585.99
438.93	3438.54
439.13	3254.22
439.34	3524.55
439.54	3174.35
439.75	3225.55
439.95	3178.45
440.16	3078.10
440.36	3182.54
440.57	3069.91
440.77	3039.19
440.98	3223.50
441.18	3342.28
441.39	3010.51
441.59	2996.18
441.80	3704.78
442.00	3330.00
442.21	3090.38
442.41	2963.41
442.62	3598.28
442.82	3194.83
443.02	3078.10
443.23	3055.57
443.43	3176.40
443.64	3600.33
443.84	2942.93
444.05	3215.31
444.25	3264.46
444.46	3250.13
444.66	3065.81
444.87	3276.75
445.07	3020.75
445.28	3227.60
445.48	3205.07
445.69	3086.29
445.89	3778.50
446.09	3203.02
446.30	3395.53
446.50	3565.51
446.71	5068.72
446.91	6377.37
447.12	7100.31
447.32	7645.07
447.53	7622.54
447.73	6483.87
447.93	5564.33
448.14	5238.70
448.34	5371.82
448.55	4544.44
448.75	4483.00
448.96	4251.58
449.16	4016.07
449.36	3971.01
449.57	3350.48
449.77	3164.11
449.98	3127.25
450.18	3315.66
450.39	3065.81
450.59	3217.36
450.79	3299.28
451.00	3155.92
451.20	3243.98
451.41	3137.49
451.61	3280.85
451.81	3153.87
452.02	2983.89
452.22	3092.43
452.43	3235.79
