SpectraSuite Data File
++++++++++++++++++++++++++++++++++++
Date: Fri May 06 08:14:33 CEST 2016
User: root
Dark Spectrum Present: No
Reference Spectrum Present: No
Number of Sampled Component Spectra: 1
Spectrometers: USB4C02835
Integration Time (usec): 100000 (USB4C02835)
Spectra Averaged: 1 (USB4C02835)
Boxcar Smoothing: 0 (USB4C02835)
Correct for Electrical Dark: No (USB4C02835)
Strobe/Lamp Enabled: No (USB4C02835)
Correct for Detector Non-linearity: No (USB4C02835)
Correct for Stray Light: No (USB4C02835)
Number of Pixels in Processed Spectrum: 3648
>>>>>Begin Processed Spectral Data<<<<<
177.47	2314.20
177.69	2314.20
177.91	2314.20
178.13	2334.68
178.36	2287.58
178.58	3035.09
178.80	3092.43
179.02	3018.71
179.24	3127.25
179.46	2764.76
179.68	2897.88
179.90	3213.26
180.13	3246.03
180.35	2648.02
180.57	2820.05
180.79	3463.12
181.01	3250.13
181.23	2840.53
181.45	3067.86
181.67	3489.74
181.90	3432.40
182.12	2928.60
182.34	2693.08
182.56	3442.64
182.78	3379.15
183.00	2809.81
183.22	2826.20
183.44	2951.12
183.66	3899.33
183.89	2977.75
184.11	2842.58
184.33	3440.59
184.55	3528.65
184.77	2830.29
184.99	2797.53
185.21	3198.93
185.43	3790.79
185.65	2914.26
185.87	2834.39
186.10	3819.46
186.32	3792.84
186.54	2971.60
186.76	2992.08
186.98	3461.07
187.20	3192.78
187.42	2944.98
187.64	2811.86
187.86	3397.58
188.08	3481.55
188.30	2758.61
188.52	2871.25
188.75	3614.66
188.97	3624.90
189.19	2787.29
189.41	2844.63
189.63	3301.33
189.85	3147.73
190.07	2756.57
190.29	2803.67
190.51	3340.24
190.73	3074.00
190.95	3004.37
191.17	2805.72
191.39	2992.08
191.61	3182.54
191.84	2815.96
192.06	3014.61
192.28	2932.69
192.50	3962.82
192.72	3067.86
192.94	3006.42
193.16	3569.61
193.38	3315.66
193.60	2791.38
193.82	3012.56
194.04	3526.60
194.26	3391.44
194.48	2873.30
194.70	2811.86
194.92	3235.79
195.14	3413.96
195.36	2832.34
195.58	2975.70
195.80	3254.22
196.02	3133.39
196.24	2850.77
196.46	3030.99
196.69	3164.11
196.91	3760.07
197.13	2887.64
197.35	2889.68
197.57	3581.90
197.79	3401.68
198.01	2955.22
198.23	2844.63
198.45	3336.14
198.67	3012.56
198.89	2725.85
199.11	2953.17
199.33	3147.73
199.55	2838.48
199.77	2815.96
199.99	2994.13
200.21	3186.64
200.43	3215.31
200.65	2840.53
200.87	2721.75
201.09	3352.52
201.31	3246.03
201.53	2828.24
201.75	2963.41
201.97	3368.91
202.19	3254.22
202.41	2955.22
202.63	3057.62
202.85	3405.77
203.07	3342.28
203.29	3018.71
203.51	2779.09
203.73	3112.91
203.95	3864.52
204.17	2750.42
204.39	2938.84
204.61	3252.17
204.83	3168.21
205.05	3020.75
205.27	2865.11
205.49	3692.49
205.71	3246.03
205.93	2754.52
206.15	2742.23
206.37	3350.48
206.59	3239.89
206.81	2721.75
207.03	2785.24
207.25	3168.21
207.47	3436.49
207.69	2865.11
207.91	3151.82
208.13	3571.66
208.34	3168.21
208.56	2885.59
208.78	2971.60
209.00	3192.78
209.22	3237.84
209.44	2926.55
209.66	2895.83
209.88	3274.70
210.10	3200.98
210.32	2754.52
210.54	2959.31
210.76	3246.03
210.98	3526.60
211.20	2686.94
211.42	2994.13
211.64	3532.75
211.86	3346.38
212.08	2881.49
212.30	2897.88
212.52	3280.85
212.74	3387.34
212.96	3033.04
213.17	2965.46
213.39	3452.88
213.61	3612.62
213.83	2895.83
214.05	2762.71
214.27	3504.07
214.49	3082.19
214.71	2899.92
214.93	2959.31
215.15	3243.98
215.37	3422.16
215.59	2721.75
215.81	2852.82
216.03	3536.84
216.24	3237.84
216.46	2889.68
216.68	2940.88
216.90	3407.82
217.12	3479.50
217.34	2795.48
217.56	3028.95
217.78	3583.95
218.00	3373.00
218.22	2916.31
218.44	3018.71
218.66	3303.37
218.87	3672.01
219.09	2871.25
219.31	2861.01
219.53	3299.28
219.75	3172.30
219.97	2811.86
220.19	2969.55
220.41	3205.07
220.63	3661.77
220.85	2908.12
221.06	2910.16
221.28	3618.76
221.50	3379.15
221.72	2850.77
221.94	2717.65
222.16	3356.62
222.38	3428.30
222.60	2781.14
222.82	2932.69
223.03	3536.84
223.25	3104.72
223.47	2885.59
223.69	3067.86
223.91	3346.38
224.13	3274.70
224.35	2785.24
224.57	3106.77
224.78	3434.44
225.00	3033.04
225.22	2994.13
225.44	2791.38
225.66	3444.68
225.88	3166.16
226.10	3022.80
226.32	2803.67
226.53	3614.66
226.75	3160.02
226.97	2977.75
227.19	2871.25
227.41	3098.58
227.63	3239.89
227.85	2643.93
228.06	2918.36
228.28	3360.72
228.50	3479.50
228.72	2734.04
228.94	2858.96
229.16	2904.02
229.37	3022.80
229.59	2729.94
229.81	3141.58
230.03	3215.31
230.25	3053.52
230.47	2693.08
230.69	2818.00
230.90	3350.48
231.12	3131.34
231.34	2951.12
231.56	2930.64
231.78	3061.71
232.00	3233.74
232.21	2844.63
232.43	2908.12
232.65	2906.07
232.87	3286.99
233.09	2670.55
233.30	2803.67
233.52	3538.89
233.74	3221.45
233.96	2865.11
234.18	3014.61
234.40	3178.45
234.61	3784.65
234.83	2807.77
235.05	2881.49
235.27	3831.75
235.49	3483.59
235.70	2777.05
235.92	2828.24
236.14	3332.05
236.36	3805.13
236.58	2783.19
236.79	2987.99
237.01	3262.41
237.23	3194.83
237.45	3084.24
237.67	2885.59
237.88	3348.43
238.10	3547.08
238.32	2781.14
238.54	2846.68
238.76	3280.85
238.97	3071.95
239.19	2795.48
239.41	2861.01
239.63	3610.57
239.85	3217.36
240.06	2830.29
240.28	2820.05
240.50	3405.77
240.72	3323.85
240.93	2762.71
241.15	3024.85
241.37	3278.80
241.59	3538.89
241.81	2858.96
242.02	2959.31
242.24	3340.24
242.46	3334.09
242.68	2705.37
242.89	2826.20
243.11	3401.68
243.33	3325.90
243.55	2856.92
243.76	2867.16
243.98	3143.63
244.20	3270.61
244.42	2936.79
244.64	2910.16
244.85	2918.36
245.07	3162.06
245.29	2822.10
245.51	2901.97
245.72	3280.85
245.94	3452.88
246.16	2822.10
246.38	2793.43
246.59	3135.44
246.81	3125.20
247.03	2752.47
247.24	2672.60
247.46	3164.11
247.68	3370.96
247.90	2775.00
248.11	2869.20
248.33	3387.34
248.55	3248.08
248.77	2965.46
248.98	2977.75
249.20	3581.90
249.42	3305.42
249.64	2893.78
249.85	2803.67
250.07	3239.89
250.29	3420.11
250.50	2940.88
250.72	2729.94
250.94	3409.87
251.16	3803.08
251.37	2799.57
251.59	2944.98
251.81	3264.46
252.02	3581.90
252.24	2775.00
252.46	3006.42
252.68	3063.76
252.89	3119.06
253.11	2615.26
253.33	3049.43
253.54	3631.05
253.76	3012.56
253.98	2838.48
254.20	2865.11
254.41	3000.27
254.63	3254.22
254.85	2746.33
255.06	3018.71
255.28	3411.92
255.50	3200.98
255.71	2838.48
255.93	2709.46
256.15	3334.09
256.36	3299.28
256.58	2723.80
256.80	2762.71
257.02	3250.13
257.23	3225.55
257.45	2918.36
257.67	2940.88
257.88	3119.06
258.10	3368.91
258.32	2918.36
258.53	2942.93
258.75	3631.05
258.97	3207.12
259.18	2795.48
259.40	2789.33
259.62	3680.20
259.83	3565.51
260.05	2873.30
260.27	3778.50
260.48	3504.07
260.70	3053.52
260.92	2758.61
261.13	2861.01
261.35	3401.68
261.57	3348.43
261.78	2797.53
262.00	2809.81
262.22	3393.48
262.43	3125.20
262.65	2840.53
262.86	2848.72
263.08	3844.04
263.30	3387.34
263.51	2674.65
263.73	2832.34
263.95	3502.03
264.16	3084.24
264.38	2709.46
264.60	2805.72
264.81	3327.95
265.03	3504.07
265.25	3264.46
265.46	2799.57
265.68	3469.26
265.89	3465.16
266.11	2760.66
266.33	2805.72
266.54	3481.55
266.76	3358.67
266.98	2949.08
267.19	3008.47
267.41	3512.27
267.62	3205.07
267.84	2662.36
268.06	2856.92
268.27	3258.32
268.49	3577.80
268.70	2846.68
268.92	2889.68
269.14	3145.68
269.35	3100.62
269.57	3008.47
269.79	2891.73
270.00	3131.34
270.22	3606.47
270.43	2803.67
270.65	2705.37
270.87	3319.76
271.08	3442.64
271.30	2967.51
271.51	2883.54
271.73	3418.06
271.95	3540.94
272.16	2893.78
272.38	3008.47
272.59	3252.17
272.81	3506.12
273.02	2801.62
273.24	2889.68
273.46	3524.55
273.67	3010.51
273.89	2797.53
274.10	2895.83
274.32	3422.16
274.54	3291.09
274.75	2957.27
274.97	2977.75
275.18	3418.06
275.40	3385.29
275.61	2942.93
275.83	2973.65
276.05	3106.77
276.26	3303.37
276.48	2938.84
276.69	3069.91
276.91	3227.60
277.12	3536.84
277.34	3008.47
277.55	3059.67
277.77	3276.75
277.99	3190.74
278.20	3045.33
278.42	2936.79
278.63	3125.20
278.85	3049.43
279.06	3008.47
279.28	3147.73
279.49	3524.55
279.71	3436.49
279.93	3110.86
280.14	3102.67
280.36	3157.97
280.57	3590.09
280.79	3078.10
281.00	2879.44
281.22	3235.79
281.43	3516.36
281.65	2787.29
281.86	2877.40
282.08	3362.76
282.29	3655.62
282.51	2910.16
282.73	2818.00
282.94	2969.55
283.16	3377.10
283.37	3141.58
283.59	3071.95
283.80	3434.44
284.02	3252.17
284.23	2987.99
284.45	3049.43
284.66	3055.57
284.88	3186.64
285.09	2934.74
285.31	3063.76
285.52	3327.95
285.74	2996.18
285.95	3172.30
286.17	3000.27
286.38	3573.71
286.60	3188.69
286.81	2942.93
287.03	2877.40
287.24	3254.22
287.46	3399.63
287.67	3166.16
287.89	3270.61
288.10	3272.65
288.32	3264.46
288.53	3180.50
288.75	3106.77
288.96	3393.48
289.18	3205.07
289.39	2887.64
289.61	3123.15
289.82	3712.97
290.04	3721.16
290.25	2858.96
290.47	3143.63
290.68	3280.85
290.90	3502.03
291.11	2793.43
291.33	3180.50
291.54	3114.96
291.76	3135.44
291.97	3133.39
292.18	3112.91
292.40	3114.96
292.61	3135.44
292.83	3254.22
293.04	2998.23
293.26	3278.80
293.47	3258.32
293.69	2869.20
293.90	2901.97
294.12	3504.07
294.33	3274.70
294.55	3055.57
294.76	3203.02
294.97	3585.99
295.19	3770.31
295.40	3061.71
295.62	3045.33
295.83	3463.12
296.05	3055.57
296.26	3219.41
296.48	2944.98
296.69	3254.22
296.90	3213.26
297.12	3143.63
297.33	3074.00
297.55	3272.65
297.76	3438.54
297.98	3133.39
298.19	3139.54
298.41	3256.27
298.62	3114.96
298.83	3135.44
299.05	3061.71
299.26	3119.06
299.48	3123.15
299.69	3106.77
299.90	3049.43
300.12	3123.15
300.33	3420.11
300.55	3041.23
300.76	3018.71
300.98	3090.38
301.19	3426.25
301.40	2918.36
301.62	2971.60
301.83	3348.43
302.05	3221.45
302.26	2942.93
302.47	2996.18
302.69	2992.08
302.90	3286.99
303.12	2795.48
303.33	3151.82
303.54	3704.78
303.76	3237.84
303.97	2940.88
304.19	3176.40
304.40	3026.90
304.61	3360.72
304.83	3137.49
305.04	3045.33
305.26	3393.48
305.47	3112.91
305.68	3002.32
305.90	2824.15
306.11	3485.64
306.33	3182.54
306.54	2818.00
306.75	2992.08
306.97	2975.70
307.18	3100.62
307.39	3004.37
307.61	2998.23
307.82	3106.77
308.04	3424.20
308.25	2869.20
308.46	3157.97
308.68	3317.71
308.89	3293.13
309.10	3106.77
309.32	2996.18
309.53	3270.61
309.74	3397.58
309.96	2912.21
310.17	3090.38
310.39	3135.44
310.60	3364.81
310.81	3065.81
311.03	2899.92
311.24	3393.48
311.45	3264.46
311.67	3203.02
311.88	3084.24
312.09	3176.40
312.31	3174.35
312.52	2928.60
312.73	2953.17
312.95	3041.23
313.16	3012.56
313.37	3213.26
313.59	3157.97
313.80	3413.96
314.01	3542.99
314.23	2934.74
314.44	2910.16
314.65	3057.62
314.87	2981.84
315.08	2918.36
315.29	3024.85
315.51	3149.78
315.72	3065.81
315.93	3016.66
316.15	2983.89
316.36	3090.38
316.57	3311.57
316.79	2979.79
317.00	2955.22
317.21	3469.26
317.43	3082.19
317.64	2981.84
317.85	2922.45
318.07	3125.20
318.28	3200.98
318.49	3086.29
318.70	3166.16
318.92	3375.05
319.13	3323.85
319.34	3235.79
319.56	3008.47
319.77	3403.72
319.98	3424.20
320.20	3266.51
320.41	3135.44
320.62	3383.24
320.83	3016.66
321.05	3198.93
321.26	3061.71
321.47	3266.51
321.69	3461.07
321.90	2889.68
322.11	2994.13
322.32	3434.44
322.54	3551.18
322.75	3078.10
322.96	3952.58
323.18	3008.47
323.39	2938.84
323.60	2887.64
323.81	3043.28
324.03	3149.78
324.24	3274.70
324.45	3180.50
324.66	2947.03
324.88	3469.26
325.09	3661.77
325.30	2944.98
325.52	2910.16
325.73	3315.66
325.94	3049.43
326.15	2848.72
326.37	2928.60
326.58	3463.12
326.79	3655.62
327.00	2901.97
327.22	2928.60
327.43	3252.17
327.64	3012.56
327.85	3108.82
328.07	3030.99
328.28	3635.14
328.49	3096.53
328.70	3010.51
328.92	3049.43
329.13	3274.70
329.34	3325.90
329.55	3196.88
329.76	3160.02
329.98	3221.45
330.19	3540.94
330.40	3139.54
330.61	3203.02
330.83	3409.87
331.04	3051.47
331.25	3143.63
331.46	3016.66
331.68	3028.95
331.89	3487.69
332.10	3049.43
332.31	2815.96
332.52	3237.84
332.74	3571.66
332.95	2838.48
333.16	2951.12
333.37	3473.36
333.58	3076.05
333.80	3016.66
334.01	2811.86
334.22	3278.80
334.43	3094.48
334.64	2926.55
334.86	2981.84
335.07	3131.34
335.28	3606.47
335.49	2854.87
335.70	3024.85
335.92	3585.99
336.13	3649.48
336.34	3078.10
336.55	3006.42
336.76	3352.52
336.98	2920.40
337.19	3000.27
337.40	3182.54
337.61	3903.43
337.82	3194.83
338.04	3219.41
338.25	2824.15
338.46	3268.56
338.67	3293.13
338.88	2899.92
339.09	2883.54
339.31	3190.74
339.52	3045.33
339.73	2942.93
339.94	3098.58
340.15	3467.21
340.36	3135.44
340.58	3065.81
340.79	2910.16
341.00	3481.55
341.21	3049.43
341.42	3209.17
341.63	2981.84
341.85	3403.72
342.06	3297.23
342.27	2936.79
342.48	3203.02
342.69	2953.17
342.90	3487.69
343.12	3416.01
343.33	2861.01
343.54	3448.78
343.75	3635.14
343.96	3108.82
344.17	2875.35
344.38	3207.12
344.60	3061.71
344.81	2959.31
345.02	2959.31
345.23	3522.51
345.44	3839.94
345.65	3166.16
345.86	3153.87
346.07	3362.76
346.29	3147.73
346.50	3203.02
346.71	3061.71
346.92	3581.90
347.13	3741.64
347.34	3168.21
347.55	2811.86
347.76	3356.62
347.98	2992.08
348.19	3053.52
348.40	3229.65
348.61	3196.88
348.82	3549.13
349.03	3020.75
349.24	2938.84
349.45	3753.93
349.66	2904.02
349.88	2994.13
350.09	2926.55
350.30	3520.46
350.51	3585.99
350.72	3282.89
350.93	2977.75
351.14	3139.54
351.35	3319.76
351.56	3041.23
351.77	3086.29
351.99	3438.54
352.20	3540.94
352.41	3137.49
352.62	2863.06
352.83	3162.06
353.04	3280.85
353.25	2955.22
353.46	3039.19
353.67	3545.03
353.88	2924.50
354.09	2910.16
354.30	3065.81
354.52	3434.44
354.73	3188.69
354.94	2973.65
355.15	3123.15
355.36	3753.93
355.57	3215.31
355.78	2908.12
355.99	2875.35
356.20	3194.83
356.41	3475.40
356.62	3069.91
356.83	3084.24
357.04	3614.66
357.25	2938.84
357.46	2944.98
357.68	2861.01
357.89	3071.95
358.10	3215.31
358.31	2992.08
358.52	3051.47
358.73	3092.43
358.94	3139.54
359.15	2920.40
359.36	3049.43
359.57	3282.89
359.78	3272.65
359.99	3254.22
360.20	2895.83
360.41	3286.99
360.62	3403.72
360.83	3098.58
361.04	3039.19
361.25	3352.52
361.46	3493.83
361.67	3145.68
361.88	3004.37
362.09	3540.94
362.30	3330.00
362.51	2811.86
362.72	3135.44
362.93	3403.72
363.14	3278.80
363.35	3184.59
363.56	2928.60
363.78	3557.32
363.99	3448.78
364.20	2969.55
364.41	3065.81
364.62	3618.76
364.83	3368.91
365.04	3004.37
365.25	3010.51
365.46	3669.96
365.67	3180.50
365.88	3121.10
366.09	2994.13
366.30	3321.81
366.51	3270.61
366.72	2889.68
366.93	2934.74
367.14	3319.76
367.35	3532.75
367.56	2901.97
367.77	3176.40
367.98	3368.91
368.18	3413.96
368.39	3127.25
368.60	2947.03
368.81	3424.20
369.02	3352.52
369.23	3035.09
369.44	2836.44
369.65	3241.93
369.86	3375.05
370.07	3180.50
370.28	2940.88
370.49	3385.29
370.70	3389.39
370.91	2865.11
371.12	2807.77
371.33	3489.74
371.54	3237.84
371.75	3190.74
371.96	2772.95
372.17	3332.05
372.38	3207.12
372.59	3043.28
372.80	2987.99
373.01	3229.65
373.22	3229.65
373.43	3033.04
373.64	2904.02
373.85	3565.51
374.06	3606.47
374.26	3198.93
374.47	3133.39
374.68	3563.47
374.89	3332.05
375.10	2951.12
375.31	3153.87
375.52	3168.21
375.73	3254.22
375.94	2844.63
376.15	3069.91
376.36	3086.29
376.57	3119.06
376.78	3055.57
376.99	3086.29
377.20	3592.14
377.40	3196.88
377.61	3239.89
377.82	2983.89
378.03	3598.28
378.24	3311.57
378.45	3053.52
378.66	3112.91
378.87	2994.13
379.08	3018.71
379.29	2953.17
379.50	3190.74
379.71	3241.93
379.91	3362.76
380.12	3014.61
380.33	3082.19
380.54	3338.19
380.75	3303.37
380.96	3061.71
381.17	3051.47
381.38	3233.74
381.59	3205.07
381.80	3149.78
382.00	3215.31
382.21	3358.67
382.42	3565.51
382.63	3352.52
382.84	3135.44
383.05	3393.48
383.26	3569.61
383.47	3098.58
383.68	2963.41
383.88	3403.72
384.09	3319.76
384.30	3200.98
384.51	3114.96
384.72	3205.07
384.93	3049.43
385.14	3166.16
385.35	3368.91
385.55	2926.55
385.76	3508.17
385.97	3014.61
386.18	2834.39
386.39	3098.58
386.60	3086.29
386.81	3028.95
387.02	2889.68
387.22	3018.71
387.43	3397.58
387.64	3035.09
387.85	3225.55
388.06	3217.36
388.27	4349.89
388.48	7757.71
388.68	12015.43
388.89	14851.87
389.10	16299.78
389.31	16019.21
389.52	13125.43
389.73	11110.23
389.93	10241.89
390.14	9129.84
390.35	8361.86
390.56	8083.33
390.77	6483.87
390.98	4939.70
391.18	4265.92
391.39	3966.92
391.60	3282.89
391.81	3272.65
392.02	3018.71
392.23	3794.89
392.43	3289.04
392.64	3139.54
392.85	3188.69
393.06	3612.62
393.27	3250.13
393.47	2990.03
393.68	3059.67
393.89	3106.77
394.10	3450.83
394.31	3061.71
394.52	2893.78
394.72	3078.10
394.93	3520.46
395.14	2934.74
395.35	3190.74
395.56	3166.16
395.76	3258.32
395.97	3037.14
396.18	3131.34
396.39	3315.66
396.60	3833.80
396.80	3403.72
397.01	3221.45
397.22	3442.64
397.43	3479.50
397.64	3114.96
397.84	3135.44
398.05	3741.64
398.26	3246.03
398.47	3200.98
398.67	3227.60
398.88	3282.89
399.09	3438.54
399.30	3004.37
399.51	3108.82
399.71	3092.43
399.92	3209.17
400.13	3143.63
400.34	3010.51
400.54	3311.57
400.75	3598.28
400.96	3180.50
401.17	3354.57
401.37	3420.11
401.58	3321.81
401.79	3026.90
402.00	3139.54
402.21	3794.89
402.41	3454.92
402.62	3317.71
402.83	3489.74
403.04	3694.54
403.24	4120.51
403.45	3235.79
403.66	3291.09
403.87	3571.66
404.07	3631.05
404.28	3330.00
404.49	3301.33
404.70	3395.53
404.90	3528.65
405.11	3065.81
405.32	3117.01
405.52	3184.59
405.73	3196.88
405.94	3012.56
406.15	3135.44
406.35	3354.57
406.56	3499.98
406.77	3086.29
406.98	3041.23
407.18	3092.43
407.39	3538.89
407.60	3096.53
407.80	3114.96
408.01	3129.30
408.22	3413.96
408.43	2992.08
408.63	3190.74
408.84	3364.81
409.05	3524.55
409.25	2967.51
409.46	3125.20
409.67	3198.93
409.88	3225.55
410.08	3090.38
410.29	3028.95
410.50	3520.46
410.70	3346.38
410.91	2912.21
411.12	3090.38
411.32	3241.93
411.53	3071.95
411.74	3127.25
411.95	3135.44
412.15	3241.93
412.36	3442.64
412.57	3278.80
412.77	3239.89
412.98	3250.13
413.19	3143.63
413.39	3147.73
413.60	3117.01
413.81	3608.52
414.01	3041.23
414.22	3065.81
414.43	3188.69
414.63	3131.34
414.84	3491.79
415.05	3078.10
415.25	2869.20
415.46	3422.16
415.67	3096.53
415.87	3149.78
416.08	3024.85
416.29	3252.17
416.49	3452.88
416.70	3065.81
416.91	3069.91
417.11	3256.27
417.32	3551.18
417.53	3192.78
417.73	3143.63
417.94	3213.26
418.15	3350.48
418.35	3016.66
418.56	3063.76
418.77	3774.41
418.97	3313.61
419.18	3174.35
419.38	2795.48
419.59	3362.76
419.80	3616.71
420.00	2920.40
420.21	3076.05
420.42	3526.60
420.62	3344.33
420.83	3049.43
421.04	3076.05
421.24	3209.17
421.45	3450.83
421.65	3033.04
421.86	3088.34
422.07	3448.78
422.27	3422.16
422.48	2877.40
422.69	2889.68
422.89	3289.04
423.10	3137.49
423.30	3110.86
423.51	3090.38
423.72	3303.37
423.92	3487.69
424.13	2881.49
424.33	3151.82
424.54	3452.88
424.75	3313.61
424.95	3305.42
425.16	3074.00
425.36	3270.61
425.57	3518.41
425.78	3221.45
425.98	3176.40
426.19	3321.81
426.39	3166.16
426.60	3188.69
426.81	3278.80
427.01	3315.66
427.22	3129.30
427.42	2922.45
427.63	2951.12
427.83	3530.70
428.04	3674.06
428.25	3078.10
428.45	3141.58
428.66	3493.83
428.86	3301.33
429.07	3117.01
429.28	3123.15
429.48	3301.33
429.69	3088.34
429.89	3196.88
430.10	3035.09
430.30	3385.29
430.51	3504.07
430.71	2942.93
430.92	3123.15
431.13	3170.26
431.33	3370.96
431.54	3117.01
431.74	3317.71
431.95	3770.31
432.15	3106.77
432.36	3022.80
432.56	3172.30
432.77	3657.67
432.98	3620.81
433.18	3104.72
433.39	3004.37
433.59	3272.65
433.80	3616.71
434.00	3217.36
434.21	3069.91
434.41	3198.93
434.62	3782.60
434.82	2869.20
435.03	2932.69
435.23	3311.57
435.44	2869.20
435.64	2994.13
435.85	3110.86
436.06	3426.25
436.26	3442.64
436.47	3049.43
436.67	2910.16
436.88	3229.65
437.08	3448.78
437.29	3180.50
437.49	3151.82
437.70	3495.88
437.90	3284.94
438.11	3256.27
438.31	3110.86
438.52	3592.14
438.72	3516.36
438.93	3385.29
439.13	3182.54
439.34	3485.64
439.54	3160.02
439.75	3117.01
439.95	3180.50
440.16	3100.62
440.36	3188.69
440.57	3045.33
440.77	3020.75
440.98	3360.72
441.18	3338.19
441.39	2983.89
441.59	2967.51
441.80	3674.06
442.00	3258.32
442.21	3160.02
442.41	2875.35
442.62	3622.86
442.82	3168.21
443.02	2987.99
443.23	3047.38
443.43	3178.45
443.64	3495.88
443.84	2963.41
444.05	3164.11
444.25	3395.53
444.46	3219.41
444.66	3008.47
444.87	3332.05
445.07	2918.36
445.28	3274.70
445.48	3297.23
445.69	3137.49
445.89	3794.89
446.09	3274.70
446.30	3395.53
446.50	3436.49
446.71	5175.22
446.91	6438.81
447.12	7102.36
447.32	7659.40
447.53	7610.25
447.73	6363.04
447.93	5463.98
448.14	5371.82
448.34	5504.94
448.55	4483.00
448.75	4442.04
448.96	4161.47
449.16	4073.41
449.36	3930.05
449.57	3309.52
449.77	3117.01
449.98	3200.98
450.18	3348.43
450.39	2998.23
450.59	3268.56
450.79	3270.61
451.00	3106.77
451.20	3252.17
451.41	3016.66
451.61	3334.09
451.81	3264.46
452.02	2981.84
452.22	2969.55
452.43	3200.98
