SpectraSuite Data File
++++++++++++++++++++++++++++++++++++
Date: Fri May 06 08:14:37 CEST 2016
User: root
Dark Spectrum Present: No
Reference Spectrum Present: No
Number of Sampled Component Spectra: 1
Spectrometers: USB4C02835
Integration Time (usec): 100000 (USB4C02835)
Spectra Averaged: 1 (USB4C02835)
Boxcar Smoothing: 0 (USB4C02835)
Correct for Electrical Dark: No (USB4C02835)
Strobe/Lamp Enabled: No (USB4C02835)
Correct for Detector Non-linearity: No (USB4C02835)
Correct for Stray Light: No (USB4C02835)
Number of Pixels in Processed Spectrum: 3648
>>>>>Begin Processed Spectral Data<<<<<
177.47	2271.20
177.69	2271.20
177.91	2271.20
178.13	2240.48
178.36	2285.53
178.58	3024.85
178.80	3106.77
179.02	2979.79
179.24	3059.67
179.46	2799.57
179.68	2807.77
179.90	3243.98
180.13	3231.69
180.35	2656.22
180.57	2772.95
180.79	3487.69
181.01	3227.60
181.23	2922.45
181.45	3039.19
181.67	3446.73
181.90	3465.16
182.12	2881.49
182.34	2645.98
182.56	3430.35
182.78	3467.21
183.00	2764.76
183.22	2871.25
183.44	2891.73
183.66	3860.42
183.89	2930.64
184.11	2850.77
184.33	3366.86
184.55	3530.70
184.77	2828.24
184.99	2861.01
185.21	3203.02
185.43	3819.46
185.65	2869.20
185.87	2832.34
186.10	3737.54
186.32	3794.89
186.54	3010.51
186.76	2953.17
186.98	3491.79
187.20	3221.45
187.42	2942.93
187.64	2760.66
187.86	3319.76
188.08	3483.59
188.30	2772.95
188.52	2906.07
188.75	3555.27
188.97	3528.65
189.19	2912.21
189.41	2754.52
189.63	3366.86
189.85	3196.88
190.07	2721.75
190.29	2713.56
190.51	3325.90
190.73	3028.95
190.95	3078.10
191.17	2938.84
191.39	3010.51
191.61	3225.55
191.84	2897.88
192.06	3069.91
192.28	2938.84
192.50	3831.75
192.72	3084.24
192.94	2906.07
193.16	3510.22
193.38	3293.13
193.60	2830.29
193.82	3028.95
194.04	3428.30
194.26	3411.92
194.48	2977.75
194.70	2844.63
194.92	3160.02
195.14	3442.64
195.36	2865.11
195.58	2994.13
195.80	3221.45
196.02	3123.15
196.24	2824.15
196.46	2924.50
196.69	3151.82
196.91	3862.47
197.13	2871.25
197.35	2924.50
197.57	3712.97
197.79	3397.58
198.01	2918.36
198.23	2887.64
198.45	3315.66
198.67	3047.38
198.89	2666.46
199.11	2981.84
199.33	3065.81
199.55	2953.17
199.77	2815.96
199.99	3020.75
200.21	3155.92
200.43	3397.58
200.65	2731.99
200.87	2772.95
201.09	3340.24
201.31	3174.35
201.53	2897.88
201.75	2955.22
201.97	3360.72
202.19	3207.12
202.41	2897.88
202.63	3012.56
202.85	3354.57
203.07	3377.10
203.29	2936.79
203.51	2750.42
203.73	3192.78
203.95	3807.17
204.17	2889.68
204.39	3069.91
204.61	3317.71
204.83	3172.30
205.05	3039.19
205.27	2899.92
205.49	3782.60
205.71	3229.65
205.93	2721.75
206.15	2795.48
206.37	3383.24
206.59	3252.17
206.81	2752.47
207.03	2725.85
207.25	3123.15
207.47	3403.72
207.69	2908.12
207.91	3043.28
208.13	3585.99
208.34	3096.53
208.56	2813.91
208.78	2930.64
209.00	3235.79
209.22	3164.11
209.44	2863.06
209.66	2822.10
209.88	3309.52
210.10	3219.41
210.32	2861.01
210.54	3055.57
210.76	3184.59
210.98	3561.42
211.20	2766.81
211.42	2955.22
211.64	3432.40
211.86	3358.67
212.08	2961.36
212.30	2867.16
212.52	3260.37
212.74	3379.15
212.96	2918.36
213.17	2949.08
213.39	3483.59
213.61	3684.30
213.83	2762.71
214.05	2738.13
214.27	3499.98
214.49	3071.95
214.71	2895.83
214.93	2957.27
215.15	3383.24
215.37	3485.64
215.59	2725.85
215.81	2930.64
216.03	3499.98
216.24	3280.85
216.46	2895.83
216.68	2922.45
216.90	3481.55
217.12	3454.92
217.34	2852.82
217.56	3043.28
217.78	3545.03
218.00	3418.06
218.22	2961.36
218.44	2998.23
218.66	3301.33
218.87	3655.62
219.09	2908.12
219.31	2805.72
219.53	3356.62
219.75	3160.02
219.97	2881.49
220.19	2897.88
220.41	3215.31
220.63	3678.15
220.85	2877.40
221.06	2813.91
221.28	3571.66
221.50	3465.16
221.72	2877.40
221.94	2715.61
222.16	3254.22
222.38	3471.31
222.60	2789.33
222.82	2926.55
223.03	3442.64
223.25	3035.09
223.47	2861.01
223.69	3180.50
223.91	3395.53
224.13	3295.18
224.35	2748.37
224.57	3080.14
224.78	3284.94
225.00	3102.67
225.22	2889.68
225.44	2815.96
225.66	3375.05
225.88	3258.32
226.10	2987.99
226.32	2944.98
226.53	3549.13
226.75	3200.98
226.97	2908.12
227.19	2871.25
227.41	3082.19
227.63	3172.30
227.85	2746.33
228.06	2953.17
228.28	3336.14
228.50	3381.20
228.72	2693.08
228.94	2820.05
229.16	2998.23
229.37	3051.47
229.59	2799.57
229.81	3106.77
230.03	3237.84
230.25	3057.62
230.47	2772.95
230.69	2869.20
230.90	3526.60
231.12	3110.86
231.34	2926.55
231.56	2944.98
231.78	3114.96
232.00	3297.23
232.21	2914.26
232.43	2918.36
232.65	2852.82
232.87	3387.34
233.09	2772.95
233.30	2789.33
233.52	3502.03
233.74	3151.82
233.96	2777.05
234.18	3047.38
234.40	3274.70
234.61	3805.13
234.83	2746.33
235.05	2832.34
235.27	3823.56
235.49	3491.79
235.70	2717.65
235.92	2830.29
236.14	3379.15
236.36	3782.60
236.58	2719.70
236.79	2990.03
237.01	3276.75
237.23	3252.17
237.45	3117.01
237.67	2953.17
237.88	3272.65
238.10	3647.43
238.32	2744.28
238.54	2830.29
238.76	3147.73
238.97	3098.58
239.19	2797.53
239.41	2901.97
239.63	3522.51
239.85	3121.10
240.06	2844.63
240.28	2844.63
240.50	3497.93
240.72	3248.08
240.93	2828.24
241.15	2965.46
241.37	3280.85
241.59	3567.56
241.81	2834.39
242.02	2908.12
242.24	3307.47
242.46	3471.31
242.68	2678.74
242.89	2830.29
243.11	3440.59
243.33	3319.76
243.55	2856.92
243.76	2889.68
243.98	3098.58
244.20	3237.84
244.42	2930.64
244.64	2824.15
244.85	3020.75
245.07	3160.02
245.29	2852.82
245.51	2893.78
245.72	3340.24
245.94	3446.73
246.16	2760.66
246.38	2955.22
246.59	3129.30
246.81	3106.77
247.03	2861.01
247.24	2768.85
247.46	3250.13
247.68	3334.09
247.90	2809.81
248.11	2861.01
248.33	3450.83
248.55	3305.42
248.77	2840.53
248.98	2983.89
249.20	3622.86
249.42	3315.66
249.64	2897.88
249.85	2838.48
250.07	3192.78
250.29	3409.87
250.50	2926.55
250.72	2752.47
250.94	3356.62
251.16	3753.93
251.37	2822.10
251.59	2942.93
251.81	3373.00
252.02	3669.96
252.24	2850.77
252.46	3039.19
252.68	3119.06
252.89	3172.30
253.11	2697.17
253.33	3041.23
253.54	3626.95
253.76	3112.91
253.98	2848.72
254.20	2957.27
254.41	3037.14
254.63	3149.78
254.85	2807.77
255.06	2994.13
255.28	3358.67
255.50	3178.45
255.71	2904.02
255.93	2744.28
256.15	3121.10
256.36	3442.64
256.58	2738.13
256.80	2854.87
257.02	3282.89
257.23	3219.41
257.45	2942.93
257.67	2992.08
257.88	3213.26
258.10	3387.34
258.32	2953.17
258.53	2922.45
258.75	3559.37
258.97	3123.15
259.18	2742.23
259.40	2754.52
259.62	3694.54
259.83	3594.19
260.05	2922.45
260.27	3735.50
260.48	3542.99
260.70	3047.38
260.92	2815.96
261.13	2926.55
261.35	3344.33
261.57	3377.10
261.78	2766.81
262.00	2801.62
262.22	3377.10
262.43	3133.39
262.65	2918.36
262.86	2861.01
263.08	3790.79
263.30	3299.28
263.51	2750.42
263.73	2869.20
263.95	3616.71
264.16	3098.58
264.38	2713.56
264.60	2748.37
264.81	3237.84
265.03	3483.59
265.25	3327.95
265.46	2775.00
265.68	3465.16
265.89	3481.55
266.11	2725.85
266.33	2822.10
266.54	3495.88
266.76	3332.05
266.98	2926.55
267.19	3090.38
267.41	3495.88
267.62	3280.85
267.84	2717.65
268.06	2922.45
268.27	3368.91
268.49	3477.45
268.70	2942.93
268.92	2994.13
269.14	3043.28
269.35	3131.34
269.57	2928.60
269.79	2914.26
270.00	3086.29
270.22	3528.65
270.43	2787.29
270.65	2705.37
270.87	3237.84
271.08	3459.02
271.30	2897.88
271.51	2895.83
271.73	3391.44
271.95	3647.43
272.16	2787.29
272.38	2955.22
272.59	3272.65
272.81	3336.14
273.02	2836.44
273.24	2944.98
273.46	3585.99
273.67	3041.23
273.89	2691.03
274.10	2869.20
274.32	3467.21
274.54	3278.80
274.75	2969.55
274.97	2985.94
275.18	3475.40
275.40	3350.48
275.61	2883.54
275.83	2975.70
276.05	3008.47
276.26	3221.45
276.48	2938.84
276.69	3002.32
276.91	3205.07
277.12	3684.30
277.34	3051.47
277.55	3162.06
277.77	3282.89
277.99	3301.33
278.20	3006.42
278.42	2971.60
278.63	3164.11
278.85	3100.62
279.06	2922.45
279.28	3143.63
279.49	3456.97
279.71	3428.30
279.93	3057.62
280.14	3037.14
280.36	3110.86
280.57	3532.75
280.79	3086.29
281.00	2920.40
281.22	3127.25
281.43	3465.16
281.65	2811.86
281.86	2889.68
282.08	3409.87
282.29	3655.62
282.51	2830.29
282.73	2906.07
282.94	2926.55
283.16	3399.63
283.37	3131.34
283.59	2953.17
283.80	3350.48
284.02	3284.94
284.23	3018.71
284.45	3110.86
284.66	3129.30
284.88	3170.26
285.09	2879.44
285.31	3106.77
285.52	3352.52
285.74	2967.51
285.95	3108.82
286.17	3041.23
286.38	3506.12
286.60	3180.50
286.81	2914.26
287.03	3008.47
287.24	3239.89
287.46	3323.85
287.67	3108.82
287.89	3229.65
288.10	3258.32
288.32	3344.33
288.53	3139.54
288.75	3065.81
288.96	3409.87
289.18	3096.53
289.39	2930.64
289.61	3102.67
289.82	3686.34
290.04	3682.25
290.25	2922.45
290.47	3028.95
290.68	3268.56
290.90	3428.30
291.11	2787.29
291.33	3170.26
291.54	3110.86
291.76	3221.45
291.97	3147.73
292.18	3110.86
292.40	3155.92
292.61	3084.24
292.83	3280.85
293.04	3039.19
293.26	3332.05
293.47	3272.65
293.69	2971.60
293.90	2852.82
294.12	3530.70
294.33	3229.65
294.55	3078.10
294.76	3168.21
294.97	3616.71
295.19	3682.25
295.40	2975.70
295.62	3100.62
295.83	3463.12
296.05	3196.88
296.26	3278.80
296.48	3004.37
296.69	3254.22
296.90	3254.22
297.12	3131.34
297.33	3076.05
297.55	3266.51
297.76	3309.52
297.98	3055.57
298.19	3098.58
298.41	3319.76
298.62	3198.93
298.83	3139.54
299.05	3076.05
299.26	3184.59
299.48	3092.43
299.69	3061.71
299.90	2983.89
300.12	3112.91
300.33	3483.59
300.55	3057.62
300.76	3061.71
300.98	2961.36
301.19	3405.77
301.40	3057.62
301.62	2967.51
301.83	3319.76
302.05	3311.57
302.26	2938.84
302.47	3051.47
302.69	3024.85
302.90	3307.47
303.12	2791.38
303.33	3074.00
303.54	3702.73
303.76	3180.50
303.97	2912.21
304.19	3147.73
304.40	3112.91
304.61	3362.76
304.83	3135.44
305.04	3180.50
305.26	3430.35
305.47	3108.82
305.68	3008.47
305.90	2852.82
306.11	3534.79
306.33	3219.41
306.54	2873.30
306.75	3033.04
306.97	3018.71
307.18	3133.39
307.39	2994.13
307.61	3059.67
307.82	3229.65
308.04	3360.72
308.25	2777.05
308.46	3139.54
308.68	3276.75
308.89	3231.69
309.10	3106.77
309.32	3020.75
309.53	3190.74
309.74	3405.77
309.96	2928.60
310.17	3157.97
310.39	3217.36
310.60	3346.38
310.81	3022.80
311.03	2992.08
311.24	3370.96
311.45	3241.93
311.67	3315.66
311.88	3114.96
312.09	3133.39
312.31	3194.83
312.52	2891.73
312.73	2930.64
312.95	3069.91
313.16	3098.58
313.37	3198.93
313.59	3157.97
313.80	3401.68
314.01	3594.19
314.23	2996.18
314.44	2865.11
314.65	2987.99
314.87	3213.26
315.08	2983.89
315.29	2961.36
315.51	3121.10
315.72	3002.32
315.93	3016.66
316.15	3041.23
316.36	3147.73
316.57	3305.42
316.79	2951.12
317.00	3002.32
317.21	3442.64
317.43	3063.76
317.64	3039.19
317.85	2951.12
318.07	3049.43
318.28	3141.58
318.49	3102.67
318.70	3231.69
318.92	3336.14
319.13	3352.52
319.34	3088.34
319.56	3069.91
319.77	3385.29
319.98	3391.44
320.20	3293.13
320.41	3080.14
320.62	3379.15
320.83	3137.49
321.05	3254.22
321.26	3059.67
321.47	3307.47
321.69	3473.36
321.90	2881.49
322.11	2936.79
322.32	3346.38
322.54	3518.41
322.75	3100.62
322.96	4042.69
323.18	3055.57
323.39	2910.16
323.60	2869.20
323.81	3037.14
324.03	3084.24
324.24	3270.61
324.45	3133.39
324.66	2918.36
324.88	3526.60
325.09	3688.39
325.30	3033.04
325.52	2881.49
325.73	3346.38
325.94	3008.47
326.15	2924.50
326.37	2869.20
326.58	3504.07
326.79	3631.05
327.00	2985.94
327.22	2959.31
327.43	3186.64
327.64	3043.28
327.85	3106.77
328.07	3121.10
328.28	3622.86
328.49	3168.21
328.70	2985.94
328.92	3047.38
329.13	3278.80
329.34	3354.57
329.55	3223.50
329.76	3143.63
329.98	3237.84
330.19	3532.75
330.40	3055.57
330.61	3092.43
330.83	3473.36
331.04	3229.65
331.25	3065.81
331.46	3033.04
331.68	3057.62
331.89	3452.88
332.10	3012.56
332.31	2901.97
332.52	3203.02
332.74	3532.75
332.95	2809.81
333.16	2930.64
333.37	3430.35
333.58	3151.82
333.80	3008.47
334.01	2815.96
334.22	3225.55
334.43	3137.49
334.64	2957.27
334.86	2983.89
335.07	3063.76
335.28	3573.71
335.49	2844.63
335.70	2992.08
335.92	3493.83
336.13	3651.53
336.34	3088.34
336.55	2975.70
336.76	3342.28
336.98	2873.30
337.19	3057.62
337.40	3143.63
337.61	3885.00
337.82	3203.02
338.04	3051.47
338.25	2844.63
338.46	3219.41
338.67	3231.69
338.88	2940.88
339.09	2920.40
339.31	3200.98
339.52	3018.71
339.73	2887.64
339.94	3090.38
340.15	3399.63
340.36	3149.78
340.58	3024.85
340.79	2934.74
341.00	3424.20
341.21	3024.85
341.42	3215.31
341.63	3037.14
341.85	3469.26
342.06	3307.47
342.27	2938.84
342.48	3055.57
342.69	3018.71
342.90	3395.53
343.12	3317.71
343.33	2947.03
343.54	3504.07
343.75	3629.00
343.96	3137.49
344.17	2934.74
344.38	3227.60
344.60	3123.15
344.81	2930.64
345.02	3055.57
345.23	3452.88
345.44	3850.18
345.65	3069.91
345.86	3074.00
346.07	3336.14
346.29	3151.82
346.50	3117.01
346.71	3112.91
346.92	3542.99
347.13	3747.78
347.34	3061.71
347.55	2871.25
347.76	3416.01
347.98	2983.89
348.19	3059.67
348.40	3145.68
348.61	3172.30
348.82	3530.70
349.03	3112.91
349.24	2996.18
349.45	3735.50
349.66	2885.59
349.88	2979.79
350.09	2901.97
350.30	3669.96
350.51	3549.13
350.72	3200.98
350.93	3043.28
351.14	3207.12
351.35	3364.81
351.56	3022.80
351.77	3008.47
351.99	3356.62
352.20	3524.55
352.41	3051.47
352.62	2818.00
352.83	3334.09
353.04	3311.57
353.25	3078.10
353.46	3110.86
353.67	3534.79
353.88	2877.40
354.09	2883.54
354.30	3014.61
354.52	3381.20
354.73	3342.28
354.94	2969.55
355.15	3002.32
355.36	3743.69
355.57	3178.45
355.78	2940.88
355.99	2934.74
356.20	3284.94
356.41	3508.17
356.62	3092.43
356.83	3035.09
357.04	3569.61
357.25	3008.47
357.46	3012.56
357.68	2947.03
357.89	3090.38
358.10	3270.61
358.31	2912.21
358.52	2992.08
358.73	3082.19
358.94	2971.60
359.15	2969.55
359.36	3008.47
359.57	3301.33
359.78	3182.54
359.99	3108.82
360.20	2936.79
360.41	3276.75
360.62	3401.68
360.83	3084.24
361.04	3059.67
361.25	3317.71
361.46	3557.32
361.67	3121.10
361.88	2996.18
362.09	3495.88
362.30	3356.62
362.51	2881.49
362.72	3094.48
362.93	3459.02
363.14	3313.61
363.35	3123.15
363.56	2867.16
363.78	3555.27
363.99	3516.36
364.20	2926.55
364.41	3139.54
364.62	3606.47
364.83	3254.22
365.04	2977.75
365.25	3053.52
365.46	3764.17
365.67	3129.30
365.88	3082.19
366.09	2959.31
366.30	3235.79
366.51	3254.22
366.72	2922.45
366.93	2971.60
367.14	3278.80
367.35	3532.75
367.56	3033.04
367.77	3141.58
367.98	3254.22
368.18	3381.20
368.39	3137.49
368.60	2934.74
368.81	3481.55
369.02	3291.09
369.23	3063.76
369.44	2791.38
369.65	3229.65
369.86	3375.05
370.07	3133.39
370.28	2867.16
370.49	3397.58
370.70	3248.08
370.91	2912.21
371.12	2930.64
371.33	3434.44
371.54	3170.26
371.75	3135.44
371.96	2719.70
372.17	3276.75
372.38	3200.98
372.59	3030.99
372.80	2985.94
373.01	3268.56
373.22	3264.46
373.43	3028.95
373.64	2944.98
373.85	3454.92
374.06	3534.79
374.26	3188.69
374.47	3237.84
374.68	3557.32
374.89	3301.33
375.10	2944.98
375.31	3053.52
375.52	3291.09
375.73	3340.24
375.94	2818.00
376.15	3043.28
376.36	3076.05
376.57	3170.26
376.78	3033.04
376.99	3028.95
377.20	3590.09
377.40	3182.54
377.61	3223.50
377.82	2985.94
378.03	3510.22
378.24	3434.44
378.45	3121.10
378.66	3063.76
378.87	3026.90
379.08	3041.23
379.29	3026.90
379.50	3149.78
379.71	3295.18
379.91	3450.83
380.12	2975.70
380.33	3106.77
380.54	3276.75
380.75	3200.98
380.96	3037.14
381.17	2998.23
381.38	3196.88
381.59	3377.10
381.80	3022.80
382.00	3196.88
382.21	3270.61
382.42	3616.71
382.63	3381.20
382.84	3129.30
383.05	3506.12
383.26	3612.62
383.47	3098.58
383.68	2901.97
383.88	3422.16
384.09	3321.81
384.30	3209.17
384.51	3117.01
384.72	3243.98
384.93	3043.28
385.14	3119.06
385.35	3280.85
385.55	2934.74
385.76	3549.13
385.97	3047.38
386.18	2844.63
386.39	3166.16
386.60	3166.16
386.81	2990.03
387.02	2930.64
387.22	3057.62
387.43	3448.78
387.64	3037.14
387.85	3278.80
388.06	3338.19
388.27	4306.88
388.48	7643.02
388.68	11884.36
388.89	15187.74
389.10	16230.15
389.31	15920.91
389.52	13102.90
389.73	11220.82
389.93	10266.47
390.14	9166.71
390.35	8527.74
390.56	7911.30
390.77	6649.75
390.98	4997.04
391.18	4173.76
391.39	3934.15
391.60	3338.19
391.81	3266.51
392.02	3037.14
392.23	3696.58
392.43	3340.24
392.64	3203.02
392.85	3065.81
393.06	3637.19
393.27	3211.22
393.47	3057.62
393.68	3090.38
393.89	3248.08
394.10	3467.21
394.31	2983.89
394.52	2996.18
394.72	3110.86
394.93	3622.86
395.14	2865.11
395.35	3133.39
395.56	3121.10
395.76	3221.45
395.97	3026.90
396.18	3186.64
396.39	3293.13
396.60	3880.90
396.80	3438.54
397.01	3270.61
397.22	3450.83
397.43	3565.51
397.64	3049.43
397.84	3139.54
398.05	3684.30
398.26	3246.03
398.47	3114.96
398.67	3213.26
398.88	3274.70
399.09	3465.16
399.30	3024.85
399.51	3108.82
399.71	3145.68
399.92	3112.91
400.13	3125.20
400.34	3037.14
400.54	3254.22
400.75	3608.52
400.96	3196.88
401.17	3370.96
401.37	3420.11
401.58	3266.51
401.79	3035.09
402.00	3076.05
402.21	3805.13
402.41	3418.06
402.62	3422.16
402.83	3551.18
403.04	3782.60
403.24	4126.66
403.45	3231.69
403.66	3356.62
403.87	3577.80
404.07	3631.05
404.28	3321.81
404.49	3352.52
404.70	3385.29
404.90	3377.10
405.11	3080.14
405.32	3084.24
405.52	3205.07
405.73	3219.41
405.94	2914.26
406.15	3082.19
406.35	3456.97
406.56	3348.43
406.77	2992.08
406.98	3026.90
407.18	3119.06
407.39	3590.09
407.60	3086.29
407.80	3094.48
408.01	3160.02
408.22	3342.28
408.43	2971.60
408.63	3160.02
408.84	3373.00
409.05	3432.40
409.25	2967.51
409.46	3039.19
409.67	3295.18
409.88	3155.92
410.08	3049.43
410.29	3028.95
410.50	3416.01
410.70	3325.90
410.91	3000.27
411.12	3049.43
411.32	3286.99
411.53	3127.25
411.74	3071.95
411.95	3200.98
412.15	3313.61
412.36	3426.25
412.57	3192.78
412.77	3223.50
412.98	3200.98
413.19	3180.50
413.39	3174.35
413.60	3104.72
413.81	3565.51
414.01	3055.57
414.22	3123.15
414.43	3225.55
414.63	3286.99
414.84	3479.50
415.05	3106.77
415.25	2883.54
415.46	3413.96
415.67	3211.22
415.87	3135.44
416.08	3026.90
416.29	3168.21
416.49	3385.29
416.70	3141.58
416.91	3074.00
417.11	3223.50
417.32	3491.79
417.53	3233.74
417.73	3053.52
417.94	3256.27
418.15	3319.76
418.35	3117.01
418.56	3131.34
418.77	3803.08
418.97	3205.07
419.18	3069.91
419.38	2762.71
419.59	3319.76
419.80	3618.76
420.00	2961.36
420.21	3026.90
420.42	3545.03
420.62	3317.71
420.83	3090.38
421.04	2983.89
421.24	3332.05
421.45	3467.21
421.65	3030.99
421.86	3102.67
422.07	3452.88
422.27	3321.81
422.48	2934.74
422.69	2801.62
422.89	3342.28
423.10	3319.76
423.30	2951.12
423.51	3051.47
423.72	3383.24
423.92	3432.40
424.13	2895.83
424.33	3155.92
424.54	3424.20
424.75	3272.65
424.95	3276.75
425.16	2996.18
425.36	3295.18
425.57	3432.40
425.78	3164.11
425.98	3106.77
426.19	3229.65
426.39	3164.11
426.60	3084.24
426.81	3147.73
427.01	3286.99
427.22	3084.24
427.42	2938.84
427.63	2967.51
427.83	3456.97
428.04	3637.19
428.25	3151.82
428.45	3084.24
428.66	3504.07
428.86	3200.98
429.07	3149.78
429.28	3123.15
429.48	3315.66
429.69	3098.58
429.89	3178.45
430.10	2904.02
430.30	3330.00
430.51	3442.64
430.71	2940.88
430.92	3096.53
431.13	3125.20
431.33	3383.24
431.54	3098.58
431.74	3250.13
431.95	3692.49
432.15	3129.30
432.36	3004.37
432.56	3157.97
432.77	3700.68
432.98	3643.34
433.18	3110.86
433.39	2895.83
433.59	3346.38
433.80	3696.58
434.00	3239.89
434.21	2973.65
434.41	3164.11
434.62	3604.42
434.82	2959.31
435.03	2936.79
435.23	3356.62
435.44	2906.07
435.64	2983.89
435.85	3045.33
436.06	3475.40
436.26	3479.50
436.47	3024.85
436.67	3006.42
436.88	3184.59
437.08	3506.12
437.29	3114.96
437.49	3147.73
437.70	3567.56
437.90	3256.27
438.11	3276.75
438.31	3164.11
438.52	3573.71
438.72	3520.46
438.93	3393.48
439.13	3221.45
439.34	3442.64
439.54	3137.49
439.75	3286.99
439.95	3094.48
440.16	3151.82
440.36	3248.08
440.57	3082.19
440.77	3028.95
440.98	3291.09
441.18	3344.33
441.39	2932.69
441.59	2973.65
441.80	3729.35
442.00	3272.65
442.21	3190.74
442.41	2858.96
442.62	3471.31
442.82	3221.45
443.02	3082.19
443.23	3043.28
443.43	3231.69
443.64	3598.28
443.84	3008.47
444.05	3198.93
444.25	3229.65
444.46	3274.70
444.66	3033.04
444.87	3289.04
445.07	2977.75
445.28	3211.22
445.48	3239.89
445.69	3153.87
445.89	3891.14
446.09	3182.54
446.30	3311.57
446.50	3483.59
446.71	5081.01
446.91	6299.55
447.12	7133.08
447.32	7669.64
447.53	7710.60
447.73	6399.90
447.93	5586.86
448.14	5265.33
448.34	5459.88
448.55	4536.25
448.75	4540.35
448.96	4218.82
449.16	4120.51
449.36	3868.61
449.57	3381.20
449.77	3098.58
449.98	3227.60
450.18	3389.39
450.39	3022.80
450.59	3225.55
450.79	3313.61
451.00	3100.62
451.20	3262.41
451.41	3184.59
451.61	3315.66
451.81	3266.51
452.02	2957.27
452.22	3074.00
452.43	3155.92
