SpectraSuite Data File
++++++++++++++++++++++++++++++++++++
Date: Fri May 06 08:14:04 CEST 2016
User: root
Dark Spectrum Present: No
Reference Spectrum Present: No
Number of Sampled Component Spectra: 1
Spectrometers: USB4C02835
Integration Time (usec): 100000 (USB4C02835)
Spectra Averaged: 1 (USB4C02835)
Boxcar Smoothing: 0 (USB4C02835)
Correct for Electrical Dark: No (USB4C02835)
Strobe/Lamp Enabled: No (USB4C02835)
Correct for Detector Non-linearity: No (USB4C02835)
Correct for Stray Light: No (USB4C02835)
Number of Pixels in Processed Spectrum: 3648
>>>>>Begin Processed Spectral Data<<<<<
177.47	2355.16
177.69	2355.16
177.91	2355.16
178.13	2289.63
178.36	2295.77
178.58	3059.67
178.80	3100.62
179.02	2987.99
179.24	3069.91
179.46	2764.76
179.68	2844.63
179.90	3235.79
180.13	3282.89
180.35	2656.22
180.57	2848.72
180.79	3379.15
181.01	3186.64
181.23	2824.15
181.45	2928.60
181.67	3440.59
181.90	3387.34
182.12	2899.92
182.34	2729.94
182.56	3512.27
182.78	3379.15
183.00	2801.62
183.22	2873.30
183.44	2842.58
183.66	3866.56
183.89	3065.81
184.11	2893.78
184.33	3471.31
184.55	3491.79
184.77	2863.06
184.99	2877.40
185.21	3119.06
185.43	3764.17
185.65	2842.58
185.87	2826.20
186.10	3807.17
186.32	3825.61
186.54	3041.23
186.76	2977.75
186.98	3475.40
187.20	3262.41
187.42	2856.92
187.64	2840.53
187.86	3383.24
188.08	3510.22
188.30	2820.05
188.52	2928.60
188.75	3512.27
188.97	3612.62
189.19	2807.77
189.41	2781.14
189.63	3418.06
189.85	3170.26
190.07	2623.45
190.29	2643.93
190.51	3499.98
190.73	2961.36
190.95	3020.75
191.17	2969.55
191.39	2965.46
191.61	3151.82
191.84	2871.25
192.06	2928.60
192.28	2967.51
192.50	3928.00
192.72	2940.88
192.94	2953.17
193.16	3520.46
193.38	3336.14
193.60	2748.37
193.82	3008.47
194.04	3475.40
194.26	3409.87
194.48	2910.16
194.70	2912.21
194.92	3237.84
195.14	3391.44
195.36	2777.05
195.58	2944.98
195.80	3221.45
196.02	3110.86
196.24	2770.90
196.46	2928.60
196.69	3102.67
196.91	3702.73
197.13	2932.69
197.35	2908.12
197.57	3581.90
197.79	3440.59
198.01	2881.49
198.23	2926.55
198.45	3354.57
198.67	2987.99
198.89	2731.99
199.11	2906.07
199.33	3133.39
199.55	2867.16
199.77	2805.72
199.99	2983.89
200.21	3207.12
200.43	3336.14
200.65	2744.28
200.87	2777.05
201.09	3289.04
201.31	3248.08
201.53	2959.31
201.75	3030.99
201.97	3270.61
202.19	3340.24
202.41	2924.50
202.63	3049.43
202.85	3450.83
203.07	3379.15
203.29	2930.64
203.51	2705.37
203.73	3119.06
203.95	3848.13
204.17	2867.16
204.39	2947.03
204.61	3278.80
204.83	3155.92
205.05	3041.23
205.27	2901.97
205.49	3680.20
205.71	3291.09
205.93	2666.46
206.15	2787.29
206.37	3266.51
206.59	3282.89
206.81	2750.42
207.03	2781.14
207.25	3143.63
207.47	3418.06
207.69	2828.24
207.91	3166.16
208.13	3604.42
208.34	3110.86
208.56	2846.68
208.78	2887.64
209.00	3194.83
209.22	3166.16
209.44	2906.07
209.66	2852.82
209.88	3303.37
210.10	3252.17
210.32	2818.00
210.54	2947.03
210.76	3246.03
210.98	3508.17
211.20	2729.94
211.42	2983.89
211.64	3516.36
211.86	3354.57
212.08	2922.45
212.30	2953.17
212.52	3196.88
212.74	3383.24
212.96	2904.02
213.17	2934.74
213.39	3383.24
213.61	3614.66
213.83	2764.76
214.05	2799.57
214.27	3545.03
214.49	3100.62
214.71	2779.09
214.93	2967.51
215.15	3260.37
215.37	3508.17
215.59	2711.51
215.81	2893.78
216.03	3596.23
216.24	3305.42
216.46	2832.34
216.68	2971.60
216.90	3401.68
217.12	3508.17
217.34	2826.20
217.56	3022.80
217.78	3573.71
218.00	3467.21
218.22	2910.16
218.44	2959.31
218.66	3403.72
218.87	3643.34
219.09	2967.51
219.31	2813.91
219.53	3344.33
219.75	3145.68
219.97	2957.27
220.19	2934.74
220.41	3215.31
220.63	3661.77
220.85	2918.36
221.06	2879.44
221.28	3684.30
221.50	3467.21
221.72	2881.49
221.94	2766.81
222.16	3346.38
222.38	3446.73
222.60	2844.63
222.82	2895.83
223.03	3499.98
223.25	3090.38
223.47	2824.15
223.69	3063.76
223.91	3502.03
224.13	3266.51
224.35	2828.24
224.57	3092.43
224.78	3450.83
225.00	3035.09
225.22	2922.45
225.44	2856.92
225.66	3379.15
225.88	3149.78
226.10	2947.03
226.32	2871.25
226.53	3631.05
226.75	3213.26
226.97	2936.79
227.19	2885.59
227.41	3180.50
227.63	3270.61
227.85	2697.17
228.06	2979.79
228.28	3317.71
228.50	3475.40
228.72	2738.13
228.94	2854.87
229.16	2846.68
229.37	3033.04
229.59	2799.57
229.81	3133.39
230.03	3250.13
230.25	3000.27
230.47	2740.18
230.69	2856.92
230.90	3411.92
231.12	3108.82
231.34	2963.41
231.56	2947.03
231.78	3098.58
232.00	3325.90
232.21	2879.44
232.43	2901.97
232.65	2840.53
232.87	3373.00
233.09	2715.61
233.30	2826.20
233.52	3536.84
233.74	3266.51
233.96	2754.52
234.18	3100.62
234.40	3276.75
234.61	3805.13
234.83	2775.00
235.05	2832.34
235.27	3864.52
235.49	3538.89
235.70	2758.61
235.92	2885.59
236.14	3397.58
236.36	3829.70
236.58	2717.65
236.79	2940.88
237.01	3348.43
237.23	3258.32
237.45	3053.52
237.67	2942.93
237.88	3291.09
238.10	3690.44
238.32	2789.33
238.54	2781.14
238.76	3280.85
238.97	3155.92
239.19	2801.62
239.41	2926.55
239.63	3516.36
239.85	3125.20
240.06	2906.07
240.28	2844.63
240.50	3522.51
240.72	3205.07
240.93	2734.04
241.15	2987.99
241.37	3289.04
241.59	3526.60
241.81	2811.86
242.02	2973.65
242.24	3297.23
242.46	3330.00
242.68	2734.04
242.89	2869.20
243.11	3432.40
243.33	3207.12
243.55	2912.21
243.76	2926.55
243.98	3086.29
244.20	3205.07
244.42	2889.68
244.64	2781.14
244.85	3067.86
245.07	3172.30
245.29	2936.79
245.51	2951.12
245.72	3330.00
245.94	3502.03
246.16	2797.53
246.38	2910.16
246.59	3131.34
246.81	3010.51
247.03	2793.43
247.24	2717.65
247.46	3190.74
247.68	3313.61
247.90	2854.87
248.11	2885.59
248.33	3454.92
248.55	3268.56
248.77	2895.83
248.98	2994.13
249.20	3598.28
249.42	3282.89
249.64	2738.13
249.85	2789.33
250.07	3164.11
250.29	3395.53
250.50	2904.02
250.72	2775.00
250.94	3452.88
251.16	3768.26
251.37	2879.44
251.59	2994.13
251.81	3450.83
252.02	3635.14
252.24	2820.05
252.46	2910.16
252.68	3133.39
252.89	3139.54
253.11	2725.85
253.33	3043.28
253.54	3559.37
253.76	3114.96
253.98	2844.63
254.20	2871.25
254.41	3000.27
254.63	3278.80
254.85	2783.19
255.06	3030.99
255.28	3352.52
255.50	3274.70
255.71	2775.00
255.93	2705.37
256.15	3254.22
256.36	3397.58
256.58	2775.00
256.80	2809.81
257.02	3205.07
257.23	3274.70
257.45	2848.72
257.67	2975.70
257.88	3205.07
258.10	3319.76
258.32	2838.48
258.53	3008.47
258.75	3659.72
258.97	3149.78
259.18	2807.77
259.40	2850.77
259.62	3659.72
259.83	3588.04
260.05	2858.96
260.27	3762.12
260.48	3512.27
260.70	3053.52
260.92	2852.82
261.13	2861.01
261.35	3307.47
261.57	3436.49
261.78	2811.86
262.00	2863.06
262.22	3426.25
262.43	3143.63
262.65	2883.54
262.86	2904.02
263.08	3809.22
263.30	3315.66
263.51	2641.88
263.73	2760.66
263.95	3729.35
264.16	3112.91
264.38	2750.42
264.60	2813.91
264.81	3272.65
265.03	3581.90
265.25	3225.55
265.46	2795.48
265.68	3440.59
265.89	3442.64
266.11	2775.00
266.33	2863.06
266.54	3506.12
266.76	3481.55
266.98	2940.88
267.19	3057.62
267.41	3573.71
267.62	3282.89
267.84	2688.98
268.06	2994.13
268.27	3330.00
268.49	3561.42
268.70	2891.73
268.92	2844.63
269.14	3057.62
269.35	3028.95
269.57	2975.70
269.79	3028.95
270.00	3119.06
270.22	3700.68
270.43	2705.37
270.65	2688.98
270.87	3260.37
271.08	3446.73
271.30	2998.23
271.51	2869.20
271.73	3393.48
271.95	3637.19
272.16	2832.34
272.38	3055.57
272.59	3258.32
272.81	3332.05
273.02	2824.15
273.24	2901.97
273.46	3479.50
273.67	3143.63
273.89	2641.88
274.10	2848.72
274.32	3495.88
274.54	3330.00
274.75	2975.70
274.97	2944.98
275.18	3434.44
275.40	3413.96
275.61	2869.20
275.83	2975.70
276.05	3106.77
276.26	3260.37
276.48	2971.60
276.69	3063.76
276.91	3147.73
277.12	3590.09
277.34	3084.24
277.55	3086.29
277.77	3385.29
277.99	3233.74
278.20	2938.84
278.42	2895.83
278.63	3203.02
278.85	3112.91
279.06	2940.88
279.28	3043.28
279.49	3418.06
279.71	3399.63
279.93	3024.85
280.14	3008.47
280.36	3149.78
280.57	3442.64
280.79	3047.38
281.00	2815.96
281.22	3227.60
281.43	3592.14
281.65	2772.95
281.86	2926.55
282.08	3420.11
282.29	3684.30
282.51	2830.29
282.73	2901.97
282.94	3047.38
283.16	3473.36
283.37	3063.76
283.59	3028.95
283.80	3387.34
284.02	3284.94
284.23	3022.80
284.45	2994.13
284.66	3192.78
284.88	3198.93
285.09	2869.20
285.31	3069.91
285.52	3319.76
285.74	2912.21
285.95	3176.40
286.17	2975.70
286.38	3358.67
286.60	3239.89
286.81	2992.08
287.03	2906.07
287.24	3293.13
287.46	3473.36
287.67	3108.82
287.89	3153.87
288.10	3213.26
288.32	3280.85
288.53	3155.92
288.75	3108.82
288.96	3430.35
289.18	3131.34
289.39	2906.07
289.61	3026.90
289.82	3719.11
290.04	3684.30
290.25	2838.48
290.47	3053.52
290.68	3237.84
290.90	3403.72
291.11	2828.24
291.33	3108.82
291.54	3117.01
291.76	3127.25
291.97	3131.34
292.18	3074.00
292.40	3184.59
292.61	3114.96
292.83	3237.84
293.04	2955.22
293.26	3264.46
293.47	3139.54
293.69	2918.36
293.90	2863.06
294.12	3557.32
294.33	3239.89
294.55	3018.71
294.76	3211.22
294.97	3538.89
295.19	3686.34
295.40	2875.35
295.62	3041.23
295.83	3526.60
296.05	3147.73
296.26	3256.27
296.48	2996.18
296.69	3160.02
296.90	3221.45
297.12	3141.58
297.33	3184.59
297.55	3319.76
297.76	3401.68
297.98	3143.63
298.19	3217.36
298.41	3223.50
298.62	3164.11
298.83	3147.73
299.05	3076.05
299.26	3252.17
299.48	3067.86
299.69	3155.92
299.90	2942.93
300.12	3028.95
300.33	3385.29
300.55	2981.84
300.76	3051.47
300.98	3074.00
301.19	3342.28
301.40	2981.84
301.62	3018.71
301.83	3422.16
302.05	3241.93
302.26	2910.16
302.47	3053.52
302.69	3053.52
302.90	3336.14
303.12	2738.13
303.33	3149.78
303.54	3706.82
303.76	3145.68
303.97	2918.36
304.19	3162.06
304.40	3147.73
304.61	3397.58
304.83	3145.68
305.04	3037.14
305.26	3377.10
305.47	3198.93
305.68	3022.80
305.90	2836.44
306.11	3596.23
306.33	3217.36
306.54	2887.64
306.75	2895.83
306.97	3057.62
307.18	3065.81
307.39	2992.08
307.61	3102.67
307.82	3221.45
308.04	3336.14
308.25	2867.16
308.46	3211.22
308.68	3295.18
308.89	3248.08
309.10	3059.67
309.32	2985.94
309.53	3340.24
309.74	3375.05
309.96	2901.97
310.17	3041.23
310.39	3229.65
310.60	3442.64
310.81	3053.52
311.03	2918.36
311.24	3434.44
311.45	3237.84
311.67	3266.51
311.88	3090.38
312.09	3205.07
312.31	3141.58
312.52	2938.84
312.73	2877.40
312.95	3069.91
313.16	3028.95
313.37	3239.89
313.59	3209.17
313.80	3426.25
314.01	3606.47
314.23	2947.03
314.44	2828.24
314.65	2969.55
314.87	3143.63
315.08	2971.60
315.29	2926.55
315.51	3160.02
315.72	3016.66
315.93	3057.62
316.15	2983.89
316.36	3209.17
316.57	3286.99
316.79	3028.95
317.00	2951.12
317.21	3385.29
317.43	3133.39
317.64	3033.04
317.85	2904.02
318.07	3129.30
318.28	3196.88
318.49	3104.72
318.70	3356.62
318.92	3430.35
319.13	3346.38
319.34	3153.87
319.56	2961.36
319.77	3368.91
319.98	3416.01
320.20	3321.81
320.41	3100.62
320.62	3426.25
320.83	3133.39
321.05	3196.88
321.26	3024.85
321.47	3289.04
321.69	3469.26
321.90	3010.51
322.11	2914.26
322.32	3344.33
322.54	3557.32
322.75	3051.47
322.96	4011.97
323.18	2975.70
323.39	2910.16
323.60	2942.93
323.81	3090.38
324.03	3209.17
324.24	3362.76
324.45	3129.30
324.66	2918.36
324.88	3438.54
325.09	3643.34
325.30	2930.64
325.52	2897.88
325.73	3373.00
325.94	3114.96
326.15	2828.24
326.37	2873.30
326.58	3434.44
326.79	3633.10
327.00	2904.02
327.22	2930.64
327.43	3256.27
327.64	3067.86
327.85	3143.63
328.07	3108.82
328.28	3594.19
328.49	3106.77
328.70	3004.37
328.92	2912.21
329.13	3209.17
329.34	3309.52
329.55	3301.33
329.76	3145.68
329.98	3303.37
330.19	3524.55
330.40	3098.58
330.61	3106.77
330.83	3424.20
331.04	3110.86
331.25	3100.62
331.46	3041.23
331.68	3041.23
331.89	3469.26
332.10	3045.33
332.31	2867.16
332.52	3227.60
332.74	3547.08
332.95	2883.54
333.16	2983.89
333.37	3452.88
333.58	3231.69
333.80	3028.95
334.01	2779.09
334.22	3215.31
334.43	3145.68
334.64	2928.60
334.86	2947.03
335.07	3106.77
335.28	3565.51
335.49	2938.84
335.70	3069.91
335.92	3620.81
336.13	3631.05
336.34	3074.00
336.55	2987.99
336.76	3346.38
336.98	2914.26
337.19	3053.52
337.40	3082.19
337.61	3823.56
337.82	3295.18
338.04	3133.39
338.25	2914.26
338.46	3235.79
338.67	3160.02
338.88	2842.58
339.09	2887.64
339.31	3198.93
339.52	3022.80
339.73	2955.22
339.94	3035.09
340.15	3465.16
340.36	3188.69
340.58	3035.09
340.79	2887.64
341.00	3330.00
341.21	3098.58
341.42	3278.80
341.63	2994.13
341.85	3436.49
342.06	3264.46
342.27	2910.16
342.48	3164.11
342.69	3114.96
342.90	3346.38
343.12	3307.47
343.33	2885.59
343.54	3418.06
343.75	3600.33
343.96	3055.57
344.17	2887.64
344.38	3207.12
344.60	3106.77
344.81	3014.61
345.02	2990.03
345.23	3491.79
345.44	3819.46
345.65	3160.02
345.86	3112.91
346.07	3307.47
346.29	3198.93
346.50	3190.74
346.71	3106.77
346.92	3534.79
347.13	3647.43
347.34	3112.91
347.55	2928.60
347.76	3446.73
347.98	2990.03
348.19	3012.56
348.40	3231.69
348.61	3190.74
348.82	3704.78
349.03	3039.19
349.24	2908.12
349.45	3721.16
349.66	2834.39
349.88	2922.45
350.09	2947.03
350.30	3485.64
350.51	3520.46
350.72	3139.54
350.93	3008.47
351.14	3223.50
351.35	3385.29
351.56	2959.31
351.77	3164.11
351.99	3366.86
352.20	3600.33
352.41	3106.77
352.62	2832.34
352.83	3295.18
353.04	3264.46
353.25	3037.14
353.46	2942.93
353.67	3504.07
353.88	2901.97
354.09	2916.31
354.30	3033.04
354.52	3311.57
354.73	3196.88
354.94	2967.51
355.15	3061.71
355.36	3672.01
355.57	3104.72
355.78	2920.40
355.99	2936.79
356.20	3155.92
356.41	3540.94
356.62	3080.14
356.83	3051.47
357.04	3463.12
357.25	3026.90
357.46	3071.95
357.68	2863.06
357.89	3151.82
358.10	3295.18
358.31	2977.75
358.52	3127.25
358.73	3016.66
358.94	3139.54
359.15	2992.08
359.36	3041.23
359.57	3246.03
359.78	3213.26
359.99	3219.41
360.20	2877.40
360.41	3174.35
360.62	3430.35
360.83	3139.54
361.04	3022.80
361.25	3381.20
361.46	3678.15
361.67	3162.06
361.88	3039.19
362.09	3514.31
362.30	3366.86
362.51	3026.90
362.72	3045.33
362.93	3323.85
363.14	3301.33
363.35	3164.11
363.56	2926.55
363.78	3524.55
363.99	3555.27
364.20	2930.64
364.41	3037.14
364.62	3631.05
364.83	3336.14
365.04	3004.37
365.25	3059.67
365.46	3702.73
365.67	3157.97
365.88	3237.84
366.09	2987.99
366.30	3182.54
366.51	3211.22
366.72	2977.75
366.93	2967.51
367.14	3342.28
367.35	3551.18
367.56	2926.55
367.77	3180.50
367.98	3221.45
368.18	3383.24
368.39	3114.96
368.60	2992.08
368.81	3377.10
369.02	3373.00
369.23	3030.99
369.44	2830.29
369.65	3160.02
369.86	3413.96
370.07	3164.11
370.28	2961.36
370.49	3340.24
370.70	3370.96
370.91	2873.30
371.12	2965.46
371.33	3508.17
371.54	3123.15
371.75	3108.82
371.96	2807.77
372.17	3270.61
372.38	3272.65
372.59	3028.95
372.80	2910.16
373.01	3274.70
373.22	3313.61
373.43	2987.99
373.64	2934.74
373.85	3524.55
374.06	3573.71
374.26	3162.06
374.47	3102.67
374.68	3594.19
374.89	3336.14
375.10	2967.51
375.31	3112.91
375.52	3176.40
375.73	3229.65
375.94	2856.92
376.15	3061.71
376.36	3213.26
376.57	3102.67
376.78	3028.95
376.99	3012.56
377.20	3590.09
377.40	3172.30
377.61	3338.19
377.82	2895.83
378.03	3499.98
378.24	3452.88
378.45	3088.34
378.66	3049.43
378.87	2996.18
379.08	3057.62
379.29	2965.46
379.50	3151.82
379.71	3162.06
379.91	3434.44
380.12	2926.55
380.33	3135.44
380.54	3145.68
380.75	3215.31
380.96	3061.71
381.17	3037.14
381.38	3248.08
381.59	3311.57
381.80	3026.90
382.00	3221.45
382.21	3241.93
382.42	3540.94
382.63	3350.48
382.84	3170.26
383.05	3450.83
383.26	3602.38
383.47	3160.02
383.68	2934.74
383.88	3373.00
384.09	3313.61
384.30	3295.18
384.51	3065.81
384.72	3270.61
384.93	3037.14
385.14	3133.39
385.35	3254.22
385.55	3063.76
385.76	3614.66
385.97	3065.81
386.18	2877.40
386.39	3084.24
386.60	3141.58
386.81	2992.08
387.02	2973.65
387.22	3090.38
387.43	3375.05
387.64	3090.38
387.85	3289.04
388.06	3352.52
388.27	4472.76
388.48	7813.00
388.68	11908.94
388.89	15212.31
389.10	16482.05
389.31	16195.34
389.52	12896.06
389.73	11255.64
389.93	10504.03
390.14	9099.13
390.35	8531.84
390.56	7960.45
390.77	6516.64
390.98	4951.99
391.18	4214.72
391.39	3919.81
391.60	3248.08
391.81	3299.28
392.02	3008.47
392.23	3745.73
392.43	3381.20
392.64	3157.97
392.85	3153.87
393.06	3581.90
393.27	3276.75
393.47	3059.67
393.68	3153.87
393.89	3088.34
394.10	3547.08
394.31	2998.23
394.52	3014.61
394.72	3143.63
394.93	3534.79
395.14	2961.36
395.35	3084.24
395.56	3155.92
395.76	3274.70
395.97	3020.75
396.18	3100.62
396.39	3313.61
396.60	3956.68
396.80	3407.82
397.01	3278.80
397.22	3436.49
397.43	3512.27
397.64	3047.38
397.84	3129.30
398.05	3690.44
398.26	3305.42
398.47	3192.78
398.67	3278.80
398.88	3315.66
399.09	3495.88
399.30	3045.33
399.51	3213.26
399.71	3117.01
399.92	3268.56
400.13	3125.20
400.34	3125.20
400.54	3319.76
400.75	3647.43
400.96	3155.92
401.17	3323.85
401.37	3467.21
401.58	3229.65
401.79	3016.66
402.00	3170.26
402.21	3827.65
402.41	3426.25
402.62	3248.08
402.83	3475.40
403.04	3760.07
403.24	4114.37
403.45	3186.64
403.66	3327.95
403.87	3534.79
404.07	3661.77
404.28	3362.76
404.49	3348.43
404.70	3383.24
404.90	3418.06
405.11	3157.97
405.32	3127.25
405.52	3135.44
405.73	3155.92
405.94	2930.64
406.15	3074.00
406.35	3395.53
406.56	3526.60
406.77	3094.48
406.98	3020.75
407.18	3088.34
407.39	3618.76
407.60	3010.51
407.80	3153.87
408.01	3250.13
408.22	3393.48
408.43	2928.60
408.63	3121.10
408.84	3434.44
409.05	3442.64
409.25	2934.74
409.46	3164.11
409.67	3106.77
409.88	3133.39
410.08	2961.36
410.29	2930.64
410.50	3475.40
410.70	3438.54
410.91	2971.60
411.12	3084.24
411.32	3286.99
411.53	3127.25
411.74	3114.96
411.95	3121.10
412.15	3368.91
412.36	3401.68
412.57	3266.51
412.77	3311.57
412.98	3221.45
413.19	3215.31
413.39	3067.86
413.60	3168.21
413.81	3590.09
414.01	3041.23
414.22	3147.73
414.43	3278.80
414.63	3297.23
414.84	3510.22
415.05	3002.32
415.25	2932.69
415.46	3473.36
415.67	3221.45
415.87	3028.95
416.08	2963.41
416.29	3248.08
416.49	3301.33
416.70	3069.91
416.91	2906.07
417.11	3176.40
417.32	3493.83
417.53	3145.68
417.73	3155.92
417.94	3176.40
418.15	3332.05
418.35	3069.91
418.56	3082.19
418.77	3696.58
418.97	3317.71
419.18	3123.15
419.38	2777.05
419.59	3286.99
419.80	3612.62
420.00	2951.12
420.21	3033.04
420.42	3542.99
420.62	3375.05
420.83	3004.37
421.04	3051.47
421.24	3190.74
421.45	3383.24
421.65	3069.91
421.86	3000.27
422.07	3499.98
422.27	3385.29
422.48	3008.47
422.69	2901.97
422.89	3282.89
423.10	3205.07
423.30	2914.26
423.51	3078.10
423.72	3354.57
423.92	3436.49
424.13	2961.36
424.33	3078.10
424.54	3397.58
424.75	3270.61
424.95	3297.23
425.16	2977.75
425.36	3143.63
425.57	3516.36
425.78	3100.62
425.98	3074.00
426.19	3309.52
426.39	3110.86
426.60	3131.34
426.81	3172.30
427.01	3321.81
427.22	3061.71
427.42	2895.83
427.63	3039.19
427.83	3370.96
428.04	3633.10
428.25	3028.95
428.45	3162.06
428.66	3538.89
428.86	3323.85
429.07	3100.62
429.28	3080.14
429.48	3330.00
429.69	3076.05
429.89	3194.83
430.10	3010.51
430.30	3387.34
430.51	3590.09
430.71	2926.55
430.92	3147.73
431.13	3270.61
431.33	3411.92
431.54	3188.69
431.74	3221.45
431.95	3682.25
432.15	3127.25
432.36	3119.06
432.56	3063.76
432.77	3661.77
432.98	3676.10
433.18	3176.40
433.39	2973.65
433.59	3264.46
433.80	3647.43
434.00	3186.64
434.21	3065.81
434.41	3147.73
434.62	3794.89
434.82	2975.70
435.03	2959.31
435.23	3373.00
435.44	2977.75
435.64	3000.27
435.85	3117.01
436.06	3413.96
436.26	3399.63
436.47	2961.36
436.67	3033.04
436.88	3205.07
437.08	3456.97
437.29	3180.50
437.49	3104.72
437.70	3573.71
437.90	3358.67
438.11	3235.79
438.31	3114.96
438.52	3549.13
438.72	3575.75
438.93	3418.06
439.13	3151.82
439.34	3409.87
439.54	3192.78
439.75	3123.15
439.95	3194.83
440.16	3100.62
440.36	3256.27
440.57	3071.95
440.77	3035.09
440.98	3168.21
441.18	3289.04
441.39	2901.97
441.59	2983.89
441.80	3745.73
442.00	3266.51
442.21	3082.19
442.41	2951.12
442.62	3440.59
442.82	3135.44
443.02	3053.52
443.23	3082.19
443.43	3168.21
443.64	3567.56
443.84	3012.56
444.05	3102.67
444.25	3313.61
444.46	3203.02
444.66	2996.18
444.87	3223.50
445.07	3051.47
445.28	3166.16
445.48	3280.85
445.69	3065.81
445.89	3885.00
446.09	3203.02
446.30	3362.76
446.50	3528.65
446.71	5064.63
446.91	6285.22
447.12	7253.91
447.32	7663.50
447.53	7899.02
447.73	6363.04
447.93	5689.26
448.14	5289.90
448.34	5474.22
448.55	4503.48
448.75	4491.20
448.96	4200.38
449.16	4118.47
449.36	4009.92
449.57	3336.14
449.77	3174.35
449.98	3196.88
450.18	3356.62
450.39	2987.99
450.59	3241.93
450.79	3225.55
451.00	3098.58
451.20	3248.08
451.41	3035.09
451.61	3456.97
451.81	3274.70
452.02	2963.41
452.22	3067.86
452.43	3143.63
