SpectraSuite Data File
++++++++++++++++++++++++++++++++++++
Date: Fri May 06 08:14:05 CEST 2016
User: root
Dark Spectrum Present: No
Reference Spectrum Present: No
Number of Sampled Component Spectra: 1
Spectrometers: USB4C02835
Integration Time (usec): 100000 (USB4C02835)
Spectra Averaged: 1 (USB4C02835)
Boxcar Smoothing: 0 (USB4C02835)
Correct for Electrical Dark: No (USB4C02835)
Strobe/Lamp Enabled: No (USB4C02835)
Correct for Detector Non-linearity: No (USB4C02835)
Correct for Stray Light: No (USB4C02835)
Number of Pixels in Processed Spectrum: 3648
>>>>>Begin Processed Spectral Data<<<<<
177.47	2279.39
177.69	2279.39
177.91	2279.39
178.13	2275.29
178.36	2246.62
178.58	2998.23
178.80	3112.91
179.02	3033.04
179.24	3129.30
179.46	2834.39
179.68	2887.64
179.90	3237.84
180.13	3227.60
180.35	2717.65
180.57	2756.57
180.79	3434.44
181.01	3266.51
181.23	2854.87
181.45	3008.47
181.67	3438.54
181.90	3422.16
182.12	2805.72
182.34	2648.02
182.56	3344.33
182.78	3377.10
183.00	2824.15
183.22	2906.07
183.44	2910.16
183.66	3938.24
183.89	3020.75
184.11	2832.34
184.33	3360.72
184.55	3530.70
184.77	2838.48
184.99	2869.20
185.21	3190.74
185.43	3753.93
185.65	2848.72
185.87	2889.68
186.10	3780.55
186.32	3737.54
186.54	3076.05
186.76	2957.27
186.98	3420.11
187.20	3207.12
187.42	2959.31
187.64	2840.53
187.86	3356.62
188.08	3479.50
188.30	2777.05
188.52	2852.82
188.75	3573.71
188.97	3532.75
189.19	2840.53
189.41	2760.66
189.63	3448.78
189.85	3239.89
190.07	2627.54
190.29	2740.18
190.51	3311.57
190.73	3047.38
190.95	3131.34
191.17	2885.59
191.39	2955.22
191.61	3250.13
191.84	2797.53
192.06	2994.13
192.28	2994.13
192.50	3866.56
192.72	3090.38
192.94	3043.28
193.16	3467.21
193.38	3303.37
193.60	2777.05
193.82	3084.24
194.04	3450.83
194.26	3397.58
194.48	2883.54
194.70	2813.91
194.92	3209.17
195.14	3499.98
195.36	2803.67
195.58	3016.66
195.80	3291.09
196.02	3143.63
196.24	2803.67
196.46	2951.12
196.69	3157.97
196.91	3823.56
197.13	2994.13
197.35	2987.99
197.57	3618.76
197.79	3395.53
198.01	2967.51
198.23	2873.30
198.45	3303.37
198.67	3069.91
198.89	2746.33
199.11	2990.03
199.33	3117.01
199.55	2865.11
199.77	2713.56
199.99	3041.23
200.21	3141.58
200.43	3313.61
200.65	2693.08
200.87	2736.09
201.09	3297.23
201.31	3241.93
201.53	2871.25
201.75	2863.06
201.97	3237.84
202.19	3207.12
202.41	2912.21
202.63	2971.60
202.85	3373.00
203.07	3346.38
203.29	2979.79
203.51	2760.66
203.73	3160.02
203.95	3946.44
204.17	2815.96
204.39	2944.98
204.61	3268.56
204.83	3174.35
205.05	3065.81
205.27	2947.03
205.49	3735.50
205.71	3338.19
205.93	2703.32
206.15	2772.95
206.37	3360.72
206.59	3280.85
206.81	2715.61
207.03	2731.99
207.25	3174.35
207.47	3360.72
207.69	2854.87
207.91	3200.98
208.13	3581.90
208.34	3203.02
208.56	2861.01
208.78	2873.30
209.00	3248.08
209.22	3252.17
209.44	2959.31
209.66	2787.29
209.88	3278.80
210.10	3270.61
210.32	2820.05
210.54	2977.75
210.76	3172.30
210.98	3481.55
211.20	2686.94
211.42	2955.22
211.64	3577.80
211.86	3387.34
212.08	2934.74
212.30	2877.40
212.52	3221.45
212.74	3426.25
212.96	2953.17
213.17	2901.97
213.39	3481.55
213.61	3674.06
213.83	2877.40
214.05	2772.95
214.27	3483.59
214.49	3088.34
214.71	2822.10
214.93	2951.12
215.15	3327.95
215.37	3393.48
215.59	2721.75
215.81	2918.36
216.03	3577.80
216.24	3289.04
216.46	2836.44
216.68	2871.25
216.90	3514.31
217.12	3551.18
217.34	2826.20
217.56	3084.24
217.78	3534.79
218.00	3393.48
218.22	2959.31
218.44	3000.27
218.66	3383.24
218.87	3696.58
219.09	2938.84
219.31	2883.54
219.53	3289.04
219.75	3123.15
219.97	2930.64
220.19	2893.78
220.41	3286.99
220.63	3647.43
220.85	2932.69
221.06	2865.11
221.28	3549.13
221.50	3444.68
221.72	2836.44
221.94	2783.19
222.16	3291.09
222.38	3469.26
222.60	2822.10
222.82	2975.70
223.03	3522.51
223.25	3100.62
223.47	2815.96
223.69	3047.38
223.91	3434.44
224.13	3286.99
224.35	2770.90
224.57	3016.66
224.78	3491.79
225.00	3172.30
225.22	2969.55
225.44	2842.58
225.66	3422.16
225.88	3190.74
226.10	3008.47
226.32	2873.30
226.53	3592.14
226.75	3291.09
226.97	2953.17
227.19	2951.12
227.41	3151.82
227.63	3252.17
227.85	2705.37
228.06	2922.45
228.28	3346.38
228.50	3448.78
228.72	2731.99
228.94	2918.36
229.16	2947.03
229.37	3086.29
229.59	2795.48
229.81	3055.57
230.03	3211.22
230.25	2951.12
230.47	2772.95
230.69	2895.83
230.90	3479.50
231.12	3100.62
231.34	2924.50
231.56	2904.02
231.78	3028.95
232.00	3262.41
232.21	2881.49
232.43	2854.87
232.65	2842.58
232.87	3332.05
233.09	2717.65
233.30	2826.20
233.52	3563.47
233.74	3346.38
233.96	2777.05
234.18	3102.67
234.40	3237.84
234.61	3737.54
234.83	2725.85
235.05	2877.40
235.27	3817.41
235.49	3542.99
235.70	2725.85
235.92	2858.96
236.14	3373.00
236.36	3721.16
236.58	2744.28
236.79	2969.55
237.01	3289.04
237.23	3266.51
237.45	3112.91
237.67	2918.36
237.88	3424.20
238.10	3592.14
238.32	2813.91
238.54	2820.05
238.76	3182.54
238.97	3098.58
239.19	2799.57
239.41	2967.51
239.63	3456.97
239.85	3188.69
240.06	2922.45
240.28	2889.68
240.50	3508.17
240.72	3364.81
240.93	2754.52
241.15	2977.75
241.37	3301.33
241.59	3563.47
241.81	2803.67
242.02	2869.20
242.24	3307.47
242.46	3499.98
242.68	2672.60
242.89	2736.09
243.11	3485.64
243.33	3221.45
243.55	2852.82
243.76	2854.87
243.98	3241.93
244.20	3289.04
244.42	2846.68
244.64	2809.81
244.85	3061.71
245.07	3092.43
245.29	2863.06
245.51	2873.30
245.72	3315.66
245.94	3475.40
246.16	2883.54
246.38	2885.59
246.59	3176.40
246.81	3047.38
247.03	2725.85
247.24	2789.33
247.46	3170.26
247.68	3311.57
247.90	2787.29
248.11	2803.67
248.33	3373.00
248.55	3231.69
248.77	2871.25
248.98	2951.12
249.20	3520.46
249.42	3350.48
249.64	2795.48
249.85	2815.96
250.07	3182.54
250.29	3479.50
250.50	2938.84
250.72	2766.81
250.94	3364.81
251.16	3755.97
251.37	2906.07
251.59	2955.22
251.81	3401.68
252.02	3559.37
252.24	2738.13
252.46	2951.12
252.68	3172.30
252.89	3225.55
253.11	2709.46
253.33	3076.05
253.54	3583.95
253.76	2979.79
253.98	2942.93
254.20	2904.02
254.41	3049.43
254.63	3274.70
254.85	2705.37
255.06	3041.23
255.28	3356.62
255.50	3155.92
255.71	2764.76
255.93	2746.33
256.15	3274.70
256.36	3399.63
256.58	2717.65
256.80	2836.44
257.02	3229.65
257.23	3256.27
257.45	2926.55
257.67	2928.60
257.88	3127.25
258.10	3397.58
258.32	2863.06
258.53	2861.01
258.75	3651.53
258.97	3131.34
259.18	2809.81
259.40	2844.63
259.62	3651.53
259.83	3557.32
260.05	2924.50
260.27	3891.14
260.48	3508.17
260.70	3010.51
260.92	2676.70
261.13	2832.34
261.35	3221.45
261.57	3434.44
261.78	2777.05
262.00	2854.87
262.22	3397.58
262.43	3114.96
262.65	2861.01
262.86	2897.88
263.08	3784.65
263.30	3303.37
263.51	2676.70
263.73	2877.40
263.95	3612.62
264.16	3041.23
264.38	2797.53
264.60	2777.05
264.81	3260.37
265.03	3424.20
265.25	3291.09
265.46	2838.48
265.68	3551.18
265.89	3373.00
266.11	2766.81
266.33	2861.01
266.54	3477.45
266.76	3409.87
266.98	2963.41
267.19	3004.37
267.41	3536.84
267.62	3280.85
267.84	2701.27
268.06	2990.03
268.27	3227.60
268.49	3514.31
268.70	2981.84
268.92	2840.53
269.14	3094.48
269.35	2994.13
269.57	3061.71
269.79	2910.16
270.00	3184.59
270.22	3559.37
270.43	2711.51
270.65	2725.85
270.87	3289.04
271.08	3420.11
271.30	2979.79
271.51	2889.68
271.73	3418.06
271.95	3547.08
272.16	2803.67
272.38	3098.58
272.59	3172.30
272.81	3446.73
273.02	2779.09
273.24	2918.36
273.46	3516.36
273.67	3033.04
273.89	2721.75
274.10	2838.48
274.32	3518.41
274.54	3307.47
274.75	2934.74
274.97	3065.81
275.18	3477.45
275.40	3377.10
275.61	2926.55
275.83	3037.14
276.05	3059.67
276.26	3297.23
276.48	3043.28
276.69	2975.70
276.91	3176.40
277.12	3590.09
277.34	3020.75
277.55	3106.77
277.77	3327.95
277.99	3229.65
278.20	3043.28
278.42	2899.92
278.63	3186.64
278.85	3076.05
279.06	2953.17
279.28	3053.52
279.49	3585.99
279.71	3422.16
279.93	2998.23
280.14	2987.99
280.36	3254.22
280.57	3452.88
280.79	3018.71
281.00	2824.15
281.22	3233.74
281.43	3565.51
281.65	2736.09
281.86	2912.21
282.08	3268.56
282.29	3725.26
282.51	2918.36
282.73	2904.02
282.94	3074.00
283.16	3360.72
283.37	3071.95
283.59	2983.89
283.80	3508.17
284.02	3198.93
284.23	2975.70
284.45	3041.23
284.66	3057.62
284.88	3080.14
285.09	2957.27
285.31	3043.28
285.52	3268.56
285.74	2959.31
285.95	3104.72
286.17	3059.67
286.38	3563.47
286.60	3225.55
286.81	2949.08
287.03	2889.68
287.24	3336.14
287.46	3313.61
287.67	3098.58
287.89	3168.21
288.10	3276.75
288.32	3297.23
288.53	3131.34
288.75	3057.62
288.96	3444.68
289.18	3190.74
289.39	2926.55
289.61	2973.65
289.82	3684.30
290.04	3721.16
290.25	2926.55
290.47	3037.14
290.68	3233.74
290.90	3452.88
291.11	2770.90
291.33	3172.30
291.54	3117.01
291.76	3160.02
291.97	3123.15
292.18	2990.03
292.40	3157.97
292.61	3106.77
292.83	3213.26
293.04	3030.99
293.26	3313.61
293.47	3231.69
293.69	2885.59
293.90	2850.77
294.12	3602.38
294.33	3282.89
294.55	3162.06
294.76	3196.88
294.97	3583.95
295.19	3739.59
295.40	2934.74
295.62	3125.20
295.83	3381.20
296.05	3200.98
296.26	3196.88
296.48	2975.70
296.69	3301.33
296.90	3278.80
297.12	3176.40
297.33	3069.91
297.55	3272.65
297.76	3411.92
297.98	3098.58
298.19	3196.88
298.41	3295.18
298.62	3110.86
298.83	3254.22
299.05	3082.19
299.26	3235.79
299.48	3061.71
299.69	3151.82
299.90	2973.65
300.12	3043.28
300.33	3487.69
300.55	2996.18
300.76	2994.13
300.98	3188.69
301.19	3444.68
301.40	3026.90
301.62	2998.23
301.83	3401.68
302.05	3303.37
302.26	3028.95
302.47	3043.28
302.69	3000.27
302.90	3223.50
303.12	2848.72
303.33	3164.11
303.54	3684.30
303.76	3223.50
303.97	2904.02
304.19	3174.35
304.40	3096.53
304.61	3403.72
304.83	3110.86
305.04	3065.81
305.26	3485.64
305.47	3106.77
305.68	3039.19
305.90	2910.16
306.11	3557.32
306.33	3213.26
306.54	2844.63
306.75	2942.93
306.97	2951.12
307.18	3086.29
307.39	2992.08
307.61	3121.10
307.82	3293.13
308.04	3436.49
308.25	2875.35
308.46	3139.54
308.68	3252.17
308.89	3338.19
309.10	3092.43
309.32	3014.61
309.53	3243.98
309.74	3368.91
309.96	2861.01
310.17	3160.02
310.39	3100.62
310.60	3327.95
310.81	2963.41
311.03	2910.16
311.24	3454.92
311.45	3258.32
311.67	3174.35
311.88	3112.91
312.09	3149.78
312.31	3211.22
312.52	2959.31
312.73	2936.79
312.95	3012.56
313.16	3041.23
313.37	3135.44
313.59	3227.60
313.80	3434.44
314.01	3569.61
314.23	2996.18
314.44	2873.30
314.65	3033.04
314.87	3129.30
315.08	2979.79
315.29	3018.71
315.51	3045.33
315.72	2977.75
315.93	3037.14
316.15	3041.23
316.36	3262.41
316.57	3346.38
316.79	3049.43
317.00	2856.92
317.21	3344.33
317.43	3102.67
317.64	3080.14
317.85	2961.36
318.07	3135.44
318.28	3203.02
318.49	3067.86
318.70	3274.70
318.92	3332.05
319.13	3420.11
319.34	3227.60
319.56	3000.27
319.77	3420.11
319.98	3409.87
320.20	3272.65
320.41	3180.50
320.62	3340.24
320.83	3039.19
321.05	3170.26
321.26	3010.51
321.47	3336.14
321.69	3467.21
321.90	2953.17
322.11	2953.17
322.32	3248.08
322.54	3549.13
322.75	3033.04
322.96	3991.49
323.18	2965.46
323.39	2926.55
323.60	2916.31
323.81	3141.58
324.03	3114.96
324.24	3373.00
324.45	3157.97
324.66	2942.93
324.88	3450.83
325.09	3588.04
325.30	3020.75
325.52	2963.41
325.73	3336.14
325.94	3065.81
326.15	2920.40
326.37	2830.29
326.58	3450.83
326.79	3651.53
327.00	2947.03
327.22	2992.08
327.43	3164.11
327.64	3074.00
327.85	3084.24
328.07	2979.79
328.28	3672.01
328.49	3129.30
328.70	3026.90
328.92	2987.99
329.13	3205.07
329.34	3405.77
329.55	3254.22
329.76	3069.91
329.98	3280.85
330.19	3385.29
330.40	3100.62
330.61	3174.35
330.83	3469.26
331.04	3076.05
331.25	3094.48
331.46	3147.73
331.68	2996.18
331.89	3471.31
332.10	3026.90
332.31	2869.20
332.52	3260.37
332.74	3465.16
332.95	2807.77
333.16	2985.94
333.37	3475.40
333.58	3155.92
333.80	3049.43
334.01	2752.47
334.22	3213.26
334.43	3168.21
334.64	2897.88
334.86	2936.79
335.07	3078.10
335.28	3530.70
335.49	2893.78
335.70	3026.90
335.92	3571.66
336.13	3772.36
336.34	3067.86
336.55	3008.47
336.76	3299.28
336.98	2869.20
337.19	2983.89
337.40	3151.82
337.61	3798.98
337.82	3246.03
338.04	3028.95
338.25	2785.24
338.46	3276.75
338.67	3243.98
338.88	2944.98
339.09	2949.08
339.31	3162.06
339.52	3106.77
339.73	2953.17
339.94	2965.46
340.15	3411.92
340.36	3164.11
340.58	3088.34
340.79	2904.02
341.00	3352.52
341.21	3143.63
341.42	3248.08
341.63	2975.70
341.85	3448.78
342.06	3313.61
342.27	2957.27
342.48	3123.15
342.69	2992.08
342.90	3356.62
343.12	3403.72
343.33	2953.17
343.54	3553.23
343.75	3577.80
343.96	3127.25
344.17	2987.99
344.38	3221.45
344.60	3069.91
344.81	2934.74
345.02	2992.08
345.23	3448.78
345.44	3715.02
345.65	3043.28
345.86	3053.52
346.07	3340.24
346.29	3137.49
346.50	3168.21
346.71	3030.99
346.92	3633.10
347.13	3639.24
347.34	3084.24
347.55	2865.11
347.76	3323.85
347.98	2904.02
348.19	3067.86
348.40	3061.71
348.61	3256.27
348.82	3590.09
349.03	3094.48
349.24	2936.79
349.45	3579.85
349.66	2944.98
349.88	2959.31
350.09	2930.64
350.30	3530.70
350.51	3547.08
350.72	3205.07
350.93	2957.27
351.14	3186.64
351.35	3342.28
351.56	3000.27
351.77	3098.58
351.99	3334.09
352.20	3626.95
352.41	3112.91
352.62	2820.05
352.83	3362.76
353.04	3260.37
353.25	2977.75
353.46	3063.76
353.67	3559.37
353.88	2887.64
354.09	2969.55
354.30	3018.71
354.52	3377.10
354.73	3268.56
354.94	2971.60
355.15	3074.00
355.36	3760.07
355.57	3250.13
355.78	2904.02
355.99	2985.94
356.20	3243.98
356.41	3606.47
356.62	3164.11
356.83	3041.23
357.04	3463.12
357.25	2934.74
357.46	2969.55
357.68	2844.63
357.89	3119.06
358.10	3246.03
358.31	2985.94
358.52	3016.66
358.73	3059.67
358.94	3127.25
359.15	3000.27
359.36	3014.61
359.57	3213.26
359.78	3241.93
359.99	3078.10
360.20	2936.79
360.41	3309.52
360.62	3420.11
360.83	3078.10
361.04	3026.90
361.25	3426.25
361.46	3524.55
361.67	3180.50
361.88	3016.66
362.09	3524.55
362.30	3286.99
362.51	2983.89
362.72	3051.47
362.93	3358.67
363.14	3352.52
363.35	3119.06
363.56	2895.83
363.78	3575.75
363.99	3409.87
364.20	3014.61
364.41	3157.97
364.62	3674.06
364.83	3358.67
365.04	2977.75
365.25	2934.74
365.46	3661.77
365.67	3123.15
365.88	3188.69
366.09	2992.08
366.30	3237.84
366.51	3241.93
366.72	2990.03
366.93	2979.79
367.14	3305.42
367.35	3567.56
367.56	2895.83
367.77	3098.58
367.98	3291.09
368.18	3409.87
368.39	3229.65
368.60	2918.36
368.81	3454.92
369.02	3370.96
369.23	2992.08
369.44	2840.53
369.65	3164.11
369.86	3368.91
370.07	3131.34
370.28	2944.98
370.49	3418.06
370.70	3344.33
370.91	2867.16
371.12	2901.97
371.33	3497.93
371.54	3174.35
371.75	3205.07
371.96	2820.05
372.17	3297.23
372.38	3246.03
372.59	3010.51
372.80	2959.31
373.01	3243.98
373.22	3297.23
373.43	2959.31
373.64	2930.64
373.85	3569.61
374.06	3606.47
374.26	3250.13
374.47	3112.91
374.68	3561.42
374.89	3358.67
375.10	2936.79
375.31	3139.54
375.52	3289.04
375.73	3299.28
375.94	2840.53
376.15	3123.15
376.36	3102.67
376.57	3164.11
376.78	3037.14
376.99	2994.13
377.20	3559.37
377.40	3160.02
377.61	3280.85
377.82	2959.31
378.03	3569.61
378.24	3418.06
378.45	3084.24
378.66	3049.43
378.87	2947.03
379.08	2955.22
379.29	3002.32
379.50	3147.73
379.71	3246.03
379.91	3385.29
380.12	3080.14
380.33	3076.05
380.54	3182.54
380.75	3278.80
380.96	3002.32
381.17	3045.33
381.38	3221.45
381.59	3250.13
381.80	3059.67
382.00	3192.78
382.21	3299.28
382.42	3598.28
382.63	3373.00
382.84	3243.98
383.05	3459.02
383.26	3583.95
383.47	3143.63
383.68	2953.17
383.88	3424.20
384.09	3327.95
384.30	3289.04
384.51	3098.58
384.72	3200.98
384.93	2963.41
385.14	3186.64
385.35	3278.80
385.55	3020.75
385.76	3583.95
385.97	3061.71
386.18	2899.92
386.39	3170.26
386.60	3139.54
386.81	2932.69
387.02	2951.12
387.22	3149.78
387.43	3366.86
387.64	3125.20
387.85	3286.99
388.06	3311.57
388.27	4335.55
388.48	7901.06
388.68	12128.07
388.89	14917.40
389.10	16473.86
389.31	16363.27
389.52	13055.80
389.73	11089.75
389.93	10262.37
390.14	9312.11
390.35	8531.84
390.56	8032.13
390.77	6645.66
390.98	4947.89
391.18	4196.29
391.39	3891.14
391.60	3360.72
391.81	3303.37
392.02	3067.86
392.23	3778.50
392.43	3262.41
392.64	3067.86
392.85	3069.91
393.06	3641.29
393.27	3297.23
393.47	3028.95
393.68	3096.53
393.89	3194.83
394.10	3549.13
394.31	3078.10
394.52	2977.75
394.72	3176.40
394.93	3602.38
395.14	2926.55
395.35	3112.91
395.56	3200.98
395.76	3311.57
395.97	3022.80
396.18	3108.82
396.39	3295.18
396.60	4024.26
396.80	3495.88
397.01	3293.13
397.22	3508.17
397.43	3428.30
397.64	2994.13
397.84	3129.30
398.05	3733.45
398.26	3227.60
398.47	3065.81
398.67	3311.57
398.88	3278.80
399.09	3467.21
399.30	3022.80
399.51	3131.34
399.71	3157.97
399.92	3305.42
400.13	3168.21
400.34	3057.62
400.54	3344.33
400.75	3575.75
400.96	3170.26
401.17	3432.40
401.37	3422.16
401.58	3330.00
401.79	2971.60
402.00	3114.96
402.21	3696.58
402.41	3497.93
402.62	3413.96
402.83	3616.71
403.04	3766.21
403.24	4032.45
403.45	3200.98
403.66	3377.10
403.87	3569.61
404.07	3633.10
404.28	3315.66
404.49	3411.92
404.70	3358.67
404.90	3434.44
405.11	3037.14
405.32	3164.11
405.52	3139.54
405.73	3209.17
405.94	3018.71
406.15	3145.68
406.35	3438.54
406.56	3469.26
406.77	3129.30
406.98	3090.38
407.18	3155.92
407.39	3610.57
407.60	3022.80
407.80	3127.25
408.01	3104.72
408.22	3463.12
408.43	3016.66
408.63	3188.69
408.84	3444.68
409.05	3362.76
409.25	2961.36
409.46	3020.75
409.67	3090.38
409.88	3168.21
410.08	3045.33
410.29	3043.28
410.50	3475.40
410.70	3354.57
410.91	3069.91
411.12	3129.30
411.32	3276.75
411.53	3129.30
411.74	3061.71
411.95	3145.68
412.15	3342.28
412.36	3411.92
412.57	3262.41
412.77	3266.51
412.98	3299.28
413.19	3168.21
413.39	3125.20
413.60	3051.47
413.81	3647.43
414.01	3094.48
414.22	3112.91
414.43	3280.85
414.63	3243.98
414.84	3487.69
415.05	3078.10
415.25	2877.40
415.46	3379.15
415.67	3096.53
415.87	3053.52
416.08	2959.31
416.29	3149.78
416.49	3366.86
416.70	3117.01
416.91	3012.56
417.11	3129.30
417.32	3483.59
417.53	3061.71
417.73	3147.73
417.94	3346.38
418.15	3344.33
418.35	3086.29
418.56	3139.54
418.77	3737.54
418.97	3334.09
419.18	3125.20
419.38	2721.75
419.59	3278.80
419.80	3508.17
420.00	2959.31
420.21	3049.43
420.42	3602.38
420.62	3354.57
420.83	2957.27
421.04	3035.09
421.24	3305.42
421.45	3393.48
421.65	3057.62
421.86	3059.67
422.07	3440.59
422.27	3456.97
422.48	3012.56
422.69	2869.20
422.89	3262.41
423.10	3282.89
423.30	3067.86
423.51	3104.72
423.72	3352.52
423.92	3446.73
424.13	2947.03
424.33	3155.92
424.54	3495.88
424.75	3348.43
424.95	3299.28
425.16	2990.03
425.36	3282.89
425.57	3475.40
425.78	3164.11
425.98	3188.69
426.19	3241.93
426.39	3102.67
426.60	3117.01
426.81	3250.13
427.01	3473.36
427.22	3149.78
427.42	2828.24
427.63	3000.27
427.83	3459.02
428.04	3620.81
428.25	3012.56
428.45	3127.25
428.66	3520.46
428.86	3211.22
429.07	3082.19
429.28	3016.66
429.48	3293.13
429.69	3080.14
429.89	3049.43
430.10	2961.36
430.30	3475.40
430.51	3499.98
430.71	3002.32
430.92	3166.16
431.13	3164.11
431.33	3387.34
431.54	3139.54
431.74	3338.19
431.95	3766.21
432.15	3049.43
432.36	3059.67
432.56	3123.15
432.77	3674.06
432.98	3588.04
433.18	3151.82
433.39	2983.89
433.59	3268.56
433.80	3829.70
434.00	3215.31
434.21	3131.34
434.41	3200.98
434.62	3786.69
434.82	2893.78
435.03	2987.99
435.23	3418.06
435.44	2920.40
435.64	2985.94
435.85	3016.66
436.06	3499.98
436.26	3499.98
436.47	3045.33
436.67	3061.71
436.88	3260.37
437.08	3536.84
437.29	3188.69
437.49	3180.50
437.70	3588.04
437.90	3256.27
438.11	3237.84
438.31	3088.34
438.52	3594.19
438.72	3493.83
438.93	3456.97
439.13	3131.34
439.34	3436.49
439.54	3160.02
439.75	3164.11
439.95	3166.16
440.16	3162.06
440.36	3297.23
440.57	3114.96
440.77	3018.71
440.98	3270.61
441.18	3373.00
441.39	2959.31
441.59	3026.90
441.80	3708.87
442.00	3293.13
442.21	3121.10
442.41	2912.21
442.62	3446.73
442.82	3112.91
443.02	3000.27
443.23	3051.47
443.43	3209.17
443.64	3583.95
443.84	2881.49
444.05	3184.59
444.25	3286.99
444.46	3166.16
444.66	3020.75
444.87	3301.33
445.07	2985.94
445.28	3213.26
445.48	3286.99
445.69	3246.03
445.89	3866.56
446.09	3241.93
446.30	3395.53
446.50	3440.59
446.71	5064.63
446.91	6420.38
447.12	7176.08
447.32	7544.72
447.53	7798.66
447.73	6387.61
447.93	5470.12
448.14	5304.24
448.34	5363.63
448.55	4536.25
448.75	4442.04
448.96	4241.34
449.16	4106.18
449.36	3938.24
449.57	3366.86
449.77	3209.17
449.98	3235.79
450.18	3375.05
450.39	3016.66
450.59	3301.33
450.79	3284.94
451.00	3168.21
451.20	3368.91
451.41	3106.77
451.61	3387.34
451.81	3196.88
452.02	3041.23
452.22	3133.39
452.43	3211.22
