SpectraSuite Data File
++++++++++++++++++++++++++++++++++++
Date: Fri May 06 08:14:00 CEST 2016
User: root
Dark Spectrum Present: No
Reference Spectrum Present: No
Number of Sampled Component Spectra: 1
Spectrometers: USB4C02835
Integration Time (usec): 100000 (USB4C02835)
Spectra Averaged: 1 (USB4C02835)
Boxcar Smoothing: 0 (USB4C02835)
Correct for Electrical Dark: No (USB4C02835)
Strobe/Lamp Enabled: No (USB4C02835)
Correct for Detector Non-linearity: No (USB4C02835)
Correct for Stray Light: No (USB4C02835)
Number of Pixels in Processed Spectrum: 3648
>>>>>Begin Processed Spectral Data<<<<<
177.47	2295.77
177.69	2295.77
177.91	2295.77
178.13	2285.53
178.36	2238.43
178.58	3012.56
178.80	3153.87
179.02	2955.22
179.24	3026.90
179.46	2801.62
179.68	2775.00
179.90	3258.32
180.13	3274.70
180.35	2680.79
180.57	2811.86
180.79	3459.02
181.01	3252.17
181.23	2942.93
181.45	3037.14
181.67	3475.40
181.90	3418.06
182.12	2947.03
182.34	2684.89
182.56	3436.49
182.78	3362.76
183.00	2873.30
183.22	2871.25
183.44	2904.02
183.66	3882.95
183.89	2918.36
184.11	2811.86
184.33	3491.79
184.55	3428.30
184.77	2881.49
184.99	2906.07
185.21	3225.55
185.43	3782.60
185.65	2891.73
185.87	2893.78
186.10	3758.02
186.32	3731.40
186.54	2981.84
186.76	2942.93
186.98	3518.41
187.20	3327.95
187.42	2895.83
187.64	2822.10
187.86	3416.01
188.08	3524.55
188.30	2738.13
188.52	2867.16
188.75	3506.12
188.97	3518.41
189.19	2838.48
189.41	2820.05
189.63	3373.00
189.85	3184.59
190.07	2742.23
190.29	2697.17
190.51	3346.38
190.73	2959.31
190.95	3028.95
191.17	2908.12
191.39	2938.84
191.61	3172.30
191.84	2897.88
192.06	3053.52
192.28	2936.79
192.50	3958.72
192.72	3033.04
192.94	2985.94
193.16	3471.31
193.38	3330.00
193.60	2758.61
193.82	3047.38
194.04	3520.46
194.26	3387.34
194.48	2996.18
194.70	2908.12
194.92	3155.92
195.14	3377.10
195.36	2867.16
195.58	3018.71
195.80	3203.02
196.02	3125.20
196.24	2822.10
196.46	2934.74
196.69	3047.38
196.91	3766.21
197.13	2965.46
197.35	2904.02
197.57	3600.33
197.79	3409.87
198.01	2975.70
198.23	2906.07
198.45	3381.20
198.67	3030.99
198.89	2713.56
199.11	2953.17
199.33	3080.14
199.55	2809.81
199.77	2807.77
199.99	3049.43
200.21	3231.69
200.43	3454.92
200.65	2731.99
200.87	2789.33
201.09	3315.66
201.31	3164.11
201.53	2885.59
201.75	2949.08
201.97	3346.38
202.19	3299.28
202.41	2920.40
202.63	2979.79
202.85	3413.96
203.07	3340.24
203.29	2959.31
203.51	2684.89
203.73	3147.73
203.95	3813.32
204.17	2826.20
204.39	3022.80
204.61	3276.75
204.83	3178.45
205.05	3010.51
205.27	2863.06
205.49	3737.54
205.71	3256.27
205.93	2766.81
206.15	2729.94
206.37	3305.42
206.59	3221.45
206.81	2711.51
207.03	2746.33
207.25	3231.69
207.47	3377.10
207.69	2901.97
207.91	3123.15
208.13	3561.42
208.34	3131.34
208.56	2863.06
208.78	2912.21
209.00	3223.50
209.22	3135.44
209.44	2899.92
209.66	2877.40
209.88	3231.69
210.10	3233.74
210.32	2877.40
210.54	2924.50
210.76	3239.89
210.98	3540.94
211.20	2777.05
211.42	2981.84
211.64	3579.85
211.86	3411.92
212.08	2942.93
212.30	2908.12
212.52	3262.41
212.74	3424.20
212.96	2961.36
213.17	2955.22
213.39	3424.20
213.61	3684.30
213.83	2895.83
214.05	2721.75
214.27	3422.16
214.49	3147.73
214.71	2820.05
214.93	2965.46
215.15	3295.18
215.37	3483.59
215.59	2766.81
215.81	2947.03
216.03	3608.52
216.24	3350.48
216.46	2893.78
216.68	2893.78
216.90	3512.27
217.12	3440.59
217.34	2793.43
217.56	3010.51
217.78	3583.95
218.00	3397.58
218.22	3063.76
218.44	2975.70
218.66	3346.38
218.87	3719.11
219.09	2858.96
219.31	2867.16
219.53	3370.96
219.75	3192.78
219.97	2949.08
220.19	2875.35
220.41	3276.75
220.63	3499.98
220.85	2828.24
221.06	2885.59
221.28	3588.04
221.50	3424.20
221.72	2822.10
221.94	2795.48
222.16	3237.84
222.38	3446.73
222.60	2930.64
222.82	2947.03
223.03	3565.51
223.25	3192.78
223.47	2930.64
223.69	3135.44
223.91	3553.23
224.13	3297.23
224.35	2834.39
224.57	3080.14
224.78	3403.72
225.00	3182.54
225.22	2985.94
225.44	2858.96
225.66	3422.16
225.88	3213.26
226.10	3100.62
226.32	2965.46
226.53	3442.64
226.75	3188.69
226.97	2850.77
227.19	2926.55
227.41	3147.73
227.63	3174.35
227.85	2729.94
228.06	2930.64
228.28	3336.14
228.50	3442.64
228.72	2686.94
228.94	2818.00
229.16	2987.99
229.37	3114.96
229.59	2764.76
229.81	3127.25
230.03	3170.26
230.25	3014.61
230.47	2676.70
230.69	2858.96
230.90	3397.58
231.12	3110.86
231.34	2914.26
231.56	2998.23
231.78	3065.81
232.00	3301.33
232.21	2893.78
232.43	2830.29
232.65	2914.26
232.87	3342.28
233.09	2775.00
233.30	2840.53
233.52	3577.80
233.74	3174.35
233.96	2799.57
234.18	3135.44
234.40	3270.61
234.61	3708.87
234.83	2713.56
235.05	2820.05
235.27	3780.55
235.49	3499.98
235.70	2742.23
235.92	3006.42
236.14	3440.59
236.36	3745.73
236.58	2756.57
236.79	2926.55
237.01	3260.37
237.23	3319.76
237.45	3082.19
237.67	2940.88
237.88	3375.05
238.10	3688.39
238.32	2744.28
238.54	2877.40
238.76	3266.51
238.97	3063.76
239.19	2828.24
239.41	2953.17
239.63	3467.21
239.85	3176.40
240.06	2922.45
240.28	2920.40
240.50	3583.95
240.72	3190.74
240.93	2801.62
241.15	3039.19
241.37	3203.02
241.59	3569.61
241.81	2871.25
242.02	2901.97
242.24	3370.96
242.46	3405.77
242.68	2748.37
242.89	2830.29
243.11	3479.50
243.33	3264.46
243.55	2789.33
243.76	2826.20
243.98	3143.63
244.20	3258.32
244.42	2861.01
244.64	2811.86
244.85	3053.52
245.07	3041.23
245.29	2887.64
245.51	2899.92
245.72	3319.76
245.94	3444.68
246.16	2828.24
246.38	2969.55
246.59	3227.60
246.81	3149.78
247.03	2768.85
247.24	2756.57
247.46	3205.07
247.68	3248.08
247.90	2811.86
248.11	2889.68
248.33	3420.11
248.55	3346.38
248.77	2885.59
248.98	2953.17
249.20	3663.82
249.42	3358.67
249.64	2828.24
249.85	2875.35
250.07	3176.40
250.29	3432.40
250.50	2949.08
250.72	2805.72
250.94	3342.28
251.16	3751.88
251.37	2838.48
251.59	2963.41
251.81	3393.48
252.02	3620.81
252.24	2803.67
252.46	2985.94
252.68	3143.63
252.89	3129.30
253.11	2670.55
253.33	2955.22
253.54	3659.72
253.76	3033.04
253.98	2912.21
254.20	2826.20
254.41	2965.46
254.63	3256.27
254.85	2711.51
255.06	3051.47
255.28	3332.05
255.50	3209.17
255.71	2787.29
255.93	2717.65
256.15	3264.46
256.36	3409.87
256.58	2713.56
256.80	2832.34
257.02	3223.50
257.23	3178.45
257.45	2824.15
257.67	2934.74
257.88	3200.98
258.10	3377.10
258.32	2772.95
258.53	2910.16
258.75	3583.95
258.97	3180.50
259.18	2764.76
259.40	2756.57
259.62	3672.01
259.83	3545.03
260.05	2912.21
260.27	3776.45
260.48	3495.88
260.70	3006.42
260.92	2840.53
261.13	2910.16
261.35	3313.61
261.57	3373.00
261.78	2691.03
262.00	2770.90
262.22	3428.30
262.43	3082.19
262.65	2815.96
262.86	2803.67
263.08	3876.80
263.30	3295.18
263.51	2740.18
263.73	2805.72
263.95	3663.82
264.16	3123.15
264.38	2738.13
264.60	2779.09
264.81	3229.65
265.03	3426.25
265.25	3264.46
265.46	2861.01
265.68	3569.61
265.89	3479.50
266.11	2670.55
266.33	2779.09
266.54	3510.22
266.76	3411.92
266.98	2926.55
267.19	3084.24
267.41	3528.65
267.62	3246.03
267.84	2729.94
268.06	3035.09
268.27	3274.70
268.49	3510.22
268.70	2979.79
268.92	2885.59
269.14	3127.25
269.35	3049.43
269.57	2996.18
269.79	2869.20
270.00	3137.49
270.22	3583.95
270.43	2799.57
270.65	2770.90
270.87	3317.71
271.08	3385.29
271.30	2947.03
271.51	2891.73
271.73	3383.24
271.95	3645.38
272.16	2856.92
272.38	2973.65
272.59	3166.16
272.81	3383.24
273.02	2879.44
273.24	2889.68
273.46	3499.98
273.67	3020.75
273.89	2785.24
274.10	2787.29
274.32	3565.51
274.54	3362.76
274.75	2955.22
274.97	2967.51
275.18	3465.16
275.40	3442.64
275.61	2922.45
275.83	2998.23
276.05	2981.84
276.26	3239.89
276.48	2994.13
276.69	3030.99
276.91	3182.54
277.12	3577.80
277.34	3094.48
277.55	3147.73
277.77	3241.93
277.99	3272.65
278.20	2971.60
278.42	2891.73
278.63	3110.86
278.85	3090.38
279.06	2961.36
279.28	3043.28
279.49	3428.30
279.71	3413.96
279.93	3057.62
280.14	3026.90
280.36	3186.64
280.57	3499.98
280.79	3094.48
281.00	2975.70
281.22	3162.06
281.43	3485.64
281.65	2762.71
281.86	2904.02
282.08	3430.35
282.29	3598.28
282.51	2824.15
282.73	2807.77
282.94	2938.84
283.16	3469.26
283.37	3057.62
283.59	2926.55
283.80	3325.90
284.02	3319.76
284.23	3033.04
284.45	3037.14
284.66	3147.73
284.88	3133.39
285.09	2920.40
285.31	3164.11
285.52	3413.96
285.74	2996.18
285.95	3217.36
286.17	3022.80
286.38	3514.31
286.60	3239.89
286.81	2922.45
287.03	2957.27
287.24	3303.37
287.46	3411.92
287.67	3045.33
287.89	3119.06
288.10	3256.27
288.32	3373.00
288.53	3119.06
288.75	3057.62
288.96	3454.92
289.18	3117.01
289.39	2953.17
289.61	3016.66
289.82	3719.11
290.04	3590.09
290.25	2934.74
290.47	3139.54
290.68	3260.37
290.90	3426.25
291.11	2738.13
291.33	3207.12
291.54	3127.25
291.76	3170.26
291.97	3153.87
292.18	3035.09
292.40	3110.86
292.61	3160.02
292.83	3272.65
293.04	3000.27
293.26	3264.46
293.47	3172.30
293.69	2906.07
293.90	2891.73
294.12	3598.28
294.33	3336.14
294.55	3057.62
294.76	3225.55
294.97	3616.71
295.19	3741.64
295.40	2897.88
295.62	3041.23
295.83	3391.44
296.05	3149.78
296.26	3176.40
296.48	3002.32
296.69	3225.55
296.90	3241.93
297.12	3131.34
297.33	3084.24
297.55	3303.37
297.76	3377.10
297.98	3057.62
298.19	3127.25
298.41	3278.80
298.62	3084.24
298.83	3162.06
299.05	3110.86
299.26	3258.32
299.48	3102.67
299.69	3110.86
299.90	3000.27
300.12	3086.29
300.33	3391.44
300.55	3012.56
300.76	3043.28
300.98	3110.86
301.19	3426.25
301.40	2967.51
301.62	2959.31
301.83	3395.53
302.05	3219.41
302.26	3026.90
302.47	3063.76
302.69	3092.43
302.90	3272.65
303.12	2834.39
303.33	3182.54
303.54	3731.40
303.76	3125.20
303.97	2936.79
304.19	3237.84
304.40	3080.14
304.61	3391.44
304.83	3061.71
305.04	3086.29
305.26	3409.87
305.47	3149.78
305.68	2996.18
305.90	2906.07
306.11	3493.83
306.33	3305.42
306.54	2881.49
306.75	2971.60
306.97	3008.47
307.18	3121.10
307.39	2975.70
307.61	3096.53
307.82	3198.93
308.04	3317.71
308.25	2891.73
308.46	3108.82
308.68	3309.52
308.89	3334.09
309.10	3055.57
309.32	3030.99
309.53	3237.84
309.74	3467.21
309.96	2871.25
310.17	3049.43
310.39	3223.50
310.60	3332.05
310.81	3037.14
311.03	2951.12
311.24	3391.44
311.45	3280.85
311.67	3178.45
311.88	3121.10
312.09	3229.65
312.31	3104.72
312.52	2963.41
312.73	2996.18
312.95	3022.80
313.16	3028.95
313.37	3174.35
313.59	3209.17
313.80	3471.31
314.01	3563.47
314.23	3014.61
314.44	2969.55
314.65	2990.03
314.87	3082.19
315.08	2928.60
315.29	2992.08
315.51	3102.67
315.72	3012.56
315.93	3084.24
316.15	3024.85
316.36	3209.17
316.57	3389.39
316.79	2971.60
317.00	2963.41
317.21	3383.24
317.43	3123.15
317.64	3028.95
317.85	2906.07
318.07	3129.30
318.28	3198.93
318.49	3112.91
318.70	3286.99
318.92	3352.52
319.13	3426.25
319.34	3219.41
319.56	3022.80
319.77	3330.00
319.98	3416.01
320.20	3319.76
320.41	3164.11
320.62	3385.29
320.83	3166.16
321.05	3180.50
321.26	2994.13
321.47	3327.95
321.69	3585.99
321.90	2877.40
322.11	2938.84
322.32	3360.72
322.54	3508.17
322.75	3035.09
322.96	3983.30
323.18	2947.03
323.39	2877.40
323.60	2963.41
323.81	3155.92
324.03	3172.30
324.24	3235.79
324.45	3127.25
324.66	2863.06
324.88	3542.99
325.09	3620.81
325.30	2918.36
325.52	2881.49
325.73	3393.48
325.94	3069.91
326.15	2912.21
326.37	2877.40
326.58	3516.36
326.79	3659.72
327.00	2963.41
327.22	3020.75
327.43	3229.65
327.64	3096.53
327.85	3096.53
328.07	2992.08
328.28	3618.76
328.49	3151.82
328.70	3024.85
328.92	2955.22
329.13	3303.37
329.34	3434.44
329.55	3264.46
329.76	3166.16
329.98	3170.26
330.19	3620.81
330.40	3076.05
330.61	3151.82
330.83	3438.54
331.04	3110.86
331.25	3131.34
331.46	3098.58
331.68	3047.38
331.89	3502.03
332.10	3071.95
332.31	2908.12
332.52	3264.46
332.74	3483.59
332.95	2912.21
333.16	3082.19
333.37	3411.92
333.58	3157.97
333.80	2992.08
334.01	2836.44
334.22	3221.45
334.43	3162.06
334.64	2926.55
334.86	2951.12
335.07	3074.00
335.28	3600.33
335.49	2828.24
335.70	3049.43
335.92	3551.18
336.13	3663.82
336.34	3063.76
336.55	3012.56
336.76	3366.86
336.98	2832.34
337.19	2973.65
337.40	3110.86
337.61	3815.37
337.82	3264.46
338.04	3078.10
338.25	2840.53
338.46	3299.28
338.67	3233.74
338.88	2916.31
339.09	2928.60
339.31	3184.59
339.52	3024.85
339.73	2899.92
339.94	3037.14
340.15	3459.02
340.36	3219.41
340.58	3016.66
340.79	2926.55
341.00	3389.39
341.21	3071.95
341.42	3200.98
341.63	3026.90
341.85	3444.68
342.06	3309.52
342.27	2955.22
342.48	3256.27
342.69	2996.18
342.90	3327.95
343.12	3379.15
343.33	2861.01
343.54	3577.80
343.75	3573.71
343.96	3067.86
344.17	2918.36
344.38	3147.73
344.60	3123.15
344.81	2953.17
345.02	3043.28
345.23	3616.71
345.44	3723.21
345.65	2938.84
345.86	2987.99
346.07	3344.33
346.29	3129.30
346.50	3121.10
346.71	3035.09
346.92	3450.83
347.13	3725.26
347.34	3102.67
347.55	2779.09
347.76	3381.20
347.98	3000.27
348.19	3063.76
348.40	3164.11
348.61	3231.69
348.82	3622.86
349.03	3057.62
349.24	2844.63
349.45	3645.38
349.66	2947.03
349.88	2926.55
350.09	2955.22
350.30	3475.40
350.51	3438.54
350.72	3266.51
350.93	3043.28
351.14	3311.57
351.35	3424.20
351.56	2951.12
351.77	3074.00
351.99	3305.42
352.20	3575.75
352.41	3131.34
352.62	2838.48
352.83	3286.99
353.04	3272.65
353.25	3000.27
353.46	3106.77
353.67	3499.98
353.88	2928.60
354.09	2936.79
354.30	3110.86
354.52	3409.87
354.73	3237.84
354.94	2926.55
355.15	3127.25
355.36	3708.87
355.57	3162.06
355.78	2928.60
355.99	2836.44
356.20	3274.70
356.41	3532.75
356.62	3100.62
356.83	3033.04
357.04	3493.83
357.25	3020.75
357.46	2920.40
357.68	2947.03
357.89	3082.19
358.10	3252.17
358.31	2938.84
358.52	3020.75
358.73	3012.56
358.94	3084.24
359.15	2965.46
359.36	2977.75
359.57	3262.41
359.78	3223.50
359.99	3157.97
360.20	2848.72
360.41	3219.41
360.62	3356.62
360.83	3067.86
361.04	3024.85
361.25	3381.20
361.46	3549.13
361.67	3110.86
361.88	2961.36
362.09	3428.30
362.30	3424.20
362.51	2959.31
362.72	3094.48
362.93	3413.96
363.14	3336.14
363.35	3123.15
363.56	2914.26
363.78	3487.69
363.99	3483.59
364.20	3006.42
364.41	3112.91
364.62	3624.90
364.83	3323.85
365.04	2987.99
365.25	2996.18
365.46	3774.41
365.67	3151.82
365.88	3186.64
366.09	2975.70
366.30	3231.69
366.51	3237.84
366.72	2973.65
366.93	2983.89
367.14	3297.23
367.35	3540.94
367.56	2942.93
367.77	3176.40
367.98	3340.24
368.18	3416.01
368.39	3090.38
368.60	2977.75
368.81	3379.15
369.02	3373.00
369.23	2981.84
369.44	2891.73
369.65	3188.69
369.86	3354.57
370.07	3088.34
370.28	2889.68
370.49	3250.13
370.70	3393.48
370.91	2951.12
371.12	2889.68
371.33	3499.98
371.54	3155.92
371.75	3155.92
371.96	2770.90
372.17	3364.81
372.38	3215.31
372.59	3059.67
372.80	3008.47
373.01	3246.03
373.22	3315.66
373.43	2998.23
373.64	2949.08
373.85	3514.31
374.06	3631.05
374.26	3149.78
374.47	3170.26
374.68	3612.62
374.89	3346.38
375.10	2957.27
375.31	3082.19
375.52	3334.09
375.73	3297.23
375.94	2879.44
376.15	3147.73
376.36	3033.04
376.57	3231.69
376.78	3022.80
376.99	3014.61
377.20	3469.26
377.40	3155.92
377.61	3268.56
377.82	2947.03
378.03	3567.56
378.24	3379.15
378.45	3141.58
378.66	3092.43
378.87	2994.13
379.08	3047.38
379.29	3045.33
379.50	3172.30
379.71	3282.89
379.91	3327.95
380.12	2975.70
380.33	3098.58
380.54	3321.81
380.75	3266.51
380.96	2959.31
381.17	3096.53
381.38	3194.83
381.59	3252.17
381.80	3074.00
382.00	3227.60
382.21	3416.01
382.42	3573.71
382.63	3422.16
382.84	3231.69
383.05	3454.92
383.26	3585.99
383.47	3108.82
383.68	2959.31
383.88	3442.64
384.09	3323.85
384.30	3284.94
384.51	3090.38
384.72	3155.92
384.93	3041.23
385.14	3084.24
385.35	3241.93
385.55	3016.66
385.76	3542.99
385.97	2990.03
386.18	2906.07
386.39	3047.38
386.60	3155.92
386.81	3000.27
387.02	2912.21
387.22	3049.43
387.43	3450.83
387.64	3139.54
387.85	3276.75
388.06	3303.37
388.27	4450.24
388.48	7956.36
388.68	12238.66
388.89	15486.74
389.10	16652.03
389.31	16336.65
389.52	13182.77
389.73	11331.41
389.93	10389.35
390.14	9316.21
390.35	8615.80
390.56	8011.65
390.77	6528.92
390.98	4988.85
391.18	4169.66
391.39	3844.04
391.60	3313.61
391.81	3205.07
392.02	3139.54
392.23	3743.69
392.43	3389.39
392.64	3137.49
392.85	3164.11
393.06	3581.90
393.27	3291.09
393.47	2944.98
393.68	3160.02
393.89	3192.78
394.10	3506.12
394.31	3028.95
394.52	2975.70
394.72	3205.07
394.93	3561.42
395.14	3039.19
395.35	3092.43
395.56	3108.82
395.76	3258.32
395.97	2947.03
396.18	3164.11
396.39	3280.85
396.60	3895.24
396.80	3424.20
397.01	3360.72
397.22	3387.34
397.43	3508.17
397.64	3000.27
397.84	3188.69
398.05	3698.63
398.26	3243.98
398.47	3198.93
398.67	3211.22
398.88	3233.74
399.09	3452.88
399.30	3059.67
399.51	3074.00
399.71	3164.11
399.92	3305.42
400.13	3135.44
400.34	3045.33
400.54	3282.89
400.75	3602.38
400.96	3188.69
401.17	3221.45
401.37	3309.52
401.58	3231.69
401.79	3000.27
402.00	3196.88
402.21	3798.98
402.41	3545.03
402.62	3440.59
402.83	3459.02
403.04	3676.10
403.24	4087.75
403.45	3223.50
403.66	3327.95
403.87	3487.69
404.07	3657.67
404.28	3280.85
404.49	3325.90
404.70	3373.00
404.90	3475.40
405.11	3055.57
405.32	3174.35
405.52	3157.97
405.73	3182.54
405.94	2985.94
406.15	3065.81
406.35	3409.87
406.56	3467.21
406.77	3119.06
406.98	3016.66
407.18	3114.96
407.39	3614.66
407.60	3086.29
407.80	3123.15
408.01	3157.97
408.22	3436.49
408.43	2967.51
408.63	3213.26
408.84	3495.88
409.05	3407.82
409.25	2881.49
409.46	3065.81
409.67	3229.65
409.88	3155.92
410.08	3137.49
410.29	3047.38
410.50	3373.00
410.70	3418.06
410.91	2947.03
411.12	3155.92
411.32	3264.46
411.53	3110.86
411.74	3022.80
411.95	3153.87
412.15	3190.74
412.36	3485.64
412.57	3209.17
412.77	3309.52
412.98	3330.00
413.19	3205.07
413.39	3213.26
413.60	3114.96
413.81	3581.90
414.01	3102.67
414.22	3059.67
414.43	3303.37
414.63	3133.39
414.84	3590.09
415.05	3135.44
415.25	2953.17
415.46	3360.72
415.67	3139.54
415.87	3065.81
416.08	3028.95
416.29	3219.41
416.49	3401.68
416.70	3112.91
416.91	3067.86
417.11	3239.89
417.32	3471.31
417.53	3110.86
417.73	3155.92
417.94	3262.41
418.15	3268.56
418.35	3106.77
418.56	3057.62
418.77	3704.78
418.97	3268.56
419.18	3160.02
419.38	2820.05
419.59	3225.55
419.80	3592.14
420.00	2922.45
420.21	3119.06
420.42	3467.21
420.62	3370.96
420.83	3028.95
421.04	3059.67
421.24	3250.13
421.45	3397.58
421.65	3090.38
421.86	3082.19
422.07	3454.92
422.27	3360.72
422.48	2994.13
422.69	2877.40
422.89	3256.27
423.10	3172.30
423.30	2977.75
423.51	3131.34
423.72	3370.96
423.92	3379.15
424.13	2975.70
424.33	3151.82
424.54	3485.64
424.75	3272.65
424.95	3311.57
425.16	3016.66
425.36	3186.64
425.57	3495.88
425.78	3203.02
425.98	3180.50
426.19	3309.52
426.39	3110.86
426.60	3149.78
426.81	3145.68
427.01	3383.24
427.22	3051.47
427.42	2875.35
427.63	2983.89
427.83	3481.55
428.04	3690.44
428.25	3061.71
428.45	3221.45
428.66	3446.73
428.86	3221.45
429.07	3121.10
429.28	3076.05
429.48	3233.74
429.69	3129.30
429.89	3174.35
430.10	3106.77
430.30	3436.49
430.51	3532.75
430.71	2981.84
430.92	3157.97
431.13	3131.34
431.33	3368.91
431.54	3084.24
431.74	3180.50
431.95	3766.21
432.15	3123.15
432.36	3080.14
432.56	3135.44
432.77	3676.10
432.98	3649.48
433.18	3059.67
433.39	2963.41
433.59	3174.35
433.80	3631.05
434.00	3268.56
434.21	3076.05
434.41	3172.30
434.62	3729.35
434.82	2912.21
435.03	3012.56
435.23	3336.14
435.44	2959.31
435.64	3024.85
435.85	3102.67
436.06	3479.50
436.26	3487.69
436.47	3092.43
436.67	3002.32
436.88	3229.65
437.08	3588.04
437.29	3176.40
437.49	3160.02
437.70	3588.04
437.90	3229.65
438.11	3270.61
438.31	3151.82
438.52	3663.82
438.72	3467.21
438.93	3448.78
439.13	3160.02
439.34	3444.68
439.54	3227.60
439.75	3243.98
439.95	3217.36
440.16	3067.86
440.36	3254.22
440.57	3102.67
440.77	3074.00
440.98	3297.23
441.18	3327.95
441.39	2914.26
441.59	2959.31
441.80	3710.92
442.00	3241.93
442.21	3135.44
442.41	2963.41
442.62	3440.59
442.82	3069.91
443.02	3104.72
443.23	3082.19
443.43	3143.63
443.64	3422.16
443.84	2861.01
444.05	3160.02
444.25	3352.52
444.46	3223.50
444.66	3080.14
444.87	3305.42
445.07	3053.52
445.28	3213.26
445.48	3246.03
445.69	3139.54
445.89	3866.56
446.09	3272.65
446.30	3426.25
446.50	3516.36
446.71	5101.49
446.91	6440.86
447.12	7253.91
447.32	7745.42
447.53	7692.17
447.73	6471.58
447.93	5556.14
448.14	5386.16
448.34	5472.17
448.55	4544.44
448.75	4530.11
448.96	4222.91
449.16	4093.89
449.36	3874.76
449.57	3362.76
449.77	3139.54
449.98	3188.69
450.18	3403.72
450.39	2961.36
450.59	3327.95
450.79	3282.89
451.00	3151.82
451.20	3254.22
451.41	3131.34
451.61	3327.95
451.81	3235.79
452.02	3047.38
452.22	3084.24
452.43	3178.45
