SpectraSuite Data File
++++++++++++++++++++++++++++++++++++
Date: Fri May 06 08:14:30 CEST 2016
User: root
Dark Spectrum Present: No
Reference Spectrum Present: No
Number of Sampled Component Spectra: 1
Spectrometers: USB4C02835
Integration Time (usec): 100000 (USB4C02835)
Spectra Averaged: 1 (USB4C02835)
Boxcar Smoothing: 0 (USB4C02835)
Correct for Electrical Dark: No (USB4C02835)
Strobe/Lamp Enabled: No (USB4C02835)
Correct for Detector Non-linearity: No (USB4C02835)
Correct for Stray Light: No (USB4C02835)
Number of Pixels in Processed Spectrum: 3648
>>>>>Begin Processed Spectral Data<<<<<
177.47	2271.20
177.69	2271.20
177.91	2271.20
178.13	2318.30
178.36	2197.47
178.58	3041.23
178.80	3182.54
179.02	2930.64
179.24	3102.67
179.46	2787.29
179.68	2834.39
179.90	3250.13
180.13	3307.47
180.35	2717.65
180.57	2789.33
180.79	3332.05
181.01	3188.69
181.23	2869.20
181.45	2979.79
181.67	3401.68
181.90	3430.35
182.12	2877.40
182.34	2711.51
182.56	3510.22
182.78	3342.28
183.00	2895.83
183.22	2877.40
183.44	2951.12
183.66	3901.38
183.89	3063.76
184.11	2867.16
184.33	3440.59
184.55	3565.51
184.77	2846.68
184.99	2807.77
185.21	3235.79
185.43	3811.27
185.65	2928.60
185.87	2852.82
186.10	3717.06
186.32	3878.85
186.54	3049.43
186.76	2985.94
186.98	3540.94
187.20	3225.55
187.42	2883.54
187.64	2895.83
187.86	3340.24
188.08	3440.59
188.30	2738.13
188.52	2904.02
188.75	3622.86
188.97	3524.55
189.19	2848.72
189.41	2770.90
189.63	3401.68
189.85	3168.21
190.07	2840.53
190.29	2766.81
190.51	3305.42
190.73	3047.38
190.95	3139.54
191.17	2877.40
191.39	2992.08
191.61	3133.39
191.84	2854.87
192.06	3008.47
192.28	3000.27
192.50	3868.61
192.72	3041.23
192.94	2899.92
193.16	3549.13
193.38	3323.85
193.60	2813.91
193.82	3057.62
194.04	3497.93
194.26	3491.79
194.48	2844.63
194.70	2893.78
194.92	3299.28
195.14	3401.68
195.36	2795.48
195.58	2926.55
195.80	3272.65
196.02	3143.63
196.24	2914.26
196.46	2918.36
196.69	3256.27
196.91	3776.45
197.13	2895.83
197.35	2969.55
197.57	3616.71
197.79	3311.57
198.01	2904.02
198.23	2873.30
198.45	3395.53
198.67	2953.17
198.89	2723.80
199.11	2959.31
199.33	3143.63
199.55	2889.68
199.77	2867.16
199.99	3053.52
200.21	3237.84
200.43	3420.11
200.65	2727.89
200.87	2807.77
201.09	3235.79
201.31	3246.03
201.53	2826.20
201.75	2942.93
201.97	3340.24
202.19	3284.94
202.41	2973.65
202.63	2959.31
202.85	3307.47
203.07	3362.76
203.29	2936.79
203.51	2828.24
203.73	3063.76
203.95	3794.89
204.17	2783.19
204.39	2969.55
204.61	3266.51
204.83	3209.17
205.05	2985.94
205.27	2875.35
205.49	3663.82
205.71	3266.51
205.93	2811.86
206.15	2742.23
206.37	3338.19
206.59	3182.54
206.81	2711.51
207.03	2725.85
207.25	3026.90
207.47	3364.81
207.69	2850.77
207.91	3078.10
208.13	3559.37
208.34	3172.30
208.56	2777.05
208.78	2863.06
209.00	3178.45
209.22	3215.31
209.44	2873.30
209.66	2811.86
209.88	3315.66
210.10	3248.08
210.32	2920.40
210.54	2934.74
210.76	3235.79
210.98	3549.13
211.20	2775.00
211.42	2955.22
211.64	3436.49
211.86	3495.88
212.08	2928.60
212.30	2787.29
212.52	3205.07
212.74	3440.59
212.96	2998.23
213.17	2901.97
213.39	3424.20
213.61	3637.19
213.83	2944.98
214.05	2744.28
214.27	3446.73
214.49	3067.86
214.71	2863.06
214.93	2979.79
215.15	3229.65
215.37	3381.20
215.59	2758.61
215.81	2949.08
216.03	3614.66
216.24	3229.65
216.46	2871.25
216.68	2932.69
216.90	3454.92
217.12	3475.40
217.34	2830.29
217.56	3069.91
217.78	3588.04
218.00	3399.63
218.22	2947.03
218.44	2953.17
218.66	3270.61
218.87	3672.01
219.09	2897.88
219.31	2828.24
219.53	3395.53
219.75	3166.16
219.97	2873.30
220.19	2893.78
220.41	3260.37
220.63	3655.62
220.85	2891.73
221.06	2893.78
221.28	3571.66
221.50	3428.30
221.72	2801.62
221.94	2678.74
222.16	3233.74
222.38	3452.88
222.60	2820.05
222.82	2893.78
223.03	3456.97
223.25	3125.20
223.47	2815.96
223.69	3121.10
223.91	3336.14
224.13	3280.85
224.35	2742.23
224.57	3016.66
224.78	3444.68
225.00	3125.20
225.22	3020.75
225.44	2758.61
225.66	3393.48
225.88	3192.78
226.10	2981.84
226.32	2824.15
226.53	3530.70
226.75	3229.65
226.97	3000.27
227.19	2934.74
227.41	3153.87
227.63	3235.79
227.85	2666.46
228.06	2940.88
228.28	3436.49
228.50	3516.36
228.72	2680.79
228.94	2762.71
229.16	2934.74
229.37	3067.86
229.59	2779.09
229.81	3080.14
230.03	3182.54
230.25	3030.99
230.47	2701.27
230.69	2803.67
230.90	3483.59
231.12	3182.54
231.34	3028.95
231.56	2883.54
231.78	3016.66
232.00	3332.05
232.21	2971.60
232.43	2910.16
232.65	2889.68
232.87	3366.86
233.09	2703.32
233.30	2811.86
233.52	3485.64
233.74	3194.83
233.96	2736.09
234.18	3106.77
234.40	3364.81
234.61	3792.84
234.83	2686.94
235.05	2809.81
235.27	3803.08
235.49	3565.51
235.70	2801.62
235.92	2918.36
236.14	3385.29
236.36	3860.42
236.58	2762.71
236.79	2963.41
237.01	3254.22
237.23	3196.88
237.45	3086.29
237.67	2840.53
237.88	3336.14
238.10	3624.90
238.32	2772.95
238.54	2781.14
238.76	3260.37
238.97	3123.15
239.19	2742.23
239.41	2852.82
239.63	3553.23
239.85	3207.12
240.06	2906.07
240.28	2838.48
240.50	3411.92
240.72	3211.22
240.93	2772.95
241.15	2951.12
241.37	3196.88
241.59	3551.18
241.81	2881.49
242.02	2969.55
242.24	3334.09
242.46	3432.40
242.68	2783.19
242.89	2893.78
243.11	3483.59
243.33	3307.47
243.55	2805.72
243.76	2967.51
243.98	3119.06
244.20	3280.85
244.42	2826.20
244.64	2803.67
244.85	3006.42
245.07	2971.60
245.29	2785.24
245.51	2877.40
245.72	3295.18
245.94	3450.83
246.16	2762.71
246.38	2990.03
246.59	3155.92
246.81	3094.48
247.03	2818.00
247.24	2768.85
247.46	3207.12
247.68	3344.33
247.90	2801.62
248.11	2904.02
248.33	3454.92
248.55	3260.37
248.77	2889.68
248.98	2938.84
249.20	3592.14
249.42	3385.29
249.64	2895.83
249.85	2820.05
250.07	3139.54
250.29	3456.97
250.50	2875.35
250.72	2762.71
250.94	3309.52
251.16	3719.11
251.37	2844.63
251.59	2965.46
251.81	3362.76
252.02	3641.29
252.24	2762.71
252.46	3071.95
252.68	3155.92
252.89	3125.20
253.11	2721.75
253.33	3024.85
253.54	3538.89
253.76	3012.56
253.98	2897.88
254.20	2828.24
254.41	3014.61
254.63	3237.84
254.85	2820.05
255.06	2998.23
255.28	3368.91
255.50	3178.45
255.71	2826.20
255.93	2688.98
256.15	3280.85
256.36	3395.53
256.58	2715.61
256.80	2797.53
257.02	3229.65
257.23	3211.22
257.45	2908.12
257.67	2928.60
257.88	3141.58
258.10	3377.10
258.32	2918.36
258.53	2908.12
258.75	3696.58
258.97	3117.01
259.18	2779.09
259.40	2830.29
259.62	3573.71
259.83	3567.56
260.05	2910.16
260.27	3747.78
260.48	3592.14
260.70	3016.66
260.92	2734.04
261.13	2897.88
261.35	3295.18
261.57	3295.18
261.78	2738.13
262.00	2813.91
262.22	3346.38
262.43	3102.67
262.65	2871.25
262.86	2885.59
263.08	3796.93
263.30	3366.86
263.51	2635.74
263.73	2803.67
263.95	3647.43
264.16	3074.00
264.38	2727.89
264.60	2811.86
264.81	3196.88
265.03	3549.13
265.25	3241.93
265.46	2813.91
265.68	3446.73
265.89	3393.48
266.11	2781.14
266.33	2752.47
266.54	3559.37
266.76	3348.43
266.98	2957.27
267.19	3018.71
267.41	3450.83
267.62	3239.89
267.84	2666.46
268.06	2969.55
268.27	3373.00
268.49	3438.54
268.70	2949.08
268.92	2914.26
269.14	3170.26
269.35	3086.29
269.57	2994.13
269.79	2883.54
270.00	3178.45
270.22	3614.66
270.43	2740.18
270.65	2703.32
270.87	3278.80
271.08	3426.25
271.30	2990.03
271.51	2828.24
271.73	3450.83
271.95	3653.58
272.16	2863.06
272.38	3051.47
272.59	3237.84
272.81	3422.16
273.02	2813.91
273.24	2879.44
273.46	3573.71
273.67	3024.85
273.89	2770.90
274.10	2852.82
274.32	3504.07
274.54	3411.92
274.75	2881.49
274.97	2926.55
275.18	3454.92
275.40	3373.00
275.61	2852.82
275.83	3043.28
276.05	3139.54
276.26	3225.55
276.48	2967.51
276.69	3028.95
276.91	3190.74
277.12	3598.28
277.34	3026.90
277.55	3125.20
277.77	3270.61
277.99	3153.87
278.20	3018.71
278.42	2893.78
278.63	3168.21
278.85	3131.34
279.06	2983.89
279.28	3082.19
279.49	3475.40
279.71	3461.07
279.93	3020.75
280.14	3127.25
280.36	3106.77
280.57	3473.36
280.79	3123.15
281.00	2885.59
281.22	3174.35
281.43	3467.21
281.65	2852.82
281.86	2879.44
282.08	3346.38
282.29	3590.09
282.51	2885.59
282.73	2893.78
282.94	2971.60
283.16	3483.59
283.37	3114.96
283.59	3033.04
283.80	3393.48
284.02	3286.99
284.23	3024.85
284.45	2987.99
284.66	3180.50
284.88	3098.58
285.09	3008.47
285.31	3168.21
285.52	3368.91
285.74	2987.99
285.95	3145.68
286.17	3088.34
286.38	3555.27
286.60	3170.26
286.81	2942.93
287.03	2996.18
287.24	3264.46
287.46	3403.72
287.67	3143.63
287.89	3200.98
288.10	3289.04
288.32	3286.99
288.53	3100.62
288.75	3055.57
288.96	3426.25
289.18	3198.93
289.39	2971.60
289.61	3022.80
289.82	3737.54
290.04	3719.11
290.25	2901.97
290.47	3061.71
290.68	3160.02
290.90	3395.53
291.11	2787.29
291.33	3106.77
291.54	3102.67
291.76	3164.11
291.97	3127.25
292.18	3059.67
292.40	3198.93
292.61	3166.16
292.83	3311.57
293.04	3041.23
293.26	3366.86
293.47	3192.78
293.69	2891.73
293.90	2920.40
294.12	3553.23
294.33	3229.65
294.55	3106.77
294.76	3172.30
294.97	3608.52
295.19	3737.54
295.40	2955.22
295.62	3035.09
295.83	3401.68
296.05	3028.95
296.26	3213.26
296.48	2981.84
296.69	3256.27
296.90	3174.35
297.12	3121.10
297.33	3139.54
297.55	3280.85
297.76	3352.52
297.98	3037.14
298.19	3098.58
298.41	3317.71
298.62	3061.71
298.83	3174.35
299.05	3174.35
299.26	3125.20
299.48	3088.34
299.69	3090.38
299.90	2969.55
300.12	3082.19
300.33	3375.05
300.55	3051.47
300.76	3088.34
300.98	2998.23
301.19	3467.21
301.40	2985.94
301.62	2998.23
301.83	3405.77
302.05	3278.80
302.26	2969.55
302.47	3045.33
302.69	3114.96
302.90	3229.65
303.12	2930.64
303.33	3123.15
303.54	3682.25
303.76	3176.40
303.97	2914.26
304.19	3182.54
304.40	3129.30
304.61	3375.05
304.83	3114.96
305.04	3082.19
305.26	3479.50
305.47	3160.02
305.68	3006.42
305.90	2918.36
306.11	3495.88
306.33	3190.74
306.54	2852.82
306.75	2885.59
306.97	2985.94
307.18	3100.62
307.39	2951.12
307.61	3102.67
307.82	3198.93
308.04	3301.33
308.25	2828.24
308.46	3084.24
308.68	3321.81
308.89	3250.13
309.10	3125.20
309.32	2994.13
309.53	3262.41
309.74	3426.25
309.96	2947.03
310.17	3092.43
310.39	3217.36
310.60	3405.77
310.81	3055.57
311.03	2887.64
311.24	3422.16
311.45	3254.22
311.67	3305.42
311.88	3090.38
312.09	3168.21
312.31	3166.16
312.52	3092.43
312.73	3016.66
312.95	3067.86
313.16	3078.10
313.37	3217.36
313.59	3172.30
313.80	3461.07
314.01	3491.79
314.23	3004.37
314.44	2924.50
314.65	3112.91
314.87	3166.16
315.08	2955.22
315.29	3047.38
315.51	3076.05
315.72	2983.89
315.93	3129.30
316.15	3061.71
316.36	3123.15
316.57	3330.00
316.79	3018.71
317.00	2922.45
317.21	3344.33
317.43	3096.53
317.64	3076.05
317.85	2904.02
318.07	3147.73
318.28	3172.30
318.49	3086.29
318.70	3188.69
318.92	3278.80
319.13	3440.59
319.34	3223.50
319.56	2983.89
319.77	3370.96
319.98	3409.87
320.20	3301.33
320.41	3198.93
320.62	3377.10
320.83	3059.67
321.05	3233.74
321.26	3049.43
321.47	3327.95
321.69	3549.13
321.90	2910.16
322.11	2947.03
322.32	3254.22
322.54	3512.27
322.75	3041.23
322.96	3991.49
323.18	3006.42
323.39	2969.55
323.60	2871.25
323.81	3121.10
324.03	3160.02
324.24	3289.04
324.45	3117.01
324.66	2910.16
324.88	3524.55
325.09	3626.95
325.30	2959.31
325.52	2914.26
325.73	3354.57
325.94	3039.19
326.15	2916.31
326.37	2901.97
326.58	3426.25
326.79	3557.32
327.00	2832.34
327.22	3028.95
327.43	3241.93
327.64	3049.43
327.85	3145.68
328.07	3065.81
328.28	3731.40
328.49	3258.32
328.70	3026.90
328.92	2922.45
329.13	3270.61
329.34	3352.52
329.55	3237.84
329.76	3196.88
329.98	3172.30
330.19	3540.94
330.40	3090.38
330.61	3104.72
330.83	3481.55
331.04	3041.23
331.25	3061.71
331.46	3084.24
331.68	3055.57
331.89	3502.03
332.10	3057.62
332.31	2828.24
332.52	3250.13
332.74	3547.08
332.95	2811.86
333.16	3024.85
333.37	3465.16
333.58	3205.07
333.80	3076.05
334.01	2789.33
334.22	3272.65
334.43	3098.58
334.64	2992.08
334.86	2985.94
335.07	3112.91
335.28	3553.23
335.49	2873.30
335.70	3071.95
335.92	3569.61
336.13	3751.88
336.34	3100.62
336.55	3033.04
336.76	3278.80
336.98	2887.64
337.19	3084.24
337.40	3153.87
337.61	3839.94
337.82	3270.61
338.04	3157.97
338.25	2820.05
338.46	3260.37
338.67	3207.12
338.88	2983.89
339.09	2887.64
339.31	3182.54
339.52	2963.41
339.73	3016.66
339.94	2969.55
340.15	3375.05
340.36	3141.58
340.58	3061.71
340.79	2858.96
341.00	3420.11
341.21	3051.47
341.42	3223.50
341.63	2959.31
341.85	3407.82
342.06	3262.41
342.27	2992.08
342.48	3170.26
342.69	2916.31
342.90	3340.24
343.12	3399.63
343.33	2938.84
343.54	3563.47
343.75	3528.65
343.96	3119.06
344.17	2871.25
344.38	3295.18
344.60	3180.50
344.81	2965.46
345.02	3028.95
345.23	3549.13
345.44	3753.93
345.65	3041.23
345.86	3057.62
346.07	3272.65
346.29	3157.97
346.50	3229.65
346.71	3076.05
346.92	3524.55
347.13	3735.50
347.34	3151.82
347.55	2838.48
347.76	3327.95
347.98	3035.09
348.19	2959.31
348.40	3192.78
348.61	3106.77
348.82	3635.14
349.03	3119.06
349.24	2883.54
349.45	3678.15
349.66	2867.16
349.88	2994.13
350.09	2934.74
350.30	3573.71
350.51	3532.75
350.72	3196.88
350.93	2936.79
351.14	3260.37
351.35	3420.11
351.56	3004.37
351.77	3102.67
351.99	3395.53
352.20	3577.80
352.41	3127.25
352.62	2828.24
352.83	3190.74
353.04	3209.17
353.25	3002.32
353.46	2961.36
353.67	3463.12
353.88	2932.69
354.09	2951.12
354.30	3090.38
354.52	3469.26
354.73	3248.08
354.94	2996.18
355.15	2994.13
355.36	3629.00
355.57	3100.62
355.78	2953.17
355.99	2926.55
356.20	3213.26
356.41	3557.32
356.62	3041.23
356.83	3080.14
357.04	3524.55
357.25	2975.70
357.46	2987.99
357.68	2887.64
357.89	3147.73
358.10	3213.26
358.31	2985.94
358.52	3086.29
358.73	3063.76
358.94	3086.29
359.15	2981.84
359.36	3098.58
359.57	3282.89
359.78	3205.07
359.99	3180.50
360.20	2871.25
360.41	3225.55
360.62	3407.82
360.83	3139.54
361.04	3000.27
361.25	3338.19
361.46	3608.52
361.67	3119.06
361.88	2967.51
362.09	3495.88
362.30	3274.70
362.51	2944.98
362.72	3039.19
362.93	3471.31
363.14	3401.68
363.35	3043.28
363.56	2813.91
363.78	3524.55
363.99	3401.68
364.20	3028.95
364.41	3053.52
364.62	3672.01
364.83	3330.00
365.04	2987.99
365.25	3024.85
365.46	3669.96
365.67	3139.54
365.88	3155.92
366.09	3016.66
366.30	3284.94
366.51	3346.38
366.72	2885.59
366.93	2889.68
367.14	3258.32
367.35	3502.03
367.56	2891.73
367.77	3157.97
367.98	3291.09
368.18	3389.39
368.39	3155.92
368.60	2992.08
368.81	3444.68
369.02	3319.76
369.23	2983.89
369.44	2887.64
369.65	3246.03
369.86	3436.49
370.07	3192.78
370.28	2908.12
370.49	3362.76
370.70	3393.48
370.91	2863.06
371.12	2799.57
371.33	3518.41
371.54	3176.40
371.75	3166.16
371.96	2678.74
372.17	3368.91
372.38	3262.41
372.59	3098.58
372.80	2926.55
373.01	3250.13
373.22	3327.95
373.43	3026.90
373.64	2969.55
373.85	3491.79
374.06	3682.25
374.26	3094.48
374.47	3082.19
374.68	3506.12
374.89	3305.42
375.10	2885.59
375.31	3047.38
375.52	3223.50
375.73	3213.26
375.94	2889.68
376.15	3092.43
376.36	3037.14
376.57	3196.88
376.78	3098.58
376.99	3065.81
377.20	3495.88
377.40	3139.54
377.61	3272.65
377.82	2969.55
378.03	3569.61
378.24	3463.12
378.45	3059.67
378.66	3100.62
378.87	2987.99
379.08	2975.70
379.29	2992.08
379.50	3209.17
379.71	3286.99
379.91	3418.06
380.12	2961.36
380.33	3147.73
380.54	3241.93
380.75	3332.05
380.96	3006.42
381.17	3061.71
381.38	3295.18
381.59	3225.55
381.80	2987.99
382.00	3188.69
382.21	3299.28
382.42	3692.49
382.63	3352.52
382.84	3086.29
383.05	3485.64
383.26	3567.56
383.47	3151.82
383.68	2910.16
383.88	3424.20
384.09	3291.09
384.30	3262.41
384.51	3135.44
384.72	3246.03
384.93	3020.75
385.14	3076.05
385.35	3262.41
385.55	3074.00
385.76	3528.65
385.97	3026.90
386.18	2926.55
386.39	3055.57
386.60	3117.01
386.81	2981.84
387.02	2944.98
387.22	3006.42
387.43	3393.48
387.64	3090.38
387.85	3303.37
388.06	3280.85
388.27	4313.02
388.48	7794.57
388.68	11913.03
388.89	15079.19
389.10	16254.73
389.31	16156.43
389.52	13002.55
389.73	11241.30
389.93	10260.32
390.14	9248.63
390.35	8435.58
390.56	7628.68
390.77	6561.69
390.98	5044.15
391.18	4208.58
391.39	3862.47
391.60	3373.00
391.81	3248.08
392.02	3018.71
392.23	3753.93
392.43	3291.09
392.64	3176.40
392.85	3078.10
393.06	3585.99
393.27	3319.76
393.47	2959.31
393.68	3164.11
393.89	3190.74
394.10	3518.41
394.31	3000.27
394.52	3006.42
394.72	3155.92
394.93	3530.70
395.14	3028.95
395.35	3160.02
395.56	3168.21
395.76	3229.65
395.97	2977.75
396.18	3160.02
396.39	3297.23
396.60	3876.80
396.80	3340.24
397.01	3375.05
397.22	3426.25
397.43	3459.02
397.64	2977.75
397.84	3082.19
398.05	3692.49
398.26	3227.60
398.47	3143.63
398.67	3268.56
398.88	3225.55
399.09	3391.44
399.30	3012.56
399.51	3094.48
399.71	3106.77
399.92	3299.28
400.13	3123.15
400.34	2992.08
400.54	3319.76
400.75	3614.66
400.96	3252.17
401.17	3366.86
401.37	3401.68
401.58	3221.45
401.79	2996.18
402.00	3151.82
402.21	3794.89
402.41	3420.11
402.62	3348.43
402.83	3473.36
403.04	3700.68
403.24	4136.90
403.45	3178.45
403.66	3364.81
403.87	3600.33
404.07	3540.94
404.28	3344.33
404.49	3373.00
404.70	3373.00
404.90	3428.30
405.11	3055.57
405.32	3104.72
405.52	3166.16
405.73	3178.45
405.94	2990.03
406.15	3045.33
406.35	3405.77
406.56	3389.39
406.77	3106.77
406.98	3045.33
407.18	3162.06
407.39	3647.43
407.60	3057.62
407.80	3037.14
408.01	3176.40
408.22	3444.68
408.43	2942.93
408.63	3223.50
408.84	3465.16
409.05	3553.23
409.25	2983.89
409.46	2955.22
409.67	3182.54
409.88	3160.02
410.08	3119.06
410.29	3067.86
410.50	3491.79
410.70	3354.57
410.91	2969.55
411.12	3045.33
411.32	3317.71
411.53	3100.62
411.74	3033.04
411.95	3092.43
412.15	3301.33
412.36	3420.11
412.57	3194.83
412.77	3221.45
412.98	3215.31
413.19	3213.26
413.39	3127.25
413.60	3084.24
413.81	3594.19
414.01	3117.01
414.22	3137.49
414.43	3239.89
414.63	3243.98
414.84	3487.69
415.05	3114.96
415.25	2959.31
415.46	3356.62
415.67	3108.82
415.87	3035.09
416.08	2992.08
416.29	3213.26
416.49	3401.68
416.70	3004.37
416.91	3098.58
417.11	3198.93
417.32	3487.69
417.53	3172.30
417.73	3084.24
417.94	3352.52
418.15	3352.52
418.35	3096.53
418.56	3067.86
418.77	3774.41
418.97	3303.37
419.18	3057.62
419.38	2748.37
419.59	3223.50
419.80	3612.62
420.00	3004.37
420.21	3008.47
420.42	3542.99
420.62	3350.48
420.83	2987.99
421.04	2959.31
421.24	3239.89
421.45	3450.83
421.65	3055.57
421.86	3147.73
422.07	3573.71
422.27	3405.77
422.48	2969.55
422.69	2893.78
422.89	3252.17
423.10	3119.06
423.30	3055.57
423.51	3141.58
423.72	3403.72
423.92	3393.48
424.13	2938.84
424.33	3074.00
424.54	3508.17
424.75	3254.22
424.95	3237.84
425.16	2961.36
425.36	3184.59
425.57	3426.25
425.78	3135.44
425.98	3221.45
426.19	3205.07
426.39	3096.53
426.60	3137.49
426.81	3192.78
427.01	3373.00
427.22	3117.01
427.42	2854.87
427.63	2998.23
427.83	3442.64
428.04	3596.23
428.25	3055.57
428.45	3198.93
428.66	3442.64
428.86	3239.89
429.07	3061.71
429.28	3119.06
429.48	3286.99
429.69	3160.02
429.89	3149.78
430.10	3020.75
430.30	3434.44
430.51	3450.83
430.71	2977.75
430.92	3078.10
431.13	3250.13
431.33	3395.53
431.54	3143.63
431.74	3205.07
431.95	3735.50
432.15	3069.91
432.36	3053.52
432.56	3174.35
432.77	3719.11
432.98	3676.10
433.18	3090.38
433.39	2959.31
433.59	3274.70
433.80	3762.12
434.00	3178.45
434.21	3055.57
434.41	3215.31
434.62	3760.07
434.82	2963.41
435.03	3028.95
435.23	3364.81
435.44	2926.55
435.64	2987.99
435.85	3090.38
436.06	3481.55
436.26	3467.21
436.47	3043.28
436.67	3049.43
436.88	3280.85
437.08	3409.87
437.29	3112.91
437.49	3200.98
437.70	3540.94
437.90	3254.22
438.11	3270.61
438.31	3135.44
438.52	3549.13
438.72	3504.07
438.93	3442.64
439.13	3200.98
439.34	3428.30
439.54	3221.45
439.75	3223.50
439.95	3147.73
440.16	3094.48
440.36	3254.22
440.57	3033.04
440.77	3033.04
440.98	3309.52
441.18	3352.52
441.39	2928.60
441.59	2863.06
441.80	3745.73
442.00	3219.41
442.21	3137.49
442.41	2910.16
442.62	3495.88
442.82	3184.59
443.02	3049.43
443.23	3035.09
443.43	3286.99
443.64	3483.59
443.84	2904.02
444.05	3147.73
444.25	3309.52
444.46	3207.12
444.66	3129.30
444.87	3266.51
445.07	3012.56
445.28	3231.69
445.48	3203.02
445.69	3162.06
445.89	3860.42
446.09	3160.02
446.30	3370.96
446.50	3495.88
446.71	4984.76
446.91	6197.15
447.12	6969.24
447.32	7600.01
447.53	7675.79
447.73	6440.86
447.93	5560.24
448.14	5216.18
448.34	5394.35
448.55	4456.38
448.75	4528.06
448.96	4151.23
449.16	3985.35
449.36	3889.09
449.57	3381.20
449.77	3147.73
449.98	3135.44
450.18	3360.72
450.39	3018.71
450.59	3342.28
450.79	3246.03
451.00	3139.54
451.20	3235.79
451.41	3074.00
451.61	3393.48
451.81	3248.08
452.02	3035.09
452.22	3121.10
452.43	3108.82
