SpectraSuite Data File
++++++++++++++++++++++++++++++++++++
Date: Fri May 06 08:14:40 CEST 2016
User: root
Dark Spectrum Present: No
Reference Spectrum Present: No
Number of Sampled Component Spectra: 1
Spectrometers: USB4C02835
Integration Time (usec): 100000 (USB4C02835)
Spectra Averaged: 1 (USB4C02835)
Boxcar Smoothing: 0 (USB4C02835)
Correct for Electrical Dark: No (USB4C02835)
Strobe/Lamp Enabled: No (USB4C02835)
Correct for Detector Non-linearity: No (USB4C02835)
Correct for Stray Light: No (USB4C02835)
Number of Pixels in Processed Spectrum: 3648
>>>>>Begin Processed Spectral Data<<<<<
177.47	2248.67
177.69	2248.67
177.91	2248.67
178.13	2228.19
178.36	2283.49
178.58	3045.33
178.80	3092.43
179.02	3008.47
179.24	3125.20
179.46	2764.76
179.68	2856.92
179.90	3266.51
180.13	3311.57
180.35	2639.83
180.57	2828.24
180.79	3452.88
181.01	3223.50
181.23	2916.31
181.45	3016.66
181.67	3444.68
181.90	3446.73
182.12	2963.41
182.34	2682.84
182.56	3424.20
182.78	3405.77
183.00	2881.49
183.22	2926.55
183.44	2969.55
183.66	3870.66
183.89	3071.95
184.11	2918.36
184.33	3459.02
184.55	3542.99
184.77	2807.77
184.99	2838.48
185.21	3258.32
185.43	3749.83
185.65	2848.72
185.87	2799.57
186.10	3686.34
186.32	3745.73
186.54	3014.61
186.76	2967.51
186.98	3432.40
187.20	3256.27
187.42	2934.74
187.64	2877.40
187.86	3393.48
188.08	3522.51
188.30	2734.04
188.52	2848.72
188.75	3583.95
188.97	3542.99
189.19	2840.53
189.41	2885.59
189.63	3393.48
189.85	3248.08
190.07	2721.75
190.29	2742.23
190.51	3426.25
190.73	3071.95
190.95	3057.62
191.17	2928.60
191.39	2985.94
191.61	3221.45
191.84	2877.40
192.06	3074.00
192.28	3022.80
192.50	3942.34
192.72	3026.90
192.94	2969.55
193.16	3491.79
193.38	3370.96
193.60	2740.18
193.82	3008.47
194.04	3491.79
194.26	3354.57
194.48	2836.44
194.70	2828.24
194.92	3297.23
195.14	3426.25
195.36	2783.19
195.58	3000.27
195.80	3254.22
196.02	3168.21
196.24	2725.85
196.46	2928.60
196.69	3200.98
196.91	3774.41
197.13	2973.65
197.35	2924.50
197.57	3669.96
197.79	3330.00
198.01	2908.12
198.23	2875.35
198.45	3502.03
198.67	3018.71
198.89	2729.94
199.11	3024.85
199.33	3078.10
199.55	2824.15
199.77	2840.53
199.99	3063.76
200.21	3213.26
200.43	3413.96
200.65	2738.13
200.87	2746.33
201.09	3237.84
201.31	3225.55
201.53	2895.83
201.75	2949.08
201.97	3254.22
202.19	3233.74
202.41	2885.59
202.63	3026.90
202.85	3428.30
203.07	3315.66
203.29	2963.41
203.51	2723.80
203.73	3164.11
203.95	3760.07
204.17	2863.06
204.39	3010.51
204.61	3307.47
204.83	3198.93
205.05	3010.51
205.27	2901.97
205.49	3663.82
205.71	3358.67
205.93	2715.61
206.15	2705.37
206.37	3336.14
206.59	3241.93
206.81	2697.17
207.03	2680.79
207.25	3123.15
207.47	3526.60
207.69	2883.54
207.91	3074.00
208.13	3616.71
208.34	3098.58
208.56	2852.82
208.78	2893.78
209.00	3186.64
209.22	3256.27
209.44	2893.78
209.66	2838.48
209.88	3299.28
210.10	3207.12
210.32	2715.61
210.54	2885.59
210.76	3149.78
210.98	3516.36
211.20	2754.52
211.42	2975.70
211.64	3567.56
211.86	3442.64
212.08	2912.21
212.30	2844.63
212.52	3174.35
212.74	3438.54
212.96	2983.89
213.17	2983.89
213.39	3401.68
213.61	3633.10
213.83	2842.58
214.05	2734.04
214.27	3516.36
214.49	3092.43
214.71	2844.63
214.93	3067.86
215.15	3274.70
215.37	3450.83
215.59	2721.75
215.81	2924.50
216.03	3618.76
216.24	3332.05
216.46	2879.44
216.68	2901.97
216.90	3487.69
217.12	3444.68
217.34	2852.82
217.56	3090.38
217.78	3581.90
218.00	3426.25
218.22	2994.13
218.44	2942.93
218.66	3360.72
218.87	3624.90
219.09	2901.97
219.31	2885.59
219.53	3354.57
219.75	3168.21
219.97	2877.40
220.19	2934.74
220.41	3311.57
220.63	3624.90
220.85	2928.60
221.06	2889.68
221.28	3481.55
221.50	3418.06
221.72	2854.87
221.94	2787.29
222.16	3274.70
222.38	3502.03
222.60	2852.82
222.82	2930.64
223.03	3461.07
223.25	3008.47
223.47	2832.34
223.69	3096.53
223.91	3340.24
224.13	3268.56
224.35	2746.33
224.57	3047.38
224.78	3368.91
225.00	3153.87
225.22	2979.79
225.44	2824.15
225.66	3383.24
225.88	3229.65
226.10	2975.70
226.32	2920.40
226.53	3491.79
226.75	3200.98
226.97	2947.03
227.19	2848.72
227.41	3121.10
227.63	3215.31
227.85	2660.31
228.06	2895.83
228.28	3313.61
228.50	3461.07
228.72	2672.60
228.94	2820.05
229.16	2883.54
229.37	3074.00
229.59	2834.39
229.81	3176.40
230.03	3211.22
230.25	2895.83
230.47	2727.89
230.69	2848.72
230.90	3452.88
231.12	3166.16
231.34	2979.79
231.56	2942.93
231.78	3098.58
232.00	3315.66
232.21	2867.16
232.43	2996.18
232.65	2828.24
232.87	3407.82
233.09	2693.08
233.30	2805.72
233.52	3473.36
233.74	3205.07
233.96	2754.52
234.18	2992.08
234.40	3192.78
234.61	3803.08
234.83	2721.75
235.05	2795.48
235.27	3762.12
235.49	3491.79
235.70	2838.48
235.92	2936.79
236.14	3354.57
236.36	3807.17
236.58	2777.05
236.79	2922.45
237.01	3311.57
237.23	3293.13
237.45	3100.62
237.67	2899.92
237.88	3360.72
238.10	3590.09
238.32	2754.52
238.54	2881.49
238.76	3235.79
238.97	3071.95
239.19	2783.19
239.41	2959.31
239.63	3565.51
239.85	3254.22
240.06	2924.50
240.28	2836.44
240.50	3510.22
240.72	3309.52
240.93	2797.53
241.15	2926.55
241.37	3282.89
241.59	3565.51
241.81	2893.78
242.02	2973.65
242.24	3387.34
242.46	3418.06
242.68	2682.84
242.89	2779.09
243.11	3489.74
243.33	3252.17
243.55	2959.31
243.76	2838.48
243.98	3117.01
244.20	3252.17
244.42	2750.42
244.64	2793.43
244.85	3098.58
245.07	3078.10
245.29	2861.01
245.51	2811.86
245.72	3317.71
245.94	3483.59
246.16	2889.68
246.38	2949.08
246.59	3241.93
246.81	3137.49
247.03	2760.66
247.24	2723.80
247.46	3172.30
247.68	3246.03
247.90	2820.05
248.11	2838.48
248.33	3379.15
248.55	3225.55
248.77	2869.20
248.98	2975.70
249.20	3616.71
249.42	3338.19
249.64	2803.67
249.85	2863.06
250.07	3196.88
250.29	3454.92
250.50	2904.02
250.72	2877.40
250.94	3385.29
251.16	3698.63
251.37	2787.29
251.59	2912.21
251.81	3373.00
252.02	3655.62
252.24	2723.80
252.46	2971.60
252.68	3106.77
252.89	3108.82
253.11	2648.02
253.33	3016.66
253.54	3610.57
253.76	3041.23
253.98	2899.92
254.20	2848.72
254.41	3033.04
254.63	3205.07
254.85	2738.13
255.06	2930.64
255.28	3452.88
255.50	3258.32
255.71	2748.37
255.93	2723.80
256.15	3280.85
256.36	3330.00
256.58	2695.13
256.80	2787.29
257.02	3176.40
257.23	3237.84
257.45	2883.54
257.67	2981.84
257.88	3243.98
258.10	3418.06
258.32	2822.10
258.53	2926.55
258.75	3635.14
258.97	3108.82
259.18	2744.28
259.40	2783.19
259.62	3665.86
259.83	3688.39
260.05	2934.74
260.27	3862.47
260.48	3479.50
260.70	3119.06
260.92	2691.03
261.13	2910.16
261.35	3278.80
261.57	3330.00
261.78	2791.38
262.00	2766.81
262.22	3377.10
262.43	3168.21
262.65	2885.59
262.86	2918.36
263.08	3780.55
263.30	3330.00
263.51	2699.22
263.73	2801.62
263.95	3493.83
264.16	3203.02
264.38	2756.57
264.60	2758.61
264.81	3248.08
265.03	3532.75
265.25	3366.86
265.46	2809.81
265.68	3430.35
265.89	3391.44
266.11	2709.46
266.33	2877.40
266.54	3473.36
266.76	3362.76
266.98	2975.70
267.19	3106.77
267.41	3463.12
267.62	3282.89
267.84	2686.94
268.06	2959.31
268.27	3262.41
268.49	3575.75
268.70	2926.55
268.92	2879.44
269.14	3082.19
269.35	2949.08
269.57	2957.27
269.79	2914.26
270.00	3131.34
270.22	3626.95
270.43	2736.09
270.65	2717.65
270.87	3364.81
271.08	3356.62
271.30	2971.60
271.51	2871.25
271.73	3387.34
271.95	3553.23
272.16	2832.34
272.38	3022.80
272.59	3196.88
272.81	3446.73
273.02	2813.91
273.24	2914.26
273.46	3545.03
273.67	3004.37
273.89	2695.13
274.10	2912.21
274.32	3495.88
274.54	3321.81
274.75	3006.42
274.97	3024.85
275.18	3368.91
275.40	3344.33
275.61	2928.60
275.83	3035.09
276.05	3063.76
276.26	3338.19
276.48	3018.71
276.69	3014.61
276.91	3117.01
277.12	3598.28
277.34	3063.76
277.55	3057.62
277.77	3393.48
277.99	3217.36
278.20	3059.67
278.42	2906.07
278.63	3149.78
278.85	3080.14
279.06	2942.93
279.28	3067.86
279.49	3569.61
279.71	3405.77
279.93	2963.41
280.14	3098.58
280.36	3176.40
280.57	3594.19
280.79	3139.54
281.00	2809.81
281.22	3180.50
281.43	3526.60
281.65	2797.53
281.86	2942.93
282.08	3401.68
282.29	3629.00
282.51	2852.82
282.73	2899.92
282.94	2975.70
283.16	3446.73
283.37	3086.29
283.59	3020.75
283.80	3387.34
284.02	3235.79
284.23	3030.99
284.45	3076.05
284.66	3094.48
284.88	3094.48
285.09	2861.01
285.31	3100.62
285.52	3405.77
285.74	3010.51
285.95	3127.25
286.17	3086.29
286.38	3553.23
286.60	3248.08
286.81	2932.69
287.03	2881.49
287.24	3258.32
287.46	3504.07
287.67	3172.30
287.89	3192.78
288.10	3282.89
288.32	3303.37
288.53	3131.34
288.75	2990.03
288.96	3399.63
289.18	3168.21
289.39	3026.90
289.61	3084.24
289.82	3786.69
290.04	3723.21
290.25	2879.44
290.47	3082.19
290.68	3213.26
290.90	3495.88
291.11	2850.77
291.33	3121.10
291.54	3119.06
291.76	3200.98
291.97	3078.10
292.18	3030.99
292.40	3174.35
292.61	3090.38
292.83	3268.56
293.04	2992.08
293.26	3254.22
293.47	3198.93
293.69	2906.07
293.90	2887.64
294.12	3540.94
294.33	3295.18
294.55	2961.36
294.76	3137.49
294.97	3540.94
295.19	3807.17
295.40	2920.40
295.62	3012.56
295.83	3504.07
296.05	3108.82
296.26	3260.37
296.48	2949.08
296.69	3323.85
296.90	3303.37
297.12	3162.06
297.33	3131.34
297.55	3282.89
297.76	3399.63
297.98	3119.06
298.19	3069.91
298.41	3250.13
298.62	3139.54
298.83	3203.02
299.05	3080.14
299.26	3227.60
299.48	3098.58
299.69	3033.04
299.90	2981.84
300.12	3053.52
300.33	3344.33
300.55	3049.43
300.76	3051.47
300.98	3055.57
301.19	3362.76
301.40	3057.62
301.62	3000.27
301.83	3383.24
302.05	3309.52
302.26	2928.60
302.47	3106.77
302.69	2996.18
302.90	3221.45
303.12	2822.10
303.33	3196.88
303.54	3686.34
303.76	3198.93
303.97	2920.40
304.19	3149.78
304.40	3172.30
304.61	3387.34
304.83	3045.33
305.04	3028.95
305.26	3370.96
305.47	3196.88
305.68	2983.89
305.90	2758.61
306.11	3534.79
306.33	3205.07
306.54	2822.10
306.75	2908.12
306.97	3024.85
307.18	3074.00
307.39	2959.31
307.61	3033.04
307.82	3237.84
308.04	3330.00
308.25	2850.77
308.46	3157.97
308.68	3217.36
308.89	3282.89
309.10	3084.24
309.32	3039.19
309.53	3229.65
309.74	3332.05
309.96	2908.12
310.17	3067.86
310.39	3192.78
310.60	3397.58
310.81	3151.82
311.03	2940.88
311.24	3452.88
311.45	3284.94
311.67	3207.12
311.88	3102.67
312.09	3174.35
312.31	3129.30
312.52	2889.68
312.73	2955.22
312.95	3061.71
313.16	3166.16
313.37	3160.02
313.59	3205.07
313.80	3393.48
314.01	3532.75
314.23	2994.13
314.44	2904.02
314.65	3112.91
314.87	3059.67
315.08	2975.70
315.29	2994.13
315.51	3090.38
315.72	3006.42
315.93	3051.47
316.15	2996.18
316.36	3162.06
316.57	3399.63
316.79	2944.98
317.00	2985.94
317.21	3559.37
317.43	3141.58
317.64	3006.42
317.85	2928.60
318.07	3157.97
318.28	3264.46
318.49	3069.91
318.70	3123.15
318.92	3401.68
319.13	3368.91
319.34	3125.20
319.56	3016.66
319.77	3336.14
319.98	3479.50
320.20	3278.80
320.41	3174.35
320.62	3379.15
320.83	3086.29
321.05	3182.54
321.26	2987.99
321.47	3295.18
321.69	3450.83
321.90	2928.60
322.11	2889.68
322.32	3375.05
322.54	3526.60
322.75	3106.77
322.96	3958.72
323.18	2969.55
323.39	2914.26
323.60	2887.64
323.81	3030.99
324.03	3137.49
324.24	3200.98
324.45	3143.63
324.66	2936.79
324.88	3442.64
325.09	3641.29
325.30	3024.85
325.52	2914.26
325.73	3325.90
325.94	3102.67
326.15	2904.02
326.37	2914.26
326.58	3536.84
326.79	3680.20
327.00	2965.46
327.22	2934.74
327.43	3117.01
327.64	3108.82
327.85	3196.88
328.07	3078.10
328.28	3629.00
328.49	3155.92
328.70	2928.60
328.92	3037.14
329.13	3272.65
329.34	3344.33
329.55	3235.79
329.76	3157.97
329.98	3229.65
330.19	3469.26
330.40	3162.06
330.61	3192.78
330.83	3473.36
331.04	3059.67
331.25	3067.86
331.46	3164.11
331.68	3024.85
331.89	3567.56
332.10	3074.00
332.31	2858.96
332.52	3227.60
332.74	3469.26
332.95	2854.87
333.16	3014.61
333.37	3379.15
333.58	3141.58
333.80	3039.19
334.01	2836.44
334.22	3256.27
334.43	3254.22
334.64	2969.55
334.86	2983.89
335.07	3131.34
335.28	3553.23
335.49	2942.93
335.70	3172.30
335.92	3585.99
336.13	3764.17
336.34	3047.38
336.55	2975.70
336.76	3362.76
336.98	2969.55
337.19	3016.66
337.40	3106.77
337.61	3831.75
337.82	3180.50
338.04	3057.62
338.25	2848.72
338.46	3207.12
338.67	3211.22
338.88	2926.55
339.09	2848.72
339.31	3205.07
339.52	3018.71
339.73	2965.46
339.94	3037.14
340.15	3508.17
340.36	3155.92
340.58	3067.86
340.79	2987.99
341.00	3340.24
341.21	3063.76
341.42	3248.08
341.63	2996.18
341.85	3463.12
342.06	3219.41
342.27	2944.98
342.48	3172.30
342.69	3041.23
342.90	3356.62
343.12	3370.96
343.33	2926.55
343.54	3450.83
343.75	3528.65
343.96	3125.20
344.17	2883.54
344.38	3225.55
344.60	3090.38
344.81	2910.16
345.02	2983.89
345.23	3463.12
345.44	3866.56
345.65	3035.09
345.86	3076.05
346.07	3299.28
346.29	3143.63
346.50	3160.02
346.71	3006.42
346.92	3499.98
347.13	3762.12
347.34	3074.00
347.55	2885.59
347.76	3344.33
347.98	3039.19
348.19	3057.62
348.40	3176.40
348.61	3229.65
348.82	3542.99
349.03	3117.01
349.24	2836.44
349.45	3694.54
349.66	2871.25
349.88	2961.36
350.09	2865.11
350.30	3502.03
350.51	3565.51
350.72	3143.63
350.93	3065.81
351.14	3149.78
351.35	3418.06
351.56	3004.37
351.77	3100.62
351.99	3393.48
352.20	3545.03
352.41	3153.87
352.62	2865.11
352.83	3286.99
353.04	3246.03
353.25	3024.85
353.46	3035.09
353.67	3577.80
353.88	2955.22
354.09	2891.73
354.30	3049.43
354.52	3426.25
354.73	3194.83
354.94	2887.64
355.15	3045.33
355.36	3686.34
355.57	3209.17
355.78	2934.74
355.99	3076.05
356.20	3239.89
356.41	3526.60
356.62	3094.48
356.83	3010.51
357.04	3461.07
357.25	2969.55
357.46	3006.42
357.68	2992.08
357.89	3131.34
358.10	3272.65
358.31	2977.75
358.52	2953.17
358.73	2998.23
358.94	3002.32
359.15	2975.70
359.36	3078.10
359.57	3350.48
359.78	3252.17
359.99	3180.50
360.20	2930.64
360.41	3215.31
360.62	3366.86
360.83	3028.95
361.04	3041.23
361.25	3323.85
361.46	3657.67
361.67	3114.96
361.88	3041.23
362.09	3452.88
362.30	3301.33
362.51	2942.93
362.72	3110.86
362.93	3420.11
363.14	3467.21
363.35	3090.38
363.56	2961.36
363.78	3475.40
363.99	3483.59
364.20	3016.66
364.41	3090.38
364.62	3637.19
364.83	3360.72
365.04	3096.53
365.25	3059.67
365.46	3694.54
365.67	3157.97
365.88	3155.92
366.09	3016.66
366.30	3219.41
366.51	3340.24
366.72	3008.47
366.93	3055.57
367.14	3327.95
367.35	3542.99
367.56	2930.64
367.77	3135.44
367.98	3217.36
368.18	3385.29
368.39	3135.44
368.60	2949.08
368.81	3401.68
369.02	3327.95
369.23	3084.24
369.44	2807.77
369.65	3112.91
369.86	3358.67
370.07	3045.33
370.28	2951.12
370.49	3309.52
370.70	3340.24
370.91	2985.94
371.12	2858.96
371.33	3504.07
371.54	3147.73
371.75	3108.82
371.96	2791.38
372.17	3383.24
372.38	3256.27
372.59	2959.31
372.80	2971.60
373.01	3299.28
373.22	3295.18
373.43	2992.08
373.64	2879.44
373.85	3547.08
374.06	3616.71
374.26	3164.11
374.47	3063.76
374.68	3508.17
374.89	3276.75
375.10	2975.70
375.31	3106.77
375.52	3254.22
375.73	3332.05
375.94	2883.54
376.15	3170.26
376.36	3174.35
376.57	3078.10
376.78	3026.90
376.99	3074.00
377.20	3463.12
377.40	3184.59
377.61	3286.99
377.82	2975.70
378.03	3602.38
378.24	3350.48
378.45	3074.00
378.66	3057.62
378.87	3008.47
379.08	3053.52
379.29	2944.98
379.50	3127.25
379.71	3200.98
379.91	3364.81
380.12	2906.07
380.33	3098.58
380.54	3266.51
380.75	3231.69
380.96	3080.14
381.17	3041.23
381.38	3143.63
381.59	3248.08
381.80	3041.23
382.00	3168.21
382.21	3389.39
382.42	3581.90
382.63	3307.47
382.84	3229.65
383.05	3475.40
383.26	3549.13
383.47	3178.45
383.68	2981.84
383.88	3362.76
384.09	3323.85
384.30	3246.03
384.51	3190.74
384.72	3205.07
384.93	3080.14
385.14	3053.52
385.35	3270.61
385.55	2959.31
385.76	3534.79
385.97	3080.14
386.18	2883.54
386.39	3139.54
386.60	3172.30
386.81	3086.29
387.02	2932.69
387.22	3082.19
387.43	3313.61
387.64	3145.68
387.85	3246.03
388.06	3262.41
388.27	4362.17
388.48	7735.18
388.68	11917.13
388.89	15097.63
389.10	16215.82
389.31	16019.21
389.52	12945.21
389.73	11216.72
389.93	10340.19
390.14	9209.72
390.35	8613.76
390.56	7878.54
390.77	6557.60
390.98	4986.80
391.18	4147.14
391.39	3934.15
391.60	3239.89
391.81	3311.57
392.02	3024.85
392.23	3794.89
392.43	3325.90
392.64	3200.98
392.85	3200.98
393.06	3581.90
393.27	3248.08
393.47	2961.36
393.68	3080.14
393.89	3198.93
394.10	3483.59
394.31	3028.95
394.52	2977.75
394.72	3155.92
394.93	3610.57
395.14	2932.69
395.35	3123.15
395.56	3198.93
395.76	3241.93
395.97	3049.43
396.18	3209.17
396.39	3319.76
396.60	3944.39
396.80	3469.26
397.01	3299.28
397.22	3463.12
397.43	3540.94
397.64	3059.67
397.84	3071.95
398.05	3631.05
398.26	3303.37
398.47	3147.73
398.67	3278.80
398.88	3332.05
399.09	3487.69
399.30	3002.32
399.51	3069.91
399.71	3041.23
399.92	3250.13
400.13	3133.39
400.34	3129.30
400.54	3254.22
400.75	3553.23
400.96	3194.83
401.17	3346.38
401.37	3356.62
401.58	3272.65
401.79	2981.84
402.00	3106.77
402.21	3866.56
402.41	3399.63
402.62	3389.39
402.83	3434.44
403.04	3778.50
403.24	4104.13
403.45	3176.40
403.66	3377.10
403.87	3534.79
404.07	3565.51
404.28	3323.85
404.49	3319.76
404.70	3403.72
404.90	3493.83
405.11	2975.70
405.32	3076.05
405.52	3190.74
405.73	3190.74
405.94	2963.41
406.15	3114.96
406.35	3389.39
406.56	3428.30
406.77	3104.72
406.98	3055.57
407.18	3166.16
407.39	3565.51
407.60	3157.97
407.80	3082.19
408.01	3274.70
408.22	3418.06
408.43	2942.93
408.63	3100.62
408.84	3403.72
409.05	3446.73
409.25	2990.03
409.46	3041.23
409.67	3241.93
409.88	3190.74
410.08	3078.10
410.29	2981.84
410.50	3475.40
410.70	3348.43
410.91	2912.21
411.12	3125.20
411.32	3241.93
411.53	3131.34
411.74	3057.62
411.95	3088.34
412.15	3405.77
412.36	3497.93
412.57	3221.45
412.77	3215.31
412.98	3241.93
413.19	3211.22
413.39	3164.11
413.60	3084.24
413.81	3547.08
414.01	3102.67
414.22	3090.38
414.43	3229.65
414.63	3182.54
414.84	3442.64
415.05	3012.56
415.25	2955.22
415.46	3413.96
415.67	3147.73
415.87	3037.14
416.08	3053.52
416.29	3225.55
416.49	3407.82
416.70	3121.10
416.91	3057.62
417.11	3241.93
417.32	3506.12
417.53	3147.73
417.73	3110.86
417.94	3219.41
418.15	3346.38
418.35	3074.00
418.56	3082.19
418.77	3704.78
418.97	3307.47
419.18	3164.11
419.38	2705.37
419.59	3239.89
419.80	3647.43
420.00	2967.51
420.21	3069.91
420.42	3567.56
420.62	3450.83
420.83	3117.01
421.04	3028.95
421.24	3229.65
421.45	3368.91
421.65	3133.39
421.86	3026.90
422.07	3479.50
422.27	3448.78
422.48	2949.08
422.69	2871.25
422.89	3262.41
423.10	3254.22
423.30	3018.71
423.51	3104.72
423.72	3354.57
423.92	3387.34
424.13	2850.77
424.33	3160.02
424.54	3499.98
424.75	3305.42
424.95	3207.12
425.16	2987.99
425.36	3231.69
425.57	3467.21
425.78	3145.68
425.98	3176.40
426.19	3301.33
426.39	3108.82
426.60	3151.82
426.81	3188.69
427.01	3430.35
427.22	3155.92
427.42	2926.55
427.63	3000.27
427.83	3545.03
428.04	3647.43
428.25	3184.59
428.45	3117.01
428.66	3469.26
428.86	3254.22
429.07	3160.02
429.28	3123.15
429.48	3278.80
429.69	3141.58
429.89	3129.30
430.10	2977.75
430.30	3485.64
430.51	3545.03
430.71	3039.19
430.92	3076.05
431.13	3192.78
431.33	3401.68
431.54	3190.74
431.74	3284.94
431.95	3645.38
432.15	3043.28
432.36	3030.99
432.56	3129.30
432.77	3659.72
432.98	3641.29
433.18	3119.06
433.39	2871.25
433.59	3241.93
433.80	3672.01
434.00	3272.65
434.21	3102.67
434.41	3112.91
434.62	3852.23
434.82	2942.93
435.03	3016.66
435.23	3289.04
435.44	3000.27
435.64	3063.76
435.85	3096.53
436.06	3461.07
436.26	3573.71
436.47	3078.10
436.67	2959.31
436.88	3207.12
437.08	3461.07
437.29	3125.20
437.49	3172.30
437.70	3569.61
437.90	3237.84
438.11	3286.99
438.31	3059.67
438.52	3524.55
438.72	3522.51
438.93	3344.33
439.13	3106.77
439.34	3499.98
439.54	3229.65
439.75	3243.98
439.95	3155.92
440.16	3114.96
440.36	3248.08
440.57	3047.38
440.77	3035.09
440.98	3289.04
441.18	3379.15
441.39	2897.88
441.59	3059.67
441.80	3647.43
442.00	3241.93
442.21	3231.69
442.41	2871.25
442.62	3426.25
442.82	3094.48
443.02	3057.62
443.23	3114.96
443.43	3172.30
443.64	3477.45
443.84	2961.36
444.05	3196.88
444.25	3258.32
444.46	3237.84
444.66	3071.95
444.87	3338.19
445.07	2975.70
445.28	3213.26
445.48	3270.61
445.69	3194.83
445.89	3807.17
446.09	3248.08
446.30	3416.01
446.50	3512.27
446.71	5162.93
446.91	6258.59
447.12	7094.16
447.32	7608.20
447.53	7546.76
447.73	6455.20
447.93	5687.21
448.14	5214.13
448.34	5371.82
448.55	4591.55
448.75	4556.73
448.96	4288.45
449.16	4100.03
449.36	3837.89
449.57	3358.67
449.77	3176.40
449.98	3196.88
450.18	3315.66
450.39	2998.23
450.59	3260.37
450.79	3270.61
451.00	3139.54
451.20	3323.85
451.41	3076.05
451.61	3393.48
451.81	3139.54
452.02	3002.32
452.22	3022.80
452.43	3098.58
