SpectraSuite Data File
++++++++++++++++++++++++++++++++++++
Date: Fri May 06 08:13:54 CEST 2016
User: root
Dark Spectrum Present: No
Reference Spectrum Present: No
Number of Sampled Component Spectra: 1
Spectrometers: USB4C02835
Integration Time (usec): 100000 (USB4C02835)
Spectra Averaged: 1 (USB4C02835)
Boxcar Smoothing: 0 (USB4C02835)
Correct for Electrical Dark: No (USB4C02835)
Strobe/Lamp Enabled: No (USB4C02835)
Correct for Detector Non-linearity: No (USB4C02835)
Correct for Stray Light: No (USB4C02835)
Number of Pixels in Processed Spectrum: 3648
>>>>>Begin Processed Spectral Data<<<<<
177.47	2207.71
177.69	2207.71
177.91	2207.71
178.13	2265.05
178.36	2263.01
178.58	3063.76
178.80	3094.48
179.02	2975.70
179.24	3071.95
179.46	2707.41
179.68	2881.49
179.90	3256.27
180.13	3272.65
180.35	2721.75
180.57	2809.81
180.79	3401.68
181.01	3299.28
181.23	2836.44
181.45	2940.88
181.67	3463.12
181.90	3459.02
182.12	2932.69
182.34	2627.54
182.56	3409.87
182.78	3368.91
183.00	2789.33
183.22	2914.26
183.44	2951.12
183.66	3950.53
183.89	3057.62
184.11	2869.20
184.33	3352.52
184.55	3547.08
184.77	2856.92
184.99	2820.05
185.21	3229.65
185.43	3803.08
185.65	2869.20
185.87	2863.06
186.10	3796.93
186.32	3778.50
186.54	2981.84
186.76	2977.75
186.98	3465.16
187.20	3346.38
187.42	2875.35
187.64	2893.78
187.86	3370.96
188.08	3506.12
188.30	2756.57
188.52	2871.25
188.75	3487.69
188.97	3461.07
189.19	2764.76
189.41	2871.25
189.63	3434.44
189.85	3241.93
190.07	2752.47
190.29	2731.99
190.51	3401.68
190.73	3082.19
190.95	3090.38
191.17	2826.20
191.39	2990.03
191.61	3205.07
191.84	2869.20
192.06	3035.09
192.28	2983.89
192.50	4050.88
192.72	3055.57
192.94	2944.98
193.16	3616.71
193.38	3438.54
193.60	2742.23
193.82	3014.61
194.04	3518.41
194.26	3438.54
194.48	2877.40
194.70	2848.72
194.92	3194.83
195.14	3428.30
195.36	2801.62
195.58	2996.18
195.80	3219.41
196.02	3155.92
196.24	2830.29
196.46	2912.21
196.69	3184.59
196.91	3715.02
197.13	2947.03
197.35	2967.51
197.57	3557.32
197.79	3385.29
198.01	2994.13
198.23	2934.74
198.45	3479.50
198.67	3057.62
198.89	2697.17
199.11	2961.36
199.33	3225.55
199.55	2809.81
199.77	2801.62
199.99	3063.76
200.21	3248.08
200.43	3418.06
200.65	2787.29
200.87	2680.79
201.09	3280.85
201.31	3246.03
201.53	2869.20
201.75	2924.50
201.97	3368.91
202.19	3377.10
202.41	2987.99
202.63	2983.89
202.85	3403.72
203.07	3440.59
203.29	2918.36
203.51	2777.05
203.73	3205.07
203.95	3852.23
204.17	2832.34
204.39	3000.27
204.61	3209.17
204.83	3221.45
205.05	2996.18
205.27	2861.01
205.49	3743.69
205.71	3286.99
205.93	2715.61
206.15	2811.86
206.37	3325.90
206.59	3239.89
206.81	2721.75
207.03	2793.43
207.25	3088.34
207.47	3409.87
207.69	2850.77
207.91	3108.82
208.13	3708.87
208.34	3192.78
208.56	2830.29
208.78	2893.78
209.00	3209.17
209.22	3129.30
209.44	2893.78
209.66	2797.53
209.88	3260.37
210.10	3237.84
210.32	2865.11
210.54	2936.79
210.76	3172.30
210.98	3504.07
211.20	2756.57
211.42	2953.17
211.64	3481.55
211.86	3397.58
212.08	2947.03
212.30	2811.86
212.52	3237.84
212.74	3459.02
212.96	2990.03
213.17	2951.12
213.39	3418.06
213.61	3590.09
213.83	2826.20
214.05	2738.13
214.27	3514.31
214.49	3082.19
214.71	2846.68
214.93	2981.84
215.15	3327.95
215.37	3526.60
215.59	2654.17
215.81	2981.84
216.03	3567.56
216.24	3358.67
216.46	2861.01
216.68	2899.92
216.90	3454.92
217.12	3508.17
217.34	2875.35
217.56	3043.28
217.78	3622.86
218.00	3373.00
218.22	2897.88
218.44	3045.33
218.66	3373.00
218.87	3637.19
219.09	2883.54
219.31	2820.05
219.53	3377.10
219.75	3170.26
219.97	2879.44
220.19	2893.78
220.41	3307.47
220.63	3604.42
220.85	2779.09
221.06	2848.72
221.28	3524.55
221.50	3403.72
221.72	2861.01
221.94	2707.41
222.16	3348.43
222.38	3471.31
222.60	2779.09
222.82	2899.92
223.03	3454.92
223.25	3030.99
223.47	2863.06
223.69	3172.30
223.91	3430.35
224.13	3254.22
224.35	2746.33
224.57	3074.00
224.78	3465.16
225.00	3114.96
225.22	2987.99
225.44	2781.14
225.66	3434.44
225.88	3055.57
226.10	3004.37
226.32	2893.78
226.53	3565.51
226.75	3213.26
226.97	2897.88
227.19	2828.24
227.41	3125.20
227.63	3219.41
227.85	2754.52
228.06	2838.48
228.28	3356.62
228.50	3514.31
228.72	2725.85
228.94	2844.63
229.16	2881.49
229.37	3071.95
229.59	2688.98
229.81	3155.92
230.03	3147.73
230.25	3002.32
230.47	2758.61
230.69	2805.72
230.90	3444.68
231.12	3178.45
231.34	3004.37
231.56	2992.08
231.78	3049.43
232.00	3403.72
232.21	2920.40
232.43	2856.92
232.65	2854.87
232.87	3358.67
233.09	2717.65
233.30	2797.53
233.52	3528.65
233.74	3221.45
233.96	2795.48
234.18	3151.82
234.40	3278.80
234.61	3731.40
234.83	2756.57
235.05	2850.77
235.27	3815.37
235.49	3536.84
235.70	2803.67
235.92	2926.55
236.14	3401.68
236.36	3852.23
236.58	2783.19
236.79	2969.55
237.01	3338.19
237.23	3260.37
237.45	3092.43
237.67	2934.74
237.88	3315.66
238.10	3622.86
238.32	2881.49
238.54	2795.48
238.76	3237.84
238.97	3098.58
239.19	2801.62
239.41	2899.92
239.63	3502.03
239.85	3207.12
240.06	2832.34
240.28	2848.72
240.50	3520.46
240.72	3299.28
240.93	2811.86
241.15	3014.61
241.37	3309.52
241.59	3508.17
241.81	2789.33
242.02	2926.55
242.24	3420.11
242.46	3387.34
242.68	2715.61
242.89	2750.42
243.11	3461.07
243.33	3272.65
243.55	2842.58
243.76	2891.73
243.98	3188.69
244.20	3192.78
244.42	2838.48
244.64	2846.68
244.85	2987.99
245.07	3065.81
245.29	2815.96
245.51	2844.63
245.72	3330.00
245.94	3483.59
246.16	2867.16
246.38	2840.53
246.59	3090.38
246.81	3092.43
247.03	2791.38
247.24	2691.03
247.46	3168.21
247.68	3321.81
247.90	2801.62
248.11	2836.44
248.33	3432.40
248.55	3266.51
248.77	2934.74
248.98	2987.99
249.20	3504.07
249.42	3297.23
249.64	2832.34
249.85	2842.58
250.07	3174.35
250.29	3438.54
250.50	2885.59
250.72	2754.52
250.94	3377.10
251.16	3751.88
251.37	2850.77
251.59	2938.84
251.81	3432.40
252.02	3643.34
252.24	2828.24
252.46	3016.66
252.68	3059.67
252.89	3190.74
253.11	2709.46
253.33	2953.17
253.54	3590.09
253.76	3024.85
253.98	2869.20
254.20	2887.64
254.41	3135.44
254.63	3213.26
254.85	2746.33
255.06	3008.47
255.28	3330.00
255.50	3262.41
255.71	2820.05
255.93	2768.85
256.15	3239.89
256.36	3373.00
256.58	2766.81
256.80	2760.66
257.02	3198.93
257.23	3174.35
257.45	2891.73
257.67	3002.32
257.88	3172.30
258.10	3307.47
258.32	2891.73
258.53	2977.75
258.75	3573.71
258.97	3078.10
259.18	2754.52
259.40	2822.10
259.62	3655.62
259.83	3526.60
260.05	2815.96
260.27	3676.10
260.48	3479.50
260.70	3033.04
260.92	2729.94
261.13	2932.69
261.35	3301.33
261.57	3348.43
261.78	2711.51
262.00	2856.92
262.22	3393.48
262.43	3041.23
262.65	2824.15
262.86	2944.98
263.08	3745.73
263.30	3295.18
263.51	2738.13
263.73	2797.53
263.95	3610.57
264.16	3188.69
264.38	2676.70
264.60	2723.80
264.81	3147.73
265.03	3471.31
265.25	3258.32
265.46	2848.72
265.68	3495.88
265.89	3377.10
266.11	2731.99
266.33	2885.59
266.54	3512.27
266.76	3330.00
266.98	2979.79
267.19	3106.77
267.41	3489.74
267.62	3186.64
267.84	2615.26
268.06	2951.12
268.27	3307.47
268.49	3469.26
268.70	2979.79
268.92	2922.45
269.14	3233.74
269.35	3026.90
269.57	2955.22
269.79	2979.79
270.00	3065.81
270.22	3620.81
270.43	2705.37
270.65	2731.99
270.87	3340.24
271.08	3391.44
271.30	3020.75
271.51	2818.00
271.73	3442.64
271.95	3479.50
272.16	2738.13
272.38	3008.47
272.59	3215.31
272.81	3393.48
273.02	2844.63
273.24	2987.99
273.46	3561.42
273.67	3004.37
273.89	2721.75
274.10	2934.74
274.32	3643.34
274.54	3354.57
274.75	2975.70
274.97	2983.89
275.18	3307.47
275.40	3401.68
275.61	2916.31
275.83	2987.99
276.05	3076.05
276.26	3215.31
276.48	2973.65
276.69	3047.38
276.91	3117.01
277.12	3645.38
277.34	3053.52
277.55	3092.43
277.77	3246.03
277.99	3229.65
278.20	2992.08
278.42	2871.25
278.63	3100.62
278.85	3082.19
279.06	2949.08
279.28	3053.52
279.49	3444.68
279.71	3344.33
279.93	3028.95
280.14	3026.90
280.36	3149.78
280.57	3495.88
280.79	3065.81
281.00	2922.45
281.22	3078.10
281.43	3506.12
281.65	2820.05
281.86	2899.92
282.08	3407.82
282.29	3651.53
282.51	2848.72
282.73	2871.25
282.94	2973.65
283.16	3389.39
283.37	3061.71
283.59	3018.71
283.80	3373.00
284.02	3278.80
284.23	3047.38
284.45	3045.33
284.66	3096.53
284.88	3033.04
285.09	2940.88
285.31	3043.28
285.52	3307.47
285.74	3043.28
285.95	3166.16
286.17	3047.38
286.38	3448.78
286.60	3151.82
286.81	2942.93
287.03	2928.60
287.24	3256.27
287.46	3409.87
287.67	3047.38
287.89	3231.69
288.10	3268.56
288.32	3278.80
288.53	3123.15
288.75	3022.80
288.96	3446.73
289.18	3272.65
289.39	2914.26
289.61	3047.38
289.82	3698.63
290.04	3657.67
290.25	2944.98
290.47	3098.58
290.68	3229.65
290.90	3467.21
291.11	2756.57
291.33	3133.39
291.54	3117.01
291.76	3098.58
291.97	3149.78
292.18	3055.57
292.40	3196.88
292.61	3127.25
292.83	3270.61
293.04	3018.71
293.26	3317.71
293.47	3268.56
293.69	2961.36
293.90	2914.26
294.12	3569.61
294.33	3252.17
294.55	3022.80
294.76	3205.07
294.97	3641.29
295.19	3583.95
295.40	3022.80
295.62	3057.62
295.83	3481.55
296.05	3131.34
296.26	3127.25
296.48	3000.27
296.69	3282.89
296.90	3213.26
297.12	3071.95
297.33	3188.69
297.55	3307.47
297.76	3393.48
297.98	3110.86
298.19	3121.10
298.41	3203.02
298.62	3096.53
298.83	3160.02
299.05	3098.58
299.26	3270.61
299.48	3078.10
299.69	3102.67
299.90	3004.37
300.12	3139.54
300.33	3409.87
300.55	3037.14
300.76	3100.62
300.98	3112.91
301.19	3465.16
301.40	3004.37
301.62	2967.51
301.83	3362.76
302.05	3295.18
302.26	2963.41
302.47	3018.71
302.69	3123.15
302.90	3286.99
303.12	2758.61
303.33	3094.48
303.54	3708.87
303.76	3106.77
303.97	2985.94
304.19	3237.84
304.40	3053.52
304.61	3403.72
304.83	3114.96
305.04	3067.86
305.26	3454.92
305.47	3237.84
305.68	2961.36
305.90	2875.35
306.11	3512.27
306.33	3258.32
306.54	2803.67
306.75	3028.95
306.97	2949.08
307.18	3155.92
307.39	2987.99
307.61	3063.76
307.82	3270.61
308.04	3373.00
308.25	2899.92
308.46	3184.59
308.68	3278.80
308.89	3243.98
309.10	3153.87
309.32	3084.24
309.53	3237.84
309.74	3422.16
309.96	2942.93
310.17	3098.58
310.39	3139.54
310.60	3424.20
310.81	3078.10
311.03	2838.48
311.24	3430.35
311.45	3272.65
311.67	3229.65
311.88	3110.86
312.09	3145.68
312.31	3114.96
312.52	2893.78
312.73	2967.51
312.95	2977.75
313.16	3010.51
313.37	3178.45
313.59	3168.21
313.80	3559.37
314.01	3651.53
314.23	2959.31
314.44	2944.98
314.65	3065.81
314.87	3094.48
315.08	3047.38
315.29	3026.90
315.51	3119.06
315.72	3002.32
315.93	3020.75
316.15	3000.27
316.36	3184.59
316.57	3338.19
316.79	2979.79
317.00	2910.16
317.21	3332.05
317.43	3166.16
317.64	2969.55
317.85	2926.55
318.07	3123.15
318.28	3147.73
318.49	3078.10
318.70	3264.46
318.92	3338.19
319.13	3375.05
319.34	3121.10
319.56	2990.03
319.77	3362.76
319.98	3409.87
320.20	3260.37
320.41	3205.07
320.62	3432.40
320.83	3069.91
321.05	3205.07
321.26	3006.42
321.47	3340.24
321.69	3577.80
321.90	2951.12
322.11	2953.17
322.32	3280.85
322.54	3622.86
322.75	3065.81
322.96	3928.00
323.18	2975.70
323.39	2899.92
323.60	2867.16
323.81	3092.43
324.03	3082.19
324.24	3248.08
324.45	3067.86
324.66	2926.55
324.88	3487.69
325.09	3567.56
325.30	2947.03
325.52	2951.12
325.73	3373.00
325.94	3123.15
326.15	2811.86
326.37	2826.20
326.58	3389.39
326.79	3579.85
327.00	2944.98
327.22	2930.64
327.43	3172.30
327.64	3078.10
327.85	3192.78
328.07	3004.37
328.28	3657.67
328.49	3198.93
328.70	3033.04
328.92	2973.65
329.13	3196.88
329.34	3430.35
329.55	3184.59
329.76	3219.41
329.98	3151.82
330.19	3475.40
330.40	3067.86
330.61	3151.82
330.83	3319.76
331.04	3104.72
331.25	3086.29
331.46	3123.15
331.68	3041.23
331.89	3504.07
332.10	3006.42
332.31	2930.64
332.52	3266.51
332.74	3497.93
332.95	2807.77
333.16	3000.27
333.37	3465.16
333.58	3160.02
333.80	3057.62
334.01	2869.20
334.22	3291.09
334.43	3164.11
334.64	2942.93
334.86	2953.17
335.07	3141.58
335.28	3622.86
335.49	2912.21
335.70	3082.19
335.92	3545.03
336.13	3721.16
336.34	2971.60
336.55	2992.08
336.76	3442.64
336.98	2861.01
337.19	3016.66
337.40	3123.15
337.61	3885.00
337.82	3203.02
338.04	3188.69
338.25	2815.96
338.46	3205.07
338.67	3215.31
338.88	2910.16
339.09	2897.88
339.31	3143.63
339.52	3039.19
339.73	2916.31
339.94	3024.85
340.15	3366.86
340.36	3174.35
340.58	3094.48
340.79	2936.79
341.00	3387.34
341.21	3014.61
341.42	3258.32
341.63	2998.23
341.85	3456.97
342.06	3342.28
342.27	2983.89
342.48	3170.26
342.69	3047.38
342.90	3352.52
343.12	3405.77
343.33	2885.59
343.54	3506.12
343.75	3588.04
343.96	3137.49
344.17	2942.93
344.38	3180.50
344.60	3121.10
344.81	2887.64
345.02	3051.47
345.23	3471.31
345.44	3758.02
345.65	3071.95
345.86	3139.54
346.07	3358.67
346.29	3198.93
346.50	3203.02
346.71	3039.19
346.92	3520.46
347.13	3698.63
347.34	2985.94
347.55	2926.55
347.76	3428.30
347.98	2940.88
348.19	2951.12
348.40	3200.98
348.61	3143.63
348.82	3598.28
349.03	3123.15
349.24	2938.84
349.45	3798.98
349.66	2975.70
349.88	2906.07
350.09	2949.08
350.30	3459.02
350.51	3504.07
350.72	3176.40
350.93	3010.51
351.14	3207.12
351.35	3379.15
351.56	3037.14
351.77	3049.43
351.99	3364.81
352.20	3649.48
352.41	3157.97
352.62	2854.87
352.83	3424.20
353.04	3317.71
353.25	2983.89
353.46	2985.94
353.67	3493.83
353.88	2955.22
354.09	2920.40
354.30	3084.24
354.52	3409.87
354.73	3225.55
354.94	2942.93
355.15	3018.71
355.36	3737.54
355.57	3200.98
355.78	2895.83
355.99	2906.07
356.20	3303.37
356.41	3555.27
356.62	3037.14
356.83	3012.56
357.04	3506.12
357.25	2885.59
357.46	2953.17
357.68	2899.92
357.89	3047.38
358.10	3205.07
358.31	2985.94
358.52	3033.04
358.73	2983.89
358.94	3069.91
359.15	3006.42
359.36	3094.48
359.57	3291.09
359.78	3262.41
359.99	3162.06
360.20	2916.31
360.41	3231.69
360.62	3413.96
360.83	3102.67
361.04	3078.10
361.25	3356.62
361.46	3590.09
361.67	3129.30
361.88	3041.23
362.09	3432.40
362.30	3260.37
362.51	2992.08
362.72	3061.71
362.93	3368.91
363.14	3356.62
363.35	3053.52
363.56	2983.89
363.78	3512.27
363.99	3528.65
364.20	2932.69
364.41	3053.52
364.62	3641.29
364.83	3373.00
365.04	2975.70
365.25	2977.75
365.46	3741.64
365.67	3182.54
365.88	3200.98
366.09	2963.41
366.30	3200.98
366.51	3297.23
366.72	2951.12
366.93	3004.37
367.14	3299.28
367.35	3590.09
367.56	2893.78
367.77	3137.49
367.98	3323.85
368.18	3334.09
368.39	3192.78
368.60	2947.03
368.81	3440.59
369.02	3350.48
369.23	3026.90
369.44	2840.53
369.65	3217.36
369.86	3311.57
370.07	3131.34
370.28	2936.79
370.49	3366.86
370.70	3317.71
370.91	2912.21
371.12	2887.64
371.33	3461.07
371.54	3141.58
371.75	3123.15
371.96	2750.42
372.17	3262.41
372.38	3211.22
372.59	3022.80
372.80	2895.83
373.01	3164.11
373.22	3340.24
373.43	2920.40
373.64	2959.31
373.85	3493.83
374.06	3616.71
374.26	3229.65
374.47	3119.06
374.68	3508.17
374.89	3364.81
375.10	2994.13
375.31	3092.43
375.52	3307.47
375.73	3325.90
375.94	2820.05
376.15	3119.06
376.36	3188.69
376.57	3243.98
376.78	3014.61
376.99	2996.18
377.20	3590.09
377.40	3268.56
377.61	3356.62
377.82	2947.03
378.03	3596.23
378.24	3395.53
378.45	3108.82
378.66	3147.73
378.87	2901.97
379.08	2990.03
379.29	2994.13
379.50	3127.25
379.71	3258.32
379.91	3383.24
380.12	3024.85
380.33	3035.09
380.54	3336.14
380.75	3293.13
380.96	3000.27
381.17	3076.05
381.38	3176.40
381.59	3344.33
381.80	3041.23
382.00	3205.07
382.21	3352.52
382.42	3635.14
382.63	3403.72
382.84	3186.64
383.05	3477.45
383.26	3577.80
383.47	3190.74
383.68	2922.45
383.88	3362.76
384.09	3293.13
384.30	3162.06
384.51	3135.44
384.72	3155.92
384.93	2996.18
385.14	3123.15
385.35	3258.32
385.55	3008.47
385.76	3463.12
385.97	3035.09
386.18	2912.21
386.39	3186.64
386.60	3184.59
386.81	2983.89
387.02	2877.40
387.22	3051.47
387.43	3438.54
387.64	3143.63
387.85	3307.47
388.06	3405.77
388.27	4431.80
388.48	7819.14
388.68	12193.61
388.89	14991.13
389.10	16520.96
389.31	16287.50
389.52	12957.50
389.73	11155.29
389.93	10510.18
390.14	9183.09
390.35	8583.04
390.56	8054.66
390.77	6543.26
390.98	4939.70
391.18	4153.28
391.39	3971.01
391.60	3323.85
391.81	3248.08
392.02	3078.10
392.23	3794.89
392.43	3278.80
392.64	3127.25
392.85	3106.77
393.06	3620.81
393.27	3313.61
393.47	2979.79
393.68	3055.57
393.89	3227.60
394.10	3469.26
394.31	2985.94
394.52	2981.84
394.72	3092.43
394.93	3608.52
395.14	2877.40
395.35	3200.98
395.56	3176.40
395.76	3237.84
395.97	3012.56
396.18	3194.83
396.39	3377.10
396.60	3930.05
396.80	3424.20
397.01	3315.66
397.22	3442.64
397.43	3499.98
397.64	3098.58
397.84	3209.17
398.05	3704.78
398.26	3301.33
398.47	3184.59
398.67	3274.70
398.88	3241.93
399.09	3426.25
399.30	3000.27
399.51	3108.82
399.71	3141.58
399.92	3239.89
400.13	3133.39
400.34	3080.14
400.54	3311.57
400.75	3604.42
400.96	3241.93
401.17	3370.96
401.37	3383.24
401.58	3286.99
401.79	3008.47
402.00	3178.45
402.21	3821.51
402.41	3438.54
402.62	3389.39
402.83	3475.40
403.04	3704.78
403.24	4112.32
403.45	3227.60
403.66	3377.10
403.87	3542.99
404.07	3706.82
404.28	3276.75
404.49	3407.82
404.70	3344.33
404.90	3518.41
405.11	3033.04
405.32	3139.54
405.52	3211.22
405.73	3168.21
405.94	3067.86
406.15	3082.19
406.35	3323.85
406.56	3403.72
406.77	3045.33
406.98	3049.43
407.18	3129.30
407.39	3614.66
407.60	3061.71
407.80	3127.25
408.01	3145.68
408.22	3481.55
408.43	2959.31
408.63	3196.88
408.84	3403.72
409.05	3407.82
409.25	2994.13
409.46	3016.66
409.67	3129.30
409.88	3190.74
410.08	3061.71
410.29	3035.09
410.50	3475.40
410.70	3387.34
410.91	3014.61
411.12	3082.19
411.32	3266.51
411.53	3010.51
411.74	3112.91
411.95	3117.01
412.15	3311.57
412.36	3504.07
412.57	3293.13
412.77	3274.70
412.98	3239.89
413.19	3190.74
413.39	3133.39
413.60	3069.91
413.81	3585.99
414.01	3033.04
414.22	3039.19
414.43	3272.65
414.63	3295.18
414.84	3440.59
415.05	3131.34
415.25	2934.74
415.46	3508.17
415.67	3221.45
415.87	3108.82
416.08	2987.99
416.29	3147.73
416.49	3362.76
416.70	3131.34
416.91	3002.32
417.11	3225.55
417.32	3506.12
417.53	3225.55
417.73	3057.62
417.94	3188.69
418.15	3346.38
418.35	3100.62
418.56	3100.62
418.77	3717.06
418.97	3309.52
419.18	3227.60
419.38	2779.09
419.59	3184.59
419.80	3545.03
420.00	2967.51
420.21	3078.10
420.42	3467.21
420.62	3450.83
420.83	3012.56
421.04	3008.47
421.24	3307.47
421.45	3444.68
421.65	3041.23
421.86	3053.52
422.07	3364.81
422.27	3321.81
422.48	2961.36
422.69	2893.78
422.89	3282.89
423.10	3209.17
423.30	3022.80
423.51	3055.57
423.72	3362.76
423.92	3434.44
424.13	2965.46
424.33	3139.54
424.54	3438.54
424.75	3284.94
424.95	3325.90
425.16	2973.65
425.36	3246.03
425.57	3405.77
425.78	3184.59
425.98	3151.82
426.19	3241.93
426.39	3039.19
426.60	3139.54
426.81	3219.41
427.01	3379.15
427.22	3098.58
427.42	2879.44
427.63	2994.13
427.83	3522.51
428.04	3721.16
428.25	3188.69
428.45	3137.49
428.66	3569.61
428.86	3274.70
429.07	3045.33
429.28	3106.77
429.48	3264.46
429.69	3086.29
429.89	3172.30
430.10	3059.67
430.30	3340.24
430.51	3475.40
430.71	3024.85
430.92	3170.26
431.13	3225.55
431.33	3395.53
431.54	3139.54
431.74	3221.45
431.95	3727.30
432.15	3121.10
432.36	3143.63
432.56	3102.67
432.77	3764.17
432.98	3704.78
433.18	3119.06
433.39	2994.13
433.59	3340.24
433.80	3696.58
434.00	3213.26
434.21	3135.44
434.41	3104.72
434.62	3737.54
434.82	2951.12
435.03	3012.56
435.23	3325.90
435.44	3014.61
435.64	3024.85
435.85	3094.48
436.06	3416.01
436.26	3555.27
436.47	3071.95
436.67	2981.84
436.88	3225.55
437.08	3506.12
437.29	3170.26
437.49	3215.31
437.70	3477.45
437.90	3205.07
438.11	3276.75
438.31	3180.50
438.52	3510.22
438.72	3471.31
438.93	3452.88
439.13	3108.82
439.34	3491.79
439.54	3200.98
439.75	3221.45
439.95	3213.26
440.16	3090.38
440.36	3221.45
440.57	3133.39
440.77	3076.05
440.98	3270.61
441.18	3383.24
441.39	3074.00
441.59	2963.41
441.80	3778.50
442.00	3286.99
442.21	3143.63
442.41	2938.84
442.62	3436.49
442.82	3123.15
443.02	3057.62
443.23	3188.69
443.43	3186.64
443.64	3583.95
443.84	2938.84
444.05	3172.30
444.25	3225.55
444.46	3157.97
444.66	3008.47
444.87	3258.32
445.07	3008.47
445.28	3178.45
445.48	3213.26
445.69	3137.49
445.89	3762.12
446.09	3139.54
446.30	3373.00
446.50	3545.03
446.71	5152.69
446.91	6303.65
447.12	7266.19
447.32	7612.30
447.53	7640.97
447.73	6295.46
447.93	5478.32
448.14	5314.48
448.34	5453.74
448.55	4556.73
448.75	4390.84
448.96	4229.06
449.16	4024.26
449.36	3936.20
449.57	3370.96
449.77	3157.97
449.98	3231.69
450.18	3430.35
450.39	2977.75
450.59	3164.11
450.79	3344.33
451.00	3190.74
451.20	3180.50
451.41	3026.90
451.61	3420.11
451.81	3286.99
452.02	2971.60
452.22	3067.86
452.43	3223.50
