SpectraSuite Data File
++++++++++++++++++++++++++++++++++++
Date: Fri May 06 08:14:23 CEST 2016
User: root
Dark Spectrum Present: No
Reference Spectrum Present: No
Number of Sampled Component Spectra: 1
Spectrometers: USB4C02835
Integration Time (usec): 100000 (USB4C02835)
Spectra Averaged: 1 (USB4C02835)
Boxcar Smoothing: 0 (USB4C02835)
Correct for Electrical Dark: No (USB4C02835)
Strobe/Lamp Enabled: No (USB4C02835)
Correct for Detector Non-linearity: No (USB4C02835)
Correct for Stray Light: No (USB4C02835)
Number of Pixels in Processed Spectrum: 3648
>>>>>Begin Processed Spectral Data<<<<<
177.47	2244.57
177.69	2244.57
177.91	2244.57
178.13	2312.16
178.36	2250.72
178.58	2998.23
178.80	3065.81
179.02	3020.75
179.24	3102.67
179.46	2742.23
179.68	2928.60
179.90	3157.97
180.13	3344.33
180.35	2680.79
180.57	2775.00
180.79	3401.68
181.01	3178.45
181.23	2844.63
181.45	2971.60
181.67	3487.69
181.90	3461.07
182.12	2936.79
182.34	2658.26
182.56	3393.48
182.78	3440.59
183.00	2840.53
183.22	2834.39
183.44	2932.69
183.66	3788.74
183.89	2979.79
184.11	2938.84
184.33	3381.20
184.55	3469.26
184.77	2842.58
184.99	2893.78
185.21	3125.20
185.43	3782.60
185.65	2865.11
185.87	2811.86
186.10	3827.65
186.32	3846.09
186.54	2975.70
186.76	2963.41
186.98	3483.59
187.20	3278.80
187.42	2930.64
187.64	2807.77
187.86	3389.39
188.08	3592.14
188.30	2750.42
188.52	2926.55
188.75	3624.90
188.97	3565.51
189.19	2848.72
189.41	2818.00
189.63	3391.44
189.85	3221.45
190.07	2783.19
190.29	2766.81
190.51	3432.40
190.73	3039.19
190.95	3067.86
191.17	2887.64
191.39	2979.79
191.61	3227.60
191.84	2863.06
192.06	2994.13
192.28	2938.84
192.50	3954.63
192.72	3108.82
192.94	2901.97
193.16	3426.25
193.38	3418.06
193.60	2713.56
193.82	2994.13
194.04	3471.31
194.26	3319.76
194.48	2916.31
194.70	2854.87
194.92	3250.13
195.14	3416.01
195.36	2879.44
195.58	2967.51
195.80	3276.75
196.02	3200.98
196.24	2904.02
196.46	2990.03
196.69	3186.64
196.91	3839.94
197.13	2856.92
197.35	2854.87
197.57	3639.24
197.79	3338.19
198.01	2891.73
198.23	2873.30
198.45	3409.87
198.67	3016.66
198.89	2684.89
199.11	2906.07
199.33	3119.06
199.55	2869.20
199.77	2877.40
199.99	3012.56
200.21	3174.35
200.43	3362.76
200.65	2822.10
200.87	2654.17
201.09	3323.85
201.31	3141.58
201.53	2885.59
201.75	2979.79
201.97	3340.24
202.19	3317.71
202.41	2908.12
202.63	2940.88
202.85	3545.03
203.07	3223.50
203.29	2973.65
203.51	2836.44
203.73	3182.54
203.95	3827.65
204.17	2871.25
204.39	3030.99
204.61	3235.79
204.83	3225.55
205.05	3014.61
205.27	2916.31
205.49	3760.07
205.71	3203.02
205.93	2705.37
206.15	2746.33
206.37	3303.37
206.59	3250.13
206.81	2719.70
207.03	2787.29
207.25	3078.10
207.47	3450.83
207.69	2836.44
207.91	3041.23
208.13	3594.19
208.34	3133.39
208.56	2865.11
208.78	2963.41
209.00	3184.59
209.22	3229.65
209.44	2975.70
209.66	2738.13
209.88	3256.27
210.10	3246.03
210.32	2824.15
210.54	2944.98
210.76	3117.01
210.98	3434.44
211.20	2766.81
211.42	3008.47
211.64	3555.27
211.86	3305.42
212.08	2961.36
212.30	2883.54
212.52	3166.16
212.74	3350.48
212.96	2994.13
213.17	2973.65
213.39	3426.25
213.61	3598.28
213.83	2861.01
214.05	2752.47
214.27	3526.60
214.49	3176.40
214.71	2764.76
214.93	2983.89
215.15	3192.78
215.37	3448.78
215.59	2691.03
215.81	2938.84
216.03	3528.65
216.24	3217.36
216.46	2863.06
216.68	2875.35
216.90	3413.96
217.12	3467.21
217.34	2834.39
217.56	3012.56
217.78	3577.80
218.00	3403.72
218.22	3000.27
218.44	2985.94
218.66	3315.66
218.87	3631.05
219.09	2861.01
219.31	2910.16
219.53	3348.43
219.75	3168.21
219.97	2820.05
220.19	2852.82
220.41	3278.80
220.63	3573.71
220.85	2867.16
221.06	2895.83
221.28	3561.42
221.50	3420.11
221.72	2838.48
221.94	2746.33
222.16	3352.52
222.38	3409.87
222.60	2887.64
222.82	2912.21
223.03	3528.65
223.25	3155.92
223.47	2815.96
223.69	3051.47
223.91	3360.72
224.13	3317.71
224.35	2775.00
224.57	3067.86
224.78	3477.45
225.00	3098.58
225.22	2947.03
225.44	2846.68
225.66	3434.44
225.88	3291.09
226.10	3096.53
226.32	2852.82
226.53	3577.80
226.75	3135.44
226.97	2977.75
227.19	2820.05
227.41	3131.34
227.63	3213.26
227.85	2695.13
228.06	2918.36
228.28	3330.00
228.50	3416.01
228.72	2705.37
228.94	2797.53
229.16	2885.59
229.37	3037.14
229.59	2779.09
229.81	3123.15
230.03	3209.17
230.25	2959.31
230.47	2791.38
230.69	2830.29
230.90	3393.48
231.12	3135.44
231.34	2965.46
231.56	2920.40
231.78	3125.20
232.00	3248.08
232.21	2981.84
232.43	2944.98
232.65	2791.38
232.87	3291.09
233.09	2766.81
233.30	2852.82
233.52	3420.11
233.74	3305.42
233.96	2764.76
234.18	3100.62
234.40	3213.26
234.61	3815.37
234.83	2742.23
235.05	2811.86
235.27	3868.61
235.49	3547.08
235.70	2811.86
235.92	2885.59
236.14	3405.77
236.36	3803.08
236.58	2758.61
236.79	2899.92
237.01	3303.37
237.23	3307.47
237.45	3102.67
237.67	2992.08
237.88	3350.48
238.10	3727.30
238.32	2697.17
238.54	2893.78
238.76	3200.98
238.97	3117.01
239.19	2744.28
239.41	2947.03
239.63	3581.90
239.85	3225.55
240.06	2893.78
240.28	2873.30
240.50	3438.54
240.72	3293.13
240.93	2750.42
241.15	3024.85
241.37	3330.00
241.59	3596.23
241.81	2938.84
242.02	2967.51
242.24	3368.91
242.46	3502.03
242.68	2709.46
242.89	2811.86
243.11	3461.07
243.33	3178.45
243.55	2877.40
243.76	2815.96
243.98	3090.38
244.20	3231.69
244.42	2863.06
244.64	2838.48
244.85	3008.47
245.07	3053.52
245.29	2869.20
245.51	2912.21
245.72	3323.85
245.94	3428.30
246.16	2873.30
246.38	2938.84
246.59	3090.38
246.81	3076.05
247.03	2787.29
247.24	2699.22
247.46	3207.12
247.68	3368.91
247.90	2873.30
248.11	2887.64
248.33	3379.15
248.55	3266.51
248.77	2901.97
248.98	2957.27
249.20	3665.86
249.42	3272.65
249.64	2877.40
249.85	2820.05
250.07	3254.22
250.29	3436.49
250.50	2985.94
250.72	2781.14
250.94	3334.09
251.16	3796.93
251.37	2777.05
251.59	2965.46
251.81	3377.10
252.02	3592.14
252.24	2775.00
252.46	2942.93
252.68	3106.77
252.89	3137.49
253.11	2727.89
253.33	2971.60
253.54	3510.22
253.76	3059.67
253.98	2832.34
254.20	2895.83
254.41	3002.32
254.63	3211.22
254.85	2756.57
255.06	2918.36
255.28	3360.72
255.50	3225.55
255.71	2822.10
255.93	2660.31
256.15	3207.12
256.36	3348.43
256.58	2760.66
256.80	2807.77
257.02	3174.35
257.23	3182.54
257.45	2916.31
257.67	3024.85
257.88	3133.39
258.10	3352.52
258.32	2901.97
258.53	2955.22
258.75	3602.38
258.97	3198.93
259.18	2803.67
259.40	2813.91
259.62	3657.67
259.83	3542.99
260.05	2813.91
260.27	3766.21
260.48	3450.83
260.70	3104.72
260.92	2768.85
261.13	2869.20
261.35	3395.53
261.57	3311.57
261.78	2750.42
262.00	2795.48
262.22	3526.60
262.43	3090.38
262.65	2850.77
262.86	2934.74
263.08	3700.68
263.30	3293.13
263.51	2709.46
263.73	2844.63
263.95	3565.51
264.16	3096.53
264.38	2742.23
264.60	2830.29
264.81	3221.45
265.03	3459.02
265.25	3280.85
265.46	2836.44
265.68	3561.42
265.89	3397.58
266.11	2738.13
266.33	2854.87
266.54	3565.51
266.76	3323.85
266.98	2957.27
267.19	2967.51
267.41	3485.64
267.62	3239.89
267.84	2672.60
268.06	2973.65
268.27	3252.17
268.49	3477.45
268.70	2885.59
268.92	2842.58
269.14	3045.33
269.35	2922.45
269.57	2985.94
269.79	2842.58
270.00	3117.01
270.22	3600.33
270.43	2748.37
270.65	2676.70
270.87	3323.85
271.08	3495.88
271.30	2957.27
271.51	2887.64
271.73	3385.29
271.95	3516.36
272.16	2815.96
272.38	2977.75
272.59	3241.93
272.81	3467.21
273.02	2815.96
273.24	2889.68
273.46	3530.70
273.67	3139.54
273.89	2707.41
274.10	2807.77
274.32	3526.60
274.54	3282.89
274.75	2906.07
274.97	2992.08
275.18	3401.68
275.40	3368.91
275.61	2920.40
275.83	2994.13
276.05	3098.58
276.26	3334.09
276.48	3067.86
276.69	2959.31
276.91	3250.13
277.12	3532.75
277.34	3047.38
277.55	3094.48
277.77	3334.09
277.99	3270.61
278.20	2998.23
278.42	2889.68
278.63	3129.30
278.85	3102.67
279.06	2969.55
279.28	3057.62
279.49	3557.32
279.71	3463.12
279.93	3002.32
280.14	3065.81
280.36	3080.14
280.57	3497.93
280.79	3131.34
281.00	2856.92
281.22	3237.84
281.43	3489.74
281.65	2766.81
281.86	2875.35
282.08	3370.96
282.29	3676.10
282.51	2953.17
282.73	2897.88
282.94	2938.84
283.16	3479.50
283.37	3139.54
283.59	3074.00
283.80	3428.30
284.02	3280.85
284.23	3053.52
284.45	2961.36
284.66	3114.96
284.88	3250.13
285.09	2914.26
285.31	3123.15
285.52	3323.85
285.74	2944.98
285.95	3131.34
286.17	3098.58
286.38	3549.13
286.60	3131.34
286.81	2912.21
287.03	2940.88
287.24	3186.64
287.46	3381.20
287.67	3100.62
287.89	3258.32
288.10	3266.51
288.32	3336.14
288.53	3090.38
288.75	3045.33
288.96	3432.40
289.18	3153.87
289.39	2936.79
289.61	2967.51
289.82	3626.95
290.04	3733.45
290.25	2813.91
290.47	3037.14
290.68	3205.07
290.90	3473.36
291.11	2803.67
291.33	3176.40
291.54	3110.86
291.76	3164.11
291.97	3065.81
292.18	3119.06
292.40	3198.93
292.61	3106.77
292.83	3278.80
293.04	3016.66
293.26	3395.53
293.47	3264.46
293.69	3000.27
293.90	2938.84
294.12	3547.08
294.33	3280.85
294.55	3051.47
294.76	3135.44
294.97	3557.32
295.19	3731.40
295.40	3020.75
295.62	3080.14
295.83	3504.07
296.05	3100.62
296.26	3286.99
296.48	2959.31
296.69	3319.76
296.90	3295.18
297.12	3170.26
297.33	3141.58
297.55	3291.09
297.76	3401.68
297.98	3164.11
298.19	3157.97
298.41	3284.94
298.62	3033.04
298.83	3198.93
299.05	3098.58
299.26	3182.54
299.48	3133.39
299.69	3123.15
299.90	3010.51
300.12	3053.52
300.33	3422.16
300.55	3049.43
300.76	3078.10
300.98	3117.01
301.19	3413.96
301.40	2942.93
301.62	2994.13
301.83	3381.20
302.05	3346.38
302.26	3020.75
302.47	3102.67
302.69	3180.50
302.90	3268.56
303.12	2852.82
303.33	3149.78
303.54	3688.39
303.76	3176.40
303.97	2955.22
304.19	3178.45
304.40	3078.10
304.61	3348.43
304.83	3131.34
305.04	3035.09
305.26	3454.92
305.47	3160.02
305.68	2959.31
305.90	2879.44
306.11	3514.31
306.33	3227.60
306.54	2822.10
306.75	2893.78
306.97	3010.51
307.18	3139.54
307.39	2979.79
307.61	3018.71
307.82	3239.89
308.04	3338.19
308.25	2840.53
308.46	3147.73
308.68	3250.13
308.89	3172.30
309.10	3127.25
309.32	3033.04
309.53	3295.18
309.74	3364.81
309.96	2934.74
310.17	3164.11
310.39	3248.08
310.60	3370.96
310.81	3078.10
311.03	2926.55
311.24	3413.96
311.45	3286.99
311.67	3217.36
311.88	3078.10
312.09	3217.36
312.31	3215.31
312.52	2895.83
312.73	2985.94
312.95	3069.91
313.16	3108.82
313.37	3123.15
313.59	3168.21
313.80	3405.77
314.01	3571.66
314.23	3039.19
314.44	2967.51
314.65	3082.19
314.87	3157.97
315.08	3000.27
315.29	3037.14
315.51	3057.62
315.72	3037.14
315.93	3069.91
316.15	2990.03
316.36	3137.49
316.57	3248.08
316.79	2987.99
317.00	2944.98
317.21	3405.77
317.43	3137.49
317.64	3071.95
317.85	2901.97
318.07	3145.68
318.28	3114.96
318.49	3129.30
318.70	3246.03
318.92	3246.03
319.13	3430.35
319.34	3162.06
319.56	2981.84
319.77	3397.58
319.98	3463.12
320.20	3229.65
320.41	3229.65
320.62	3360.72
320.83	3092.43
321.05	3266.51
321.26	3024.85
321.47	3330.00
321.69	3499.98
321.90	2947.03
322.11	2992.08
322.32	3338.19
322.54	3641.29
322.75	3016.66
322.96	4036.55
323.18	3035.09
323.39	2944.98
323.60	2963.41
323.81	3127.25
324.03	3119.06
324.24	3340.24
324.45	3112.91
324.66	2926.55
324.88	3418.06
325.09	3598.28
325.30	3041.23
325.52	2867.16
325.73	3309.52
325.94	3098.58
326.15	2901.97
326.37	2904.02
326.58	3461.07
326.79	3559.37
327.00	2938.84
327.22	2977.75
327.43	3135.44
327.64	3080.14
327.85	3131.34
328.07	3004.37
328.28	3622.86
328.49	3241.93
328.70	2957.27
328.92	2977.75
329.13	3196.88
329.34	3379.15
329.55	3256.27
329.76	3123.15
329.98	3209.17
330.19	3469.26
330.40	3047.38
330.61	3215.31
330.83	3491.79
331.04	3082.19
331.25	3121.10
331.46	3104.72
331.68	3041.23
331.89	3422.16
332.10	2979.79
332.31	2848.72
332.52	3270.61
332.74	3522.51
332.95	2754.52
333.16	2928.60
333.37	3340.24
333.58	3110.86
333.80	2963.41
334.01	2863.06
334.22	3209.17
334.43	3024.85
334.64	2873.30
334.86	2936.79
335.07	3055.57
335.28	3614.66
335.49	2938.84
335.70	3090.38
335.92	3631.05
336.13	3764.17
336.34	3043.28
336.55	3047.38
336.76	3327.95
336.98	2889.68
337.19	3065.81
337.40	3121.10
337.61	3880.90
337.82	3248.08
338.04	3108.82
338.25	2828.24
338.46	3223.50
338.67	3291.09
338.88	2863.06
339.09	2828.24
339.31	3133.39
339.52	2973.65
339.73	2916.31
339.94	3055.57
340.15	3422.16
340.36	3198.93
340.58	3065.81
340.79	2928.60
341.00	3442.64
341.21	3024.85
341.42	3239.89
341.63	3012.56
341.85	3461.07
342.06	3393.48
342.27	2942.93
342.48	3119.06
342.69	3008.47
342.90	3319.76
343.12	3424.20
343.33	2861.01
343.54	3471.31
343.75	3590.09
343.96	3160.02
344.17	2910.16
344.38	3225.55
344.60	3186.64
344.81	2955.22
345.02	2994.13
345.23	3526.60
345.44	3801.03
345.65	3000.27
345.86	3129.30
346.07	3250.13
346.29	3112.91
346.50	3139.54
346.71	3108.82
346.92	3590.09
347.13	3694.54
347.34	3121.10
347.55	2848.72
347.76	3370.96
347.98	2990.03
348.19	3002.32
348.40	3207.12
348.61	3231.69
348.82	3672.01
349.03	3057.62
349.24	2854.87
349.45	3702.73
349.66	2869.20
349.88	3016.66
350.09	2861.01
350.30	3583.95
350.51	3540.94
350.72	3190.74
350.93	2963.41
351.14	3129.30
351.35	3321.81
351.56	3074.00
351.77	3127.25
351.99	3373.00
352.20	3510.22
352.41	3117.01
352.62	2873.30
352.83	3282.89
353.04	3256.27
353.25	3000.27
353.46	2969.55
353.67	3512.27
353.88	2899.92
354.09	2914.26
354.30	3119.06
354.52	3405.77
354.73	3284.94
354.94	2955.22
355.15	3049.43
355.36	3729.35
355.57	3145.68
355.78	2926.55
355.99	3000.27
356.20	3157.97
356.41	3475.40
356.62	3090.38
356.83	3065.81
357.04	3454.92
357.25	2944.98
357.46	2940.88
357.68	2861.01
357.89	3129.30
358.10	3254.22
358.31	3010.51
358.52	2992.08
358.73	3092.43
358.94	3014.61
359.15	2969.55
359.36	2992.08
359.57	3303.37
359.78	3286.99
359.99	3180.50
360.20	2918.36
360.41	3268.56
360.62	3348.43
360.83	3137.49
361.04	3110.86
361.25	3368.91
361.46	3557.32
361.67	3155.92
361.88	3049.43
362.09	3389.39
362.30	3338.19
362.51	2938.84
362.72	3028.95
362.93	3481.55
363.14	3418.06
363.35	3053.52
363.56	2938.84
363.78	3522.51
363.99	3520.46
364.20	2963.41
364.41	3059.67
364.62	3581.90
364.83	3336.14
365.04	2908.12
365.25	3041.23
365.46	3704.78
365.67	3110.86
365.88	3112.91
366.09	2967.51
366.30	3213.26
366.51	3256.27
366.72	2963.41
366.93	2965.46
367.14	3373.00
367.35	3497.93
367.56	2981.84
367.77	3211.22
367.98	3346.38
368.18	3327.95
368.39	3117.01
368.60	2949.08
368.81	3473.36
369.02	3325.90
369.23	3065.81
369.44	2869.20
369.65	3176.40
369.86	3416.01
370.07	3114.96
370.28	2944.98
370.49	3354.57
370.70	3274.70
370.91	2928.60
371.12	2881.49
371.33	3557.32
371.54	3147.73
371.75	3162.06
371.96	2789.33
372.17	3330.00
372.38	3221.45
372.59	3071.95
372.80	2949.08
373.01	3276.75
373.22	3311.57
373.43	2987.99
373.64	2809.81
373.85	3510.22
374.06	3620.81
374.26	3184.59
374.47	3121.10
374.68	3622.86
374.89	3401.68
375.10	2987.99
375.31	3117.01
375.52	3227.60
375.73	3266.51
375.94	2830.29
376.15	3096.53
376.36	3168.21
376.57	3237.84
376.78	3047.38
376.99	3086.29
377.20	3626.95
377.40	3162.06
377.61	3321.81
377.82	2926.55
378.03	3565.51
378.24	3350.48
378.45	3121.10
378.66	3088.34
378.87	3033.04
379.08	3012.56
379.29	2987.99
379.50	3149.78
379.71	3219.41
379.91	3393.48
380.12	3053.52
380.33	3135.44
380.54	3217.36
380.75	3254.22
380.96	2959.31
381.17	3055.57
381.38	3205.07
381.59	3305.42
381.80	3035.09
382.00	3188.69
382.21	3344.33
382.42	3604.42
382.63	3426.25
382.84	3114.96
383.05	3428.30
383.26	3526.60
383.47	3119.06
383.68	3035.09
383.88	3446.73
384.09	3272.65
384.30	3258.32
384.51	3123.15
384.72	3147.73
384.93	3030.99
385.14	3063.76
385.35	3340.24
385.55	2973.65
385.76	3542.99
385.97	2963.41
386.18	2899.92
386.39	3114.96
386.60	3215.31
386.81	2983.89
387.02	2901.97
387.22	3035.09
387.43	3364.81
387.64	3090.38
387.85	3373.00
388.06	3282.89
388.27	4345.79
388.48	7755.66
388.68	11984.71
388.89	15189.78
389.10	16582.40
389.31	16051.98
389.52	12908.35
389.73	11247.44
389.93	10458.98
390.14	9129.84
390.35	8574.85
390.56	7925.64
390.77	6553.50
390.98	5109.68
391.18	4184.00
391.39	3930.05
391.60	3346.38
391.81	3315.66
392.02	3028.95
392.23	3782.60
392.43	3403.72
392.64	3086.29
392.85	3168.21
393.06	3594.19
393.27	3303.37
393.47	3028.95
393.68	3088.34
393.89	3264.46
394.10	3516.36
394.31	3030.99
394.52	2969.55
394.72	3153.87
394.93	3532.75
395.14	2840.53
395.35	3133.39
395.56	3147.73
395.76	3297.23
395.97	3059.67
396.18	3248.08
396.39	3250.13
396.60	3999.68
396.80	3487.69
397.01	3291.09
397.22	3502.03
397.43	3524.55
397.64	2992.08
397.84	3194.83
398.05	3602.38
398.26	3209.17
398.47	3143.63
398.67	3237.84
398.88	3219.41
399.09	3348.43
399.30	2998.23
399.51	3102.67
399.71	3041.23
399.92	3291.09
400.13	3133.39
400.34	3043.28
400.54	3360.72
400.75	3538.89
400.96	3174.35
401.17	3348.43
401.37	3428.30
401.58	3160.02
401.79	3000.27
402.00	3149.78
402.21	3766.21
402.41	3542.99
402.62	3375.05
402.83	3540.94
403.04	3659.72
403.24	4124.61
403.45	3160.02
403.66	3348.43
403.87	3524.55
404.07	3635.14
404.28	3282.89
404.49	3360.72
404.70	3387.34
404.90	3426.25
405.11	2979.79
405.32	3057.62
405.52	3170.26
405.73	3182.54
405.94	2926.55
406.15	3092.43
406.35	3387.34
406.56	3508.17
406.77	3086.29
406.98	3012.56
407.18	3131.34
407.39	3508.17
407.60	3067.86
407.80	3145.68
408.01	3164.11
408.22	3459.02
408.43	2990.03
408.63	3188.69
408.84	3360.72
409.05	3508.17
409.25	3047.38
409.46	3039.19
409.67	3241.93
409.88	3080.14
410.08	3080.14
410.29	2994.13
410.50	3438.54
410.70	3428.30
410.91	2906.07
411.12	3022.80
411.32	3254.22
411.53	3100.62
411.74	3006.42
411.95	3125.20
412.15	3305.42
412.36	3461.07
412.57	3274.70
412.77	3180.50
412.98	3289.04
413.19	3131.34
413.39	3168.21
413.60	3098.58
413.81	3620.81
414.01	3123.15
414.22	3078.10
414.43	3311.57
414.63	3276.75
414.84	3409.87
415.05	3102.67
415.25	2918.36
415.46	3463.12
415.67	3078.10
415.87	3149.78
416.08	3000.27
416.29	3213.26
416.49	3450.83
416.70	3045.33
416.91	3088.34
417.11	3123.15
417.32	3579.85
417.53	3198.93
417.73	3110.86
417.94	3166.16
418.15	3360.72
418.35	3096.53
418.56	3076.05
418.77	3762.12
418.97	3336.14
419.18	3166.16
419.38	2715.61
419.59	3274.70
419.80	3581.90
420.00	3012.56
420.21	2992.08
420.42	3559.37
420.62	3420.11
420.83	3096.53
421.04	3092.43
421.24	3205.07
421.45	3454.92
421.65	3069.91
421.86	3086.29
422.07	3483.59
422.27	3344.33
422.48	2951.12
422.69	2865.11
422.89	3211.22
423.10	3219.41
423.30	3061.71
423.51	3018.71
423.72	3373.00
423.92	3459.02
424.13	2944.98
424.33	3157.97
424.54	3428.30
424.75	3360.72
424.95	3254.22
425.16	2942.93
425.36	3200.98
425.57	3467.21
425.78	3172.30
425.98	3123.15
426.19	3225.55
426.39	3041.23
426.60	3098.58
426.81	3155.92
427.01	3389.39
427.22	3125.20
427.42	2885.59
427.63	2938.84
427.83	3471.31
428.04	3629.00
428.25	3104.72
428.45	3170.26
428.66	3499.98
428.86	3231.69
429.07	3110.86
429.28	3057.62
429.48	3274.70
429.69	3094.48
429.89	3166.16
430.10	2983.89
430.30	3364.81
430.51	3418.06
430.71	2992.08
430.92	3092.43
431.13	3172.30
431.33	3383.24
431.54	3131.34
431.74	3278.80
431.95	3782.60
432.15	3160.02
432.36	3090.38
432.56	3082.19
432.77	3688.39
432.98	3674.06
433.18	3069.91
433.39	3041.23
433.59	3266.51
433.80	3743.69
434.00	3241.93
434.21	3100.62
434.41	3121.10
434.62	3702.73
434.82	2910.16
435.03	2961.36
435.23	3401.68
435.44	2844.63
435.64	3020.75
435.85	3145.68
436.06	3499.98
436.26	3477.45
436.47	3059.67
436.67	2992.08
436.88	3221.45
437.08	3495.88
437.29	3182.54
437.49	3233.74
437.70	3581.90
437.90	3334.09
438.11	3219.41
438.31	3110.86
438.52	3518.41
438.72	3510.22
438.93	3393.48
439.13	3151.82
439.34	3444.68
439.54	3166.16
439.75	3221.45
439.95	3139.54
440.16	3102.67
440.36	3354.57
440.57	3098.58
440.77	3037.14
440.98	3276.75
441.18	3354.57
441.39	2914.26
441.59	2942.93
441.80	3663.82
442.00	3243.98
442.21	3180.50
442.41	2922.45
442.62	3512.27
442.82	3123.15
443.02	3014.61
443.23	3076.05
443.43	3190.74
443.64	3520.46
443.84	2971.60
444.05	3141.58
444.25	3383.24
444.46	3321.81
444.66	3074.00
444.87	3368.91
445.07	2983.89
445.28	3307.47
445.48	3209.17
445.69	3127.25
445.89	3755.97
446.09	3196.88
446.30	3426.25
446.50	3432.40
446.71	4960.18
446.91	6338.46
447.12	7221.14
447.32	7724.94
447.53	7645.07
447.73	6420.38
447.93	5506.99
448.14	5334.96
448.34	5312.43
448.55	4532.15
448.75	4595.64
448.96	4249.54
449.16	4143.04
449.36	3854.28
449.57	3243.98
449.77	3139.54
449.98	3151.82
450.18	3432.40
450.39	2992.08
450.59	3246.03
450.79	3231.69
451.00	3049.43
451.20	3319.76
451.41	3080.14
451.61	3352.52
451.81	3239.89
452.02	3051.47
452.22	3033.04
452.43	3094.48
