SpectraSuite Data File
++++++++++++++++++++++++++++++++++++
Date: Fri May 06 08:13:51 CEST 2016
User: root
Dark Spectrum Present: No
Reference Spectrum Present: No
Number of Sampled Component Spectra: 1
Spectrometers: USB4C02835
Integration Time (usec): 100000 (USB4C02835)
Spectra Averaged: 1 (USB4C02835)
Boxcar Smoothing: 0 (USB4C02835)
Correct for Electrical Dark: No (USB4C02835)
Strobe/Lamp Enabled: No (USB4C02835)
Correct for Detector Non-linearity: No (USB4C02835)
Correct for Stray Light: No (USB4C02835)
Number of Pixels in Processed Spectrum: 3648
>>>>>Begin Processed Spectral Data<<<<<
177.47	2289.63
177.69	2289.63
177.91	2289.63
178.13	2258.91
178.36	2279.39
178.58	3059.67
178.80	3043.28
179.02	3063.76
179.24	3008.47
179.46	2770.90
179.68	2832.34
179.90	3184.59
180.13	3338.19
180.35	2666.46
180.57	2822.10
180.79	3393.48
181.01	3209.17
181.23	2867.16
181.45	3022.80
181.67	3473.36
181.90	3487.69
182.12	2930.64
182.34	2668.50
182.56	3309.52
182.78	3301.33
183.00	2797.53
183.22	2848.72
183.44	2899.92
183.66	3880.90
183.89	3028.95
184.11	2926.55
184.33	3393.48
184.55	3524.55
184.77	2852.82
184.99	2787.29
185.21	3209.17
185.43	3798.98
185.65	2885.59
185.87	2795.48
186.10	3768.26
186.32	3780.55
186.54	3067.86
186.76	2963.41
186.98	3497.93
187.20	3200.98
187.42	2887.64
187.64	2893.78
187.86	3336.14
188.08	3499.98
188.30	2766.81
188.52	2901.97
188.75	3491.79
188.97	3489.74
189.19	2822.10
189.41	2861.01
189.63	3389.39
189.85	3192.78
190.07	2746.33
190.29	2645.98
190.51	3510.22
190.73	3004.37
190.95	3059.67
191.17	2883.54
191.39	2971.60
191.61	3198.93
191.84	2861.01
192.06	3012.56
192.28	2947.03
192.50	3956.68
192.72	3033.04
192.94	2979.79
193.16	3557.32
193.38	3299.28
193.60	2764.76
193.82	2947.03
194.04	3512.27
194.26	3338.19
194.48	2883.54
194.70	2885.59
194.92	3211.22
195.14	3442.64
195.36	2830.29
195.58	2981.84
195.80	3278.80
196.02	3231.69
196.24	2879.44
196.46	2920.40
196.69	3231.69
196.91	3721.16
197.13	2949.08
197.35	2926.55
197.57	3549.13
197.79	3379.15
198.01	2967.51
198.23	2838.48
198.45	3377.10
198.67	2992.08
198.89	2731.99
199.11	2967.51
199.33	3135.44
199.55	2803.67
199.77	2865.11
199.99	3000.27
200.21	3282.89
200.43	3426.25
200.65	2762.71
200.87	2717.65
201.09	3291.09
201.31	3246.03
201.53	2936.79
201.75	2996.18
201.97	3303.37
202.19	3246.03
202.41	2889.68
202.63	2969.55
202.85	3418.06
203.07	3379.15
203.29	2955.22
203.51	2791.38
203.73	3139.54
203.95	3899.33
204.17	2795.48
204.39	2914.26
204.61	3303.37
204.83	3190.74
205.05	2990.03
205.27	2854.87
205.49	3782.60
205.71	3305.42
205.93	2686.94
206.15	2783.19
206.37	3254.22
206.59	3293.13
206.81	2682.84
207.03	2723.80
207.25	3117.01
207.47	3344.33
207.69	2879.44
207.91	3074.00
208.13	3614.66
208.34	3131.34
208.56	2838.48
208.78	2926.55
209.00	3227.60
209.22	3207.12
209.44	2910.16
209.66	2844.63
209.88	3258.32
210.10	3219.41
210.32	2854.87
210.54	2983.89
210.76	3200.98
210.98	3444.68
211.20	2719.70
211.42	3000.27
211.64	3585.99
211.86	3446.73
212.08	2987.99
212.30	2901.97
212.52	3241.93
212.74	3442.64
212.96	2947.03
213.17	2969.55
213.39	3440.59
213.61	3635.14
213.83	2838.48
214.05	2711.51
214.27	3475.40
214.49	3074.00
214.71	2756.57
214.93	2961.36
215.15	3231.69
215.37	3489.74
215.59	2707.41
215.81	2893.78
216.03	3538.89
216.24	3243.98
216.46	2873.30
216.68	2891.73
216.90	3588.04
217.12	3434.44
217.34	2740.18
217.56	3020.75
217.78	3608.52
218.00	3405.77
218.22	2963.41
218.44	2975.70
218.66	3258.32
218.87	3647.43
219.09	2963.41
219.31	2820.05
219.53	3297.23
219.75	3184.59
219.97	2996.18
220.19	2897.88
220.41	3164.11
220.63	3600.33
220.85	2920.40
221.06	2879.44
221.28	3504.07
221.50	3456.97
221.72	2887.64
221.94	2822.10
222.16	3321.81
222.38	3514.31
222.60	2826.20
222.82	2846.68
223.03	3475.40
223.25	3018.71
223.47	2881.49
223.69	3151.82
223.91	3413.96
224.13	3262.41
224.35	2725.85
224.57	3037.14
224.78	3477.45
225.00	3086.29
225.22	2957.27
225.44	2764.76
225.66	3373.00
225.88	3186.64
226.10	3028.95
226.32	2850.77
226.53	3575.75
226.75	3205.07
226.97	3000.27
227.19	2824.15
227.41	3098.58
227.63	3186.64
227.85	2672.60
228.06	2926.55
228.28	3284.94
228.50	3538.89
228.72	2713.56
228.94	2910.16
229.16	2961.36
229.37	3026.90
229.59	2738.13
229.81	3139.54
230.03	3217.36
230.25	2981.84
230.47	2717.65
230.69	2811.86
230.90	3475.40
231.12	3190.74
231.34	2920.40
231.56	2947.03
231.78	2983.89
232.00	3319.76
232.21	2928.60
232.43	2885.59
232.65	2873.30
232.87	3444.68
233.09	2740.18
233.30	2879.44
233.52	3542.99
233.74	3338.19
233.96	2873.30
234.18	3006.42
234.40	3256.27
234.61	3790.79
234.83	2750.42
235.05	2836.44
235.27	3885.00
235.49	3557.32
235.70	2783.19
235.92	2863.06
236.14	3360.72
236.36	3893.19
236.58	2861.01
236.79	2987.99
237.01	3223.50
237.23	3246.03
237.45	3096.53
237.67	2807.77
237.88	3370.96
238.10	3659.72
238.32	2834.39
238.54	2830.29
238.76	3319.76
238.97	3106.77
239.19	2791.38
239.41	2901.97
239.63	3528.65
239.85	3166.16
240.06	2938.84
240.28	2883.54
240.50	3514.31
240.72	3315.66
240.93	2715.61
241.15	2895.83
241.37	3215.31
241.59	3473.36
241.81	2858.96
242.02	2953.17
242.24	3368.91
242.46	3463.12
242.68	2744.28
242.89	2768.85
243.11	3481.55
243.33	3223.50
243.55	2834.39
243.76	2836.44
243.98	3084.24
244.20	3258.32
244.42	2838.48
244.64	2803.67
244.85	3051.47
245.07	3037.14
245.29	2875.35
245.51	2930.64
245.72	3309.52
245.94	3497.93
246.16	2893.78
246.38	2918.36
246.59	3176.40
246.81	3147.73
247.03	2738.13
247.24	2660.31
247.46	3139.54
247.68	3307.47
247.90	2738.13
248.11	2895.83
248.33	3368.91
248.55	3295.18
248.77	2883.54
248.98	3000.27
249.20	3659.72
249.42	3258.32
249.64	2797.53
249.85	2856.92
250.07	3121.10
250.29	3461.07
250.50	2928.60
250.72	2852.82
250.94	3346.38
251.16	3854.28
251.37	2803.67
251.59	2910.16
251.81	3373.00
252.02	3559.37
252.24	2772.95
252.46	2959.31
252.68	3200.98
252.89	3174.35
253.11	2650.07
253.33	2965.46
253.54	3606.47
253.76	3074.00
253.98	2858.96
254.20	2899.92
254.41	3100.62
254.63	3272.65
254.85	2775.00
255.06	3000.27
255.28	3334.09
255.50	3221.45
255.71	2813.91
255.93	2705.37
256.15	3254.22
256.36	3364.81
256.58	2736.09
256.80	2793.43
257.02	3157.97
257.23	3252.17
257.45	2904.02
257.67	2977.75
257.88	3200.98
258.10	3401.68
258.32	2856.92
258.53	2955.22
258.75	3637.19
258.97	3164.11
259.18	2789.33
259.40	2801.62
259.62	3536.84
259.83	3524.55
260.05	2889.68
260.27	3770.31
260.48	3467.21
260.70	3143.63
260.92	2760.66
261.13	2840.53
261.35	3381.20
261.57	3387.34
261.78	2781.14
262.00	2725.85
262.22	3395.53
262.43	3151.82
262.65	2887.64
262.86	2908.12
263.08	3811.27
263.30	3286.99
263.51	2723.80
263.73	2781.14
263.95	3612.62
264.16	3127.25
264.38	2756.57
264.60	2828.24
264.81	3223.50
265.03	3483.59
265.25	3325.90
265.46	2797.53
265.68	3608.52
265.89	3452.88
266.11	2807.77
266.33	2822.10
266.54	3549.13
266.76	3313.61
266.98	2936.79
267.19	3000.27
267.41	3530.70
267.62	3221.45
267.84	2723.80
268.06	3008.47
268.27	3270.61
268.49	3516.36
268.70	2863.06
268.92	2983.89
269.14	3049.43
269.35	2959.31
269.57	2883.54
269.79	2928.60
270.00	3188.69
270.22	3667.91
270.43	2746.33
270.65	2705.37
270.87	3241.93
271.08	3475.40
271.30	2971.60
271.51	2836.44
271.73	3438.54
271.95	3577.80
272.16	2740.18
272.38	2983.89
272.59	3237.84
272.81	3344.33
273.02	2838.48
273.24	3002.32
273.46	3467.21
273.67	3071.95
273.89	2740.18
274.10	2832.34
274.32	3512.27
274.54	3256.27
274.75	2918.36
274.97	2983.89
275.18	3465.16
275.40	3373.00
275.61	2910.16
275.83	3018.71
276.05	3082.19
276.26	3286.99
276.48	3010.51
276.69	3020.75
276.91	3131.34
277.12	3588.04
277.34	3033.04
277.55	3155.92
277.77	3299.28
277.99	3225.55
278.20	3059.67
278.42	2924.50
278.63	3098.58
278.85	3123.15
279.06	2955.22
279.28	3114.96
279.49	3411.92
279.71	3440.59
279.93	2944.98
280.14	3100.62
280.36	3151.82
280.57	3461.07
280.79	3139.54
281.00	2887.64
281.22	3186.64
281.43	3641.29
281.65	2768.85
281.86	2865.11
282.08	3327.95
282.29	3745.73
282.51	2820.05
282.73	2910.16
282.94	2938.84
283.16	3411.92
283.37	3143.63
283.59	3000.27
283.80	3344.33
284.02	3291.09
284.23	3041.23
284.45	3084.24
284.66	3098.58
284.88	3092.43
285.09	2895.83
285.31	3035.09
285.52	3366.86
285.74	3020.75
285.95	3082.19
286.17	3041.23
286.38	3510.22
286.60	3213.26
286.81	2963.41
287.03	3065.81
287.24	3250.13
287.46	3389.39
287.67	3059.67
287.89	3139.54
288.10	3266.51
288.32	3342.28
288.53	3155.92
288.75	3035.09
288.96	3596.23
289.18	3168.21
289.39	2834.39
289.61	3076.05
289.82	3753.93
290.04	3682.25
290.25	2869.20
290.47	3076.05
290.68	3198.93
290.90	3467.21
291.11	2775.00
291.33	3149.78
291.54	3141.58
291.76	3223.50
291.97	3137.49
292.18	3174.35
292.40	3129.30
292.61	3168.21
292.83	3211.22
293.04	2985.94
293.26	3313.61
293.47	3241.93
293.69	2961.36
293.90	2908.12
294.12	3651.53
294.33	3264.46
294.55	2979.79
294.76	3227.60
294.97	3637.19
295.19	3608.52
295.40	2981.84
295.62	3030.99
295.83	3461.07
296.05	3053.52
296.26	3233.74
296.48	2963.41
296.69	3213.26
296.90	3270.61
297.12	3155.92
297.33	3155.92
297.55	3327.95
297.76	3387.34
297.98	3084.24
298.19	3213.26
298.41	3225.55
298.62	3061.71
298.83	3217.36
299.05	3090.38
299.26	3233.74
299.48	3160.02
299.69	3082.19
299.90	2973.65
300.12	3096.53
300.33	3487.69
300.55	2975.70
300.76	3090.38
300.98	3127.25
301.19	3393.48
301.40	3006.42
301.62	2932.69
301.83	3387.34
302.05	3258.32
302.26	2926.55
302.47	3090.38
302.69	3067.86
302.90	3270.61
303.12	2850.77
303.33	3100.62
303.54	3610.57
303.76	3219.41
303.97	2936.79
304.19	3137.49
304.40	3155.92
304.61	3407.82
304.83	3125.20
305.04	3084.24
305.26	3362.76
305.47	3225.55
305.68	2990.03
305.90	2887.64
306.11	3528.65
306.33	3248.08
306.54	2785.24
306.75	3063.76
306.97	2979.79
307.18	3051.47
307.39	2981.84
307.61	3182.54
307.82	3280.85
308.04	3381.20
308.25	2791.38
308.46	3112.91
308.68	3241.93
308.89	3297.23
309.10	3090.38
309.32	3084.24
309.53	3270.61
309.74	3403.72
309.96	2916.31
310.17	3102.67
310.39	3143.63
310.60	3370.96
310.81	3024.85
311.03	2994.13
311.24	3430.35
311.45	3305.42
311.67	3301.33
311.88	3082.19
312.09	3188.69
312.31	3157.97
312.52	2842.58
312.73	2893.78
312.95	3033.04
313.16	3024.85
313.37	3147.73
313.59	3188.69
313.80	3489.74
314.01	3532.75
314.23	3030.99
314.44	2916.31
314.65	3049.43
314.87	3176.40
315.08	2975.70
315.29	2987.99
315.51	3092.43
315.72	2926.55
315.93	3069.91
316.15	3008.47
316.36	3194.83
316.57	3385.29
316.79	3051.47
317.00	2947.03
317.21	3375.05
317.43	3084.24
317.64	2969.55
317.85	2934.74
318.07	3098.58
318.28	3211.22
318.49	3114.96
318.70	3276.75
318.92	3373.00
319.13	3424.20
319.34	3248.08
319.56	3049.43
319.77	3307.47
319.98	3504.07
320.20	3356.62
320.41	3229.65
320.62	3454.92
320.83	3061.71
321.05	3198.93
321.26	3049.43
321.47	3330.00
321.69	3508.17
321.90	2883.54
322.11	2965.46
322.32	3334.09
322.54	3618.76
322.75	2969.55
322.96	3917.76
323.18	3000.27
323.39	2959.31
323.60	2906.07
323.81	3098.58
324.03	3188.69
324.24	3262.41
324.45	3147.73
324.66	2846.68
324.88	3497.93
325.09	3520.46
325.30	2985.94
325.52	2899.92
325.73	3327.95
325.94	3053.52
326.15	2883.54
326.37	2910.16
326.58	3424.20
326.79	3610.57
327.00	2942.93
327.22	3028.95
327.43	3229.65
327.64	3039.19
327.85	3149.78
328.07	3051.47
328.28	3729.35
328.49	3188.69
328.70	3006.42
328.92	2942.93
329.13	3252.17
329.34	3403.72
329.55	3192.78
329.76	3090.38
329.98	3254.22
330.19	3510.22
330.40	3016.66
330.61	3092.43
330.83	3407.82
331.04	3098.58
331.25	3074.00
331.46	3024.85
331.68	3033.04
331.89	3399.63
332.10	2996.18
332.31	2834.39
332.52	3213.26
332.74	3475.40
332.95	2899.92
333.16	3028.95
333.37	3424.20
333.58	3090.38
333.80	3016.66
334.01	2783.19
334.22	3311.57
334.43	3129.30
334.64	2934.74
334.86	2975.70
335.07	3114.96
335.28	3557.32
335.49	2928.60
335.70	3037.14
335.92	3563.47
336.13	3747.78
336.34	3041.23
336.55	2985.94
336.76	3426.25
336.98	2805.72
337.19	2983.89
337.40	3098.58
337.61	3729.35
337.82	3239.89
338.04	3033.04
338.25	2836.44
338.46	3246.03
338.67	3190.74
338.88	2908.12
339.09	2906.07
339.31	3200.98
339.52	3022.80
339.73	2926.55
339.94	3078.10
340.15	3469.26
340.36	3192.78
340.58	3086.29
340.79	2904.02
341.00	3434.44
341.21	3039.19
341.42	3192.78
341.63	3002.32
341.85	3491.79
342.06	3301.33
342.27	2942.93
342.48	3151.82
342.69	3026.90
342.90	3370.96
343.12	3350.48
343.33	2955.22
343.54	3536.84
343.75	3590.09
343.96	3119.06
344.17	2930.64
344.38	3246.03
344.60	3141.58
344.81	2947.03
345.02	3004.37
345.23	3487.69
345.44	3796.93
345.65	3139.54
345.86	3049.43
346.07	3360.72
346.29	3151.82
346.50	3188.69
346.71	3067.86
346.92	3610.57
347.13	3694.54
347.34	3010.51
347.55	2940.88
347.76	3418.06
347.98	2979.79
348.19	3069.91
348.40	3200.98
348.61	3147.73
348.82	3657.67
349.03	3139.54
349.24	2908.12
349.45	3684.30
349.66	2865.11
349.88	3018.71
350.09	2942.93
350.30	3510.22
350.51	3530.70
350.72	3186.64
350.93	3006.42
351.14	3176.40
351.35	3327.95
351.56	3022.80
351.77	3125.20
351.99	3334.09
352.20	3493.83
352.41	3074.00
352.62	2789.33
352.83	3225.55
353.04	3307.47
353.25	2934.74
353.46	3006.42
353.67	3569.61
353.88	2828.24
354.09	2957.27
354.30	3076.05
354.52	3432.40
354.73	3264.46
354.94	3010.51
355.15	2965.46
355.36	3721.16
355.57	3231.69
355.78	2936.79
355.99	2930.64
356.20	3229.65
356.41	3602.38
356.62	3024.85
356.83	3041.23
357.04	3559.37
357.25	2973.65
357.46	2983.89
357.68	2781.14
357.89	3119.06
358.10	3317.71
358.31	2975.70
358.52	2944.98
358.73	3026.90
358.94	2971.60
359.15	2953.17
359.36	2971.60
359.57	3319.76
359.78	3282.89
359.99	3180.50
360.20	2901.97
360.41	3198.93
360.62	3499.98
360.83	3119.06
361.04	2981.84
361.25	3389.39
361.46	3551.18
361.67	3155.92
361.88	3051.47
362.09	3557.32
362.30	3284.94
362.51	2951.12
362.72	3090.38
362.93	3499.98
363.14	3387.34
363.35	3180.50
363.56	2985.94
363.78	3520.46
363.99	3467.21
364.20	3043.28
364.41	3061.71
364.62	3538.89
364.83	3332.05
365.04	3024.85
365.25	2996.18
365.46	3766.21
365.67	3131.34
365.88	3200.98
366.09	2985.94
366.30	3123.15
366.51	3368.91
366.72	2963.41
366.93	2897.88
367.14	3311.57
367.35	3534.79
367.56	2885.59
367.77	3149.78
367.98	3235.79
368.18	3336.14
368.39	3151.82
368.60	2879.44
368.81	3479.50
369.02	3356.62
369.23	3020.75
369.44	2901.97
369.65	3155.92
369.86	3327.95
370.07	3055.57
370.28	2942.93
370.49	3426.25
370.70	3336.14
370.91	2928.60
371.12	2877.40
371.33	3520.46
371.54	3200.98
371.75	3131.34
371.96	2799.57
372.17	3375.05
372.38	3291.09
372.59	2992.08
372.80	3008.47
373.01	3153.87
373.22	3237.84
373.43	2942.93
373.64	2863.06
373.85	3463.12
374.06	3655.62
374.26	3198.93
374.47	3196.88
374.68	3567.56
374.89	3377.10
375.10	2871.25
375.31	3092.43
375.52	3280.85
375.73	3219.41
375.94	2854.87
376.15	3157.97
376.36	3157.97
376.57	3170.26
376.78	3065.81
376.99	3028.95
377.20	3555.27
377.40	3346.38
377.61	3309.52
377.82	3047.38
378.03	3499.98
378.24	3403.72
378.45	3106.77
378.66	3076.05
378.87	2983.89
379.08	2987.99
379.29	2934.74
379.50	3172.30
379.71	3262.41
379.91	3526.60
380.12	2998.23
380.33	3086.29
380.54	3274.70
380.75	3211.22
380.96	3051.47
381.17	2973.65
381.38	3307.47
381.59	3356.62
381.80	3065.81
382.00	3112.91
382.21	3334.09
382.42	3678.15
382.63	3334.09
382.84	3221.45
383.05	3450.83
383.26	3573.71
383.47	3121.10
383.68	2934.74
383.88	3438.54
384.09	3368.91
384.30	3313.61
384.51	3108.82
384.72	3227.60
384.93	3094.48
385.14	3141.58
385.35	3256.27
385.55	2971.60
385.76	3581.90
385.97	3059.67
386.18	2910.16
386.39	3164.11
386.60	3198.93
386.81	3061.71
387.02	2934.74
387.22	3008.47
387.43	3352.52
387.64	3055.57
387.85	3231.69
388.06	3315.66
388.27	4343.74
388.48	7923.59
388.68	12056.39
388.89	15118.11
389.10	16602.88
389.31	16289.54
389.52	13090.62
389.73	11210.58
389.93	10311.52
390.14	9363.31
390.35	8517.50
390.56	8118.15
390.77	6608.80
390.98	5007.28
391.18	4124.61
391.39	3913.67
391.60	3383.24
391.81	3299.28
392.02	3098.58
392.23	3758.02
392.43	3319.76
392.64	3139.54
392.85	3114.96
393.06	3551.18
393.27	3229.65
393.47	2990.03
393.68	3117.01
393.89	3229.65
394.10	3551.18
394.31	2934.74
394.52	2899.92
394.72	3164.11
394.93	3649.48
395.14	2926.55
395.35	3147.73
395.56	3129.30
395.76	3125.20
395.97	2975.70
396.18	3213.26
396.39	3395.53
396.60	3991.49
396.80	3456.97
397.01	3258.32
397.22	3473.36
397.43	3454.92
397.64	3026.90
397.84	3160.02
398.05	3745.73
398.26	3266.51
398.47	3184.59
398.67	3268.56
398.88	3198.93
399.09	3395.53
399.30	2955.22
399.51	3114.96
399.71	3182.54
399.92	3266.51
400.13	3112.91
400.34	3065.81
400.54	3313.61
400.75	3571.66
400.96	3219.41
401.17	3381.20
401.37	3397.58
401.58	3213.26
401.79	3037.14
402.00	3223.50
402.21	3778.50
402.41	3448.78
402.62	3399.63
402.83	3563.47
403.04	3661.77
403.24	4065.22
403.45	3225.55
403.66	3426.25
403.87	3475.40
404.07	3585.99
404.28	3327.95
404.49	3393.48
404.70	3348.43
404.90	3418.06
405.11	2992.08
405.32	3178.45
405.52	3151.82
405.73	3155.92
405.94	3000.27
406.15	3157.97
406.35	3420.11
406.56	3422.16
406.77	3078.10
406.98	3051.47
407.18	3127.25
407.39	3616.71
407.60	3074.00
407.80	3139.54
408.01	3186.64
408.22	3411.92
408.43	2910.16
408.63	3180.50
408.84	3450.83
409.05	3407.82
409.25	2936.79
409.46	2994.13
409.67	3213.26
409.88	3117.01
410.08	3127.25
410.29	2983.89
410.50	3497.93
410.70	3348.43
410.91	2979.79
411.12	3164.11
411.32	3313.61
411.53	3133.39
411.74	3059.67
411.95	3198.93
412.15	3274.70
412.36	3391.44
412.57	3243.98
412.77	3264.46
412.98	3229.65
413.19	3248.08
413.39	3170.26
413.60	3110.86
413.81	3542.99
414.01	3024.85
414.22	3069.91
414.43	3266.51
414.63	3246.03
414.84	3510.22
415.05	3057.62
415.25	2959.31
415.46	3401.68
415.67	3127.25
415.87	3059.67
416.08	3002.32
416.29	3225.55
416.49	3354.57
416.70	3028.95
416.91	3082.19
417.11	3182.54
417.32	3532.75
417.53	3168.21
417.73	3135.44
417.94	3254.22
418.15	3295.18
418.35	3121.10
418.56	3039.19
418.77	3737.54
418.97	3291.09
419.18	3254.22
419.38	2762.71
419.59	3272.65
419.80	3549.13
420.00	2942.93
420.21	3043.28
420.42	3483.59
420.62	3377.10
420.83	3039.19
421.04	3041.23
421.24	3262.41
421.45	3448.78
421.65	3065.81
421.86	3090.38
422.07	3516.36
422.27	3344.33
422.48	2961.36
422.69	2889.68
422.89	3268.56
423.10	3145.68
423.30	2893.78
423.51	3090.38
423.72	3309.52
423.92	3403.72
424.13	2916.31
424.33	3123.15
424.54	3452.88
424.75	3332.05
424.95	3286.99
425.16	3086.29
425.36	3264.46
425.57	3459.02
425.78	3229.65
425.98	3172.30
426.19	3274.70
426.39	3110.86
426.60	3153.87
426.81	3131.34
427.01	3395.53
427.22	3174.35
427.42	2779.09
427.63	3004.37
427.83	3526.60
428.04	3631.05
428.25	3094.48
428.45	3184.59
428.66	3487.69
428.86	3209.17
429.07	3069.91
429.28	3074.00
429.48	3297.23
429.69	3098.58
429.89	3071.95
430.10	2996.18
430.30	3485.64
430.51	3459.02
430.71	2947.03
430.92	3114.96
431.13	3264.46
431.33	3395.53
431.54	3178.45
431.74	3203.02
431.95	3729.35
432.15	2992.08
432.36	3037.14
432.56	3102.67
432.77	3710.92
432.98	3663.82
433.18	3098.58
433.39	2928.60
433.59	3215.31
433.80	3715.02
434.00	3198.93
434.21	3041.23
434.41	3125.20
434.62	3733.45
434.82	2910.16
435.03	2967.51
435.23	3336.14
435.44	2869.20
435.64	3012.56
435.85	3098.58
436.06	3493.83
436.26	3520.46
436.47	3024.85
436.67	3008.47
436.88	3229.65
437.08	3487.69
437.29	3172.30
437.49	3196.88
437.70	3481.55
437.90	3295.18
438.11	3346.38
438.31	3084.24
438.52	3549.13
438.72	3497.93
438.93	3405.77
439.13	3182.54
439.34	3508.17
439.54	3268.56
439.75	3205.07
439.95	3188.69
440.16	3147.73
440.36	3291.09
440.57	3117.01
440.77	3063.76
440.98	3205.07
441.18	3395.53
441.39	2971.60
441.59	2983.89
441.80	3712.97
442.00	3258.32
442.21	3145.68
442.41	2922.45
442.62	3555.27
442.82	3239.89
443.02	3059.67
443.23	3055.57
443.43	3198.93
443.64	3612.62
443.84	2973.65
444.05	3164.11
444.25	3340.24
444.46	3215.31
444.66	2983.89
444.87	3334.09
445.07	2983.89
445.28	3260.37
445.48	3235.79
445.69	3166.16
445.89	3819.46
446.09	3317.71
446.30	3375.05
446.50	3465.16
446.71	4974.52
446.91	6285.22
447.12	7182.23
447.32	7763.85
447.53	7663.50
447.73	6412.19
447.93	5703.59
448.14	5269.42
448.34	5345.20
448.55	4440.00
448.75	4523.96
448.96	4198.34
449.16	4093.89
449.36	3936.20
449.57	3327.95
449.77	3168.21
449.98	3164.11
450.18	3420.11
450.39	3000.27
450.59	3233.74
450.79	3315.66
451.00	3141.58
451.20	3213.26
451.41	3016.66
451.61	3346.38
451.81	3221.45
452.02	3000.27
452.22	3121.10
452.43	3190.74
