SpectraSuite Data File
++++++++++++++++++++++++++++++++++++
Date: Fri May 06 08:14:27 CEST 2016
User: root
Dark Spectrum Present: No
Reference Spectrum Present: No
Number of Sampled Component Spectra: 1
Spectrometers: USB4C02835
Integration Time (usec): 100000 (USB4C02835)
Spectra Averaged: 1 (USB4C02835)
Boxcar Smoothing: 0 (USB4C02835)
Correct for Electrical Dark: No (USB4C02835)
Strobe/Lamp Enabled: No (USB4C02835)
Correct for Detector Non-linearity: No (USB4C02835)
Correct for Stray Light: No (USB4C02835)
Number of Pixels in Processed Spectrum: 3648
>>>>>Begin Processed Spectral Data<<<<<
177.47	2213.85
177.69	2213.85
177.91	2213.85
178.13	2238.43
178.36	2287.58
178.58	3086.29
178.80	3112.91
179.02	2959.31
179.24	3078.10
179.46	2803.67
179.68	2797.53
179.90	3209.17
180.13	3338.19
180.35	2717.65
180.57	2838.48
180.79	3432.40
181.01	3284.94
181.23	2924.50
181.45	2918.36
181.67	3389.39
181.90	3336.14
182.12	2891.73
182.34	2713.56
182.56	3428.30
182.78	3370.96
183.00	2822.10
183.22	2861.01
183.44	2955.22
183.66	3958.72
183.89	2983.89
184.11	2863.06
184.33	3432.40
184.55	3528.65
184.77	2852.82
184.99	2897.88
185.21	3143.63
185.43	3891.14
185.65	2893.78
185.87	2807.77
186.10	3637.19
186.32	3794.89
186.54	3057.62
186.76	3016.66
186.98	3459.02
187.20	3205.07
187.42	2914.26
187.64	2807.77
187.86	3485.64
188.08	3487.69
188.30	2861.01
188.52	2910.16
188.75	3565.51
188.97	3538.89
189.19	2873.30
189.41	2721.75
189.63	3475.40
189.85	3143.63
190.07	2740.18
190.29	2715.61
190.51	3395.53
190.73	3108.82
190.95	3047.38
191.17	2830.29
191.39	2967.51
191.61	3155.92
191.84	2815.96
192.06	3000.27
192.28	3006.42
192.50	3911.62
192.72	3002.32
192.94	3006.42
193.16	3430.35
193.38	3295.18
193.60	2795.48
193.82	3045.33
194.04	3471.31
194.26	3379.15
194.48	2863.06
194.70	2918.36
194.92	3157.97
195.14	3512.27
195.36	2863.06
195.58	2897.88
195.80	3258.32
196.02	3063.76
196.24	2781.14
196.46	2865.11
196.69	3157.97
196.91	3807.17
197.13	3006.42
197.35	2942.93
197.57	3624.90
197.79	3418.06
198.01	2953.17
198.23	2893.78
198.45	3405.77
198.67	3059.67
198.89	2627.54
199.11	2922.45
199.33	3188.69
199.55	2863.06
199.77	2762.71
199.99	3053.52
200.21	3157.97
200.43	3225.55
200.65	2721.75
200.87	2762.71
201.09	3241.93
201.31	3155.92
201.53	2828.24
201.75	2969.55
201.97	3295.18
202.19	3256.27
202.41	2957.27
202.63	2965.46
202.85	3420.11
203.07	3350.48
203.29	2949.08
203.51	2764.76
203.73	3121.10
203.95	3885.00
204.17	2889.68
204.39	3020.75
204.61	3174.35
204.83	3121.10
205.05	3071.95
205.27	2936.79
205.49	3635.14
205.71	3252.17
205.93	2699.22
206.15	2723.80
206.37	3368.91
206.59	3266.51
206.81	2664.41
207.03	2844.63
207.25	3143.63
207.47	3420.11
207.69	2908.12
207.91	3090.38
208.13	3567.56
208.34	3162.06
208.56	2834.39
208.78	2920.40
209.00	3180.50
209.22	3243.98
209.44	2936.79
209.66	2770.90
209.88	3250.13
210.10	3155.92
210.32	2830.29
210.54	2891.73
210.76	3227.60
210.98	3540.94
211.20	2662.36
211.42	2992.08
211.64	3579.85
211.86	3291.09
212.08	2985.94
212.30	2926.55
212.52	3127.25
212.74	3413.96
212.96	2967.51
213.17	2887.64
213.39	3536.84
213.61	3692.49
213.83	2861.01
214.05	2736.09
214.27	3506.12
214.49	3020.75
214.71	2846.68
214.93	2953.17
215.15	3293.13
215.37	3522.51
215.59	2668.50
215.81	2951.12
216.03	3600.33
216.24	3344.33
216.46	2830.29
216.68	2914.26
216.90	3407.82
217.12	3422.16
217.34	2856.92
217.56	3086.29
217.78	3567.56
218.00	3426.25
218.22	2953.17
218.44	2912.21
218.66	3375.05
218.87	3633.10
219.09	2932.69
219.31	2922.45
219.53	3313.61
219.75	3151.82
219.97	2930.64
220.19	2867.16
220.41	3295.18
220.63	3612.62
220.85	2885.59
221.06	2887.64
221.28	3588.04
221.50	3442.64
221.72	2877.40
221.94	2824.15
222.16	3348.43
222.38	3532.75
222.60	2852.82
222.82	2932.69
223.03	3487.69
223.25	3053.52
223.47	2897.88
223.69	3063.76
223.91	3397.58
224.13	3327.95
224.35	2775.00
224.57	2959.31
224.78	3350.48
225.00	3102.67
225.22	3012.56
225.44	2787.29
225.66	3456.97
225.88	3192.78
226.10	2975.70
226.32	2887.64
226.53	3549.13
226.75	3147.73
226.97	2971.60
227.19	2871.25
227.41	3076.05
227.63	3186.64
227.85	2590.68
228.06	2963.41
228.28	3319.76
228.50	3454.92
228.72	2754.52
228.94	2838.48
229.16	2877.40
229.37	3071.95
229.59	2830.29
229.81	3196.88
230.03	3233.74
230.25	3063.76
230.47	2701.27
230.69	2844.63
230.90	3413.96
231.12	3190.74
231.34	3012.56
231.56	2914.26
231.78	3084.24
232.00	3278.80
232.21	2895.83
232.43	2942.93
232.65	2875.35
232.87	3370.96
233.09	2688.98
233.30	2797.53
233.52	3471.31
233.74	3258.32
233.96	2701.27
234.18	3063.76
234.40	3266.51
234.61	3729.35
234.83	2779.09
235.05	2869.20
235.27	3798.98
235.49	3454.92
235.70	2729.94
235.92	2922.45
236.14	3454.92
236.36	3829.70
236.58	2758.61
236.79	2910.16
237.01	3211.22
237.23	3246.03
237.45	3008.47
237.67	2926.55
237.88	3346.38
238.10	3729.35
238.32	2811.86
238.54	2770.90
238.76	3262.41
238.97	3076.05
239.19	2858.96
239.41	2901.97
239.63	3538.89
239.85	3186.64
240.06	2865.11
240.28	2838.48
240.50	3499.98
240.72	3325.90
240.93	2783.19
241.15	2955.22
241.37	3321.81
241.59	3618.76
241.81	2906.07
242.02	2955.22
242.24	3422.16
242.46	3368.91
242.68	2746.33
242.89	2815.96
243.11	3409.87
243.33	3239.89
243.55	2926.55
243.76	2926.55
243.98	3041.23
244.20	3192.78
244.42	2826.20
244.64	2844.63
244.85	3010.51
245.07	3106.77
245.29	2930.64
245.51	2901.97
245.72	3266.51
245.94	3473.36
246.16	2846.68
246.38	2899.92
246.59	3168.21
246.81	3049.43
247.03	2797.53
247.24	2697.17
247.46	3260.37
247.68	3385.29
247.90	2758.61
248.11	2828.24
248.33	3389.39
248.55	3309.52
248.77	2887.64
248.98	3039.19
249.20	3577.80
249.42	3278.80
249.64	2840.53
249.85	2828.24
250.07	3166.16
250.29	3407.82
250.50	2914.26
250.72	2781.14
250.94	3387.34
251.16	3712.97
251.37	2910.16
251.59	3030.99
251.81	3432.40
252.02	3637.19
252.24	2760.66
252.46	3035.09
252.68	3162.06
252.89	3168.21
253.11	2662.36
253.33	3012.56
253.54	3583.95
253.76	3123.15
253.98	2877.40
254.20	2895.83
254.41	2920.40
254.63	3188.69
254.85	2688.98
255.06	3069.91
255.28	3422.16
255.50	3213.26
255.71	2787.29
255.93	2709.46
256.15	3325.90
256.36	3418.06
256.58	2770.90
256.80	2779.09
257.02	3262.41
257.23	3180.50
257.45	2858.96
257.67	3037.14
257.88	3196.88
258.10	3327.95
258.32	2852.82
258.53	3008.47
258.75	3551.18
258.97	3213.26
259.18	2779.09
259.40	2805.72
259.62	3604.42
259.83	3614.66
260.05	2883.54
260.27	3813.32
260.48	3616.71
260.70	3065.81
260.92	2748.37
261.13	2822.10
261.35	3311.57
261.57	3401.68
261.78	2779.09
262.00	2822.10
262.22	3493.83
262.43	3123.15
262.65	2895.83
262.86	2824.15
263.08	3790.79
263.30	3309.52
263.51	2699.22
263.73	2811.86
263.95	3692.49
264.16	3121.10
264.38	2846.68
264.60	2805.72
264.81	3317.71
265.03	3516.36
265.25	3305.42
265.46	2748.37
265.68	3551.18
265.89	3399.63
266.11	2746.33
266.33	2746.33
266.54	3635.14
266.76	3389.39
266.98	2992.08
267.19	3065.81
267.41	3516.36
267.62	3252.17
267.84	2672.60
268.06	2987.99
268.27	3315.66
268.49	3565.51
268.70	2906.07
268.92	2863.06
269.14	3147.73
269.35	3053.52
269.57	2975.70
269.79	2944.98
270.00	3145.68
270.22	3672.01
270.43	2758.61
270.65	2729.94
270.87	3373.00
271.08	3456.97
271.30	2955.22
271.51	2811.86
271.73	3286.99
271.95	3487.69
272.16	2787.29
272.38	3129.30
272.59	3221.45
272.81	3416.01
273.02	2758.61
273.24	2897.88
273.46	3436.49
273.67	3133.39
273.89	2699.22
274.10	2809.81
274.32	3514.31
274.54	3338.19
274.75	3041.23
274.97	2955.22
275.18	3387.34
275.40	3444.68
275.61	2897.88
275.83	3053.52
276.05	3086.29
276.26	3223.50
276.48	2940.88
276.69	3002.32
276.91	3157.97
277.12	3555.27
277.34	3037.14
277.55	3125.20
277.77	3321.81
277.99	3117.01
278.20	3000.27
278.42	2881.49
278.63	3094.48
278.85	3016.66
279.06	2969.55
279.28	3100.62
279.49	3540.94
279.71	3418.06
279.93	2977.75
280.14	3102.67
280.36	3166.16
280.57	3526.60
280.79	3008.47
281.00	2926.55
281.22	3336.14
281.43	3434.44
281.65	2783.19
281.86	2852.82
282.08	3403.72
282.29	3657.67
282.51	2805.72
282.73	2869.20
282.94	2959.31
283.16	3362.76
283.37	3112.91
283.59	3028.95
283.80	3387.34
284.02	3286.99
284.23	2985.94
284.45	2963.41
284.66	3182.54
284.88	3143.63
285.09	2885.59
285.31	3094.48
285.52	3336.14
285.74	2934.74
285.95	3198.93
286.17	3049.43
286.38	3596.23
286.60	3123.15
286.81	2916.31
287.03	2996.18
287.24	3258.32
287.46	3448.78
287.67	3170.26
287.89	3229.65
288.10	3360.72
288.32	3286.99
288.53	3147.73
288.75	3057.62
288.96	3401.68
289.18	3188.69
289.39	2916.31
289.61	3010.51
289.82	3798.98
290.04	3710.92
290.25	2904.02
290.47	2979.79
290.68	3241.93
290.90	3524.55
291.11	2826.20
291.33	3170.26
291.54	3119.06
291.76	3160.02
291.97	3076.05
292.18	3057.62
292.40	3203.02
292.61	3155.92
292.83	3284.94
293.04	2975.70
293.26	3299.28
293.47	3209.17
293.69	2889.68
293.90	2865.11
294.12	3581.90
294.33	3215.31
294.55	3067.86
294.76	3168.21
294.97	3522.51
295.19	3674.06
295.40	2955.22
295.62	3057.62
295.83	3549.13
296.05	3215.31
296.26	3241.93
296.48	2975.70
296.69	3280.85
296.90	3198.93
297.12	3147.73
297.33	3155.92
297.55	3246.03
297.76	3366.86
297.98	3127.25
298.19	3250.13
298.41	3272.65
298.62	3074.00
298.83	3237.84
299.05	3092.43
299.26	3227.60
299.48	3121.10
299.69	3078.10
299.90	3065.81
300.12	3112.91
300.33	3426.25
300.55	2975.70
300.76	3000.27
300.98	3114.96
301.19	3364.81
301.40	2992.08
301.62	3037.14
301.83	3373.00
302.05	3258.32
302.26	2889.68
302.47	3074.00
302.69	3092.43
302.90	3395.53
303.12	2811.86
303.33	3094.48
303.54	3639.24
303.76	3180.50
303.97	2985.94
304.19	3207.12
304.40	3069.91
304.61	3422.16
304.83	3035.09
305.04	3110.86
305.26	3454.92
305.47	3098.58
305.68	2979.79
305.90	2893.78
306.11	3534.79
306.33	3258.32
306.54	2820.05
306.75	2959.31
306.97	2930.64
307.18	3082.19
307.39	3030.99
307.61	3123.15
307.82	3274.70
308.04	3377.10
308.25	2893.78
308.46	3168.21
308.68	3293.13
308.89	3252.17
309.10	3127.25
309.32	2922.45
309.53	3362.76
309.74	3364.81
309.96	2914.26
310.17	3143.63
310.39	3153.87
310.60	3364.81
310.81	3074.00
311.03	2885.59
311.24	3360.72
311.45	3198.93
311.67	3315.66
311.88	3084.24
312.09	3112.91
312.31	3114.96
312.52	2957.27
312.73	2916.31
312.95	3018.71
313.16	3043.28
313.37	3227.60
313.59	3172.30
313.80	3430.35
314.01	3547.08
314.23	3057.62
314.44	2955.22
314.65	3022.80
314.87	3053.52
315.08	3020.75
315.29	3002.32
315.51	3080.14
315.72	2951.12
315.93	2994.13
316.15	2963.41
316.36	3102.67
316.57	3286.99
316.79	2932.69
317.00	2867.16
317.21	3446.73
317.43	3119.06
317.64	3006.42
317.85	2967.51
318.07	3104.72
318.28	3229.65
318.49	3131.34
318.70	3186.64
318.92	3313.61
319.13	3385.29
319.34	3213.26
319.56	3010.51
319.77	3375.05
319.98	3354.57
320.20	3268.56
320.41	3211.22
320.62	3319.76
320.83	2955.22
321.05	3235.79
321.26	3076.05
321.47	3362.76
321.69	3508.17
321.90	2910.16
322.11	2934.74
322.32	3350.48
322.54	3504.07
322.75	3061.71
322.96	4009.92
323.18	2994.13
323.39	2846.68
323.60	2906.07
323.81	3106.77
324.03	3114.96
324.24	3237.84
324.45	3200.98
324.66	2971.60
324.88	3624.90
325.09	3702.73
325.30	2906.07
325.52	2916.31
325.73	3416.01
325.94	3131.34
326.15	2858.96
326.37	2926.55
326.58	3477.45
326.79	3573.71
327.00	2904.02
327.22	2942.93
327.43	3176.40
327.64	3117.01
327.85	3155.92
328.07	3014.61
328.28	3712.97
328.49	3205.07
328.70	2990.03
328.92	2969.55
329.13	3229.65
329.34	3346.38
329.55	3286.99
329.76	3104.72
329.98	3217.36
330.19	3555.27
330.40	3106.77
330.61	3133.39
330.83	3465.16
331.04	3143.63
331.25	3057.62
331.46	3065.81
331.68	3033.04
331.89	3469.26
332.10	2924.50
332.31	2852.82
332.52	3264.46
332.74	3575.75
332.95	2815.96
333.16	2983.89
333.37	3413.96
333.58	3186.64
333.80	3041.23
334.01	2807.77
334.22	3190.74
334.43	3182.54
334.64	2930.64
334.86	2920.40
335.07	3082.19
335.28	3557.32
335.49	2861.01
335.70	3145.68
335.92	3536.84
336.13	3696.58
336.34	3084.24
336.55	3024.85
336.76	3332.05
336.98	2887.64
337.19	3026.90
337.40	3125.20
337.61	3874.76
337.82	3180.50
338.04	3106.77
338.25	2848.72
338.46	3268.56
338.67	3137.49
338.88	2951.12
339.09	2912.21
339.31	3139.54
339.52	3078.10
339.73	2928.60
339.94	2942.93
340.15	3479.50
340.36	3221.45
340.58	3119.06
340.79	2967.51
341.00	3401.68
341.21	3014.61
341.42	3184.59
341.63	3035.09
341.85	3540.94
342.06	3262.41
342.27	2897.88
342.48	3172.30
342.69	3092.43
342.90	3385.29
343.12	3391.44
343.33	2957.27
343.54	3538.89
343.75	3639.24
343.96	3102.67
344.17	2912.21
344.38	3166.16
344.60	3139.54
344.81	2955.22
345.02	2924.50
345.23	3516.36
345.44	3819.46
345.65	3030.99
345.86	3114.96
346.07	3379.15
346.29	3125.20
346.50	3233.74
346.71	3100.62
346.92	3567.56
347.13	3796.93
347.34	3125.20
347.55	2897.88
347.76	3385.29
347.98	2928.60
348.19	3033.04
348.40	3162.06
348.61	3196.88
348.82	3549.13
349.03	3074.00
349.24	2838.48
349.45	3690.44
349.66	2877.40
349.88	2944.98
350.09	2854.87
350.30	3499.98
350.51	3557.32
350.72	3233.74
350.93	2918.36
351.14	3198.93
351.35	3381.20
351.56	3049.43
351.77	2975.70
351.99	3327.95
352.20	3532.75
352.41	3033.04
352.62	2828.24
352.83	3270.61
353.04	3295.18
353.25	3051.47
353.46	2996.18
353.67	3502.03
353.88	2910.16
354.09	2957.27
354.30	3057.62
354.52	3491.79
354.73	3293.13
354.94	3028.95
355.15	3000.27
355.36	3637.19
355.57	3137.49
355.78	2992.08
355.99	2987.99
356.20	3155.92
356.41	3602.38
356.62	3078.10
356.83	2985.94
357.04	3573.71
357.25	2951.12
357.46	2963.41
357.68	2922.45
357.89	3065.81
358.10	3313.61
358.31	2967.51
358.52	3006.42
358.73	3067.86
358.94	3063.76
359.15	3045.33
359.36	2977.75
359.57	3332.05
359.78	3248.08
359.99	3186.64
360.20	2904.02
360.41	3219.41
360.62	3436.49
360.83	3035.09
361.04	3055.57
361.25	3389.39
361.46	3567.56
361.67	3125.20
361.88	2996.18
362.09	3452.88
362.30	3252.17
362.51	2934.74
362.72	3076.05
362.93	3434.44
363.14	3344.33
363.35	3117.01
363.56	2879.44
363.78	3485.64
363.99	3377.10
364.20	3033.04
364.41	2992.08
364.62	3698.63
364.83	3330.00
365.04	2965.46
365.25	3092.43
365.46	3700.68
365.67	3141.58
365.88	3192.78
366.09	3006.42
366.30	3157.97
366.51	3321.81
366.72	2981.84
366.93	3030.99
367.14	3256.27
367.35	3559.37
367.56	2922.45
367.77	3043.28
367.98	3254.22
368.18	3336.14
368.39	3123.15
368.60	3035.09
368.81	3452.88
369.02	3405.77
369.23	3000.27
369.44	2836.44
369.65	3198.93
369.86	3491.79
370.07	3141.58
370.28	2963.41
370.49	3342.28
370.70	3293.13
370.91	2918.36
371.12	2858.96
371.33	3516.36
371.54	3162.06
371.75	3137.49
371.96	2756.57
372.17	3338.19
372.38	3248.08
372.59	2987.99
372.80	2981.84
373.01	3219.41
373.22	3319.76
373.43	3035.09
373.64	2914.26
373.85	3542.99
374.06	3528.65
374.26	3147.73
374.47	3117.01
374.68	3639.24
374.89	3299.28
375.10	2947.03
375.31	3051.47
375.52	3379.15
375.73	3327.95
375.94	2871.25
376.15	3074.00
376.36	3108.82
376.57	3188.69
376.78	3035.09
376.99	3043.28
377.20	3528.65
377.40	3176.40
377.61	3303.37
377.82	2942.93
378.03	3520.46
378.24	3356.62
378.45	3135.44
378.66	3086.29
378.87	2947.03
379.08	3082.19
379.29	3114.96
379.50	3157.97
379.71	3213.26
379.91	3418.06
380.12	2983.89
380.33	3172.30
380.54	3205.07
380.75	3278.80
380.96	3104.72
381.17	3055.57
381.38	3223.50
381.59	3282.89
381.80	3051.47
382.00	3190.74
382.21	3358.67
382.42	3530.70
382.63	3383.24
382.84	3182.54
383.05	3502.03
383.26	3674.06
383.47	3086.29
383.68	3024.85
383.88	3375.05
384.09	3346.38
384.30	3243.98
384.51	3114.96
384.72	3260.37
384.93	2985.94
385.14	3078.10
385.35	3299.28
385.55	3004.37
385.76	3491.79
385.97	3076.05
386.18	2863.06
386.39	3117.01
386.60	3172.30
386.81	2936.79
387.02	2953.17
387.22	3051.47
387.43	3254.22
387.64	3188.69
387.85	3278.80
388.06	3450.83
388.27	4356.03
388.48	7780.23
388.68	12078.92
388.89	15013.66
389.10	16252.68
389.31	16043.79
389.52	12799.80
389.73	11292.50
389.93	10360.67
390.14	9095.03
390.35	8472.45
390.56	7899.02
390.77	6635.42
390.98	4923.32
391.18	4206.53
391.39	3921.86
391.60	3424.20
391.81	3321.81
392.02	3069.91
392.23	3743.69
392.43	3248.08
392.64	3119.06
392.85	3129.30
393.06	3637.19
393.27	3225.55
393.47	3059.67
393.68	3043.28
393.89	3186.64
394.10	3538.89
394.31	3067.86
394.52	2990.03
394.72	3114.96
394.93	3604.42
395.14	2875.35
395.35	3182.54
395.56	3071.95
395.76	3139.54
395.97	3030.99
396.18	3131.34
396.39	3256.27
396.60	3909.57
396.80	3467.21
397.01	3330.00
397.22	3436.49
397.43	3524.55
397.64	3024.85
397.84	3117.01
398.05	3721.16
398.26	3223.50
398.47	3180.50
398.67	3286.99
398.88	3207.12
399.09	3442.64
399.30	3033.04
399.51	3155.92
399.71	3024.85
399.92	3196.88
400.13	3133.39
400.34	3020.75
400.54	3299.28
400.75	3532.75
400.96	3239.89
401.17	3360.72
401.37	3375.05
401.58	3233.74
401.79	3069.91
402.00	3108.82
402.21	3850.18
402.41	3489.74
402.62	3286.99
402.83	3497.93
403.04	3753.93
403.24	4073.41
403.45	3172.30
403.66	3344.33
403.87	3502.03
404.07	3622.86
404.28	3286.99
404.49	3393.48
404.70	3356.62
404.90	3299.28
405.11	2994.13
405.32	3155.92
405.52	3192.78
405.73	3190.74
405.94	2992.08
406.15	3114.96
406.35	3411.92
406.56	3454.92
406.77	3137.49
406.98	2969.55
407.18	3147.73
407.39	3598.28
407.60	3063.76
407.80	3065.81
408.01	3225.55
408.22	3461.07
408.43	3010.51
408.63	3137.49
408.84	3495.88
409.05	3516.36
409.25	2953.17
409.46	3041.23
409.67	3151.82
409.88	3170.26
410.08	3033.04
410.29	3004.37
410.50	3399.63
410.70	3260.37
410.91	2992.08
411.12	3155.92
411.32	3246.03
411.53	3090.38
411.74	3117.01
411.95	3100.62
412.15	3278.80
412.36	3424.20
412.57	3227.60
412.77	3223.50
412.98	3280.85
413.19	3205.07
413.39	3117.01
413.60	3114.96
413.81	3551.18
414.01	3010.51
414.22	3065.81
414.43	3252.17
414.63	3192.78
414.84	3481.55
415.05	3110.86
415.25	2889.68
415.46	3467.21
415.67	3127.25
415.87	3035.09
416.08	3020.75
416.29	3215.31
416.49	3411.92
416.70	3098.58
416.91	3002.32
417.11	3237.84
417.32	3532.75
417.53	3151.82
417.73	3188.69
417.94	3293.13
418.15	3327.95
418.35	3092.43
418.56	3121.10
418.77	3712.97
418.97	3319.76
419.18	3217.36
419.38	2742.23
419.59	3330.00
419.80	3512.27
420.00	3002.32
420.21	3096.53
420.42	3489.74
420.62	3305.42
420.83	3045.33
421.04	3020.75
421.24	3291.09
421.45	3403.72
421.65	3065.81
421.86	3106.77
422.07	3475.40
422.27	3450.83
422.48	2973.65
422.69	2901.97
422.89	3321.81
423.10	3209.17
423.30	3069.91
423.51	3043.28
423.72	3377.10
423.92	3387.34
424.13	2883.54
424.33	3100.62
424.54	3536.84
424.75	3246.03
424.95	3278.80
425.16	3041.23
425.36	3205.07
425.57	3477.45
425.78	3205.07
425.98	3074.00
426.19	3188.69
426.39	3104.72
426.60	3143.63
426.81	3190.74
427.01	3383.24
427.22	3082.19
427.42	2861.01
427.63	2940.88
427.83	3508.17
428.04	3602.38
428.25	3168.21
428.45	3200.98
428.66	3436.49
428.86	3198.93
429.07	3080.14
429.28	3078.10
429.48	3235.79
429.69	3102.67
429.89	3082.19
430.10	2879.44
430.30	3418.06
430.51	3416.01
430.71	2926.55
430.92	3174.35
431.13	3164.11
431.33	3389.39
431.54	3102.67
431.74	3280.85
431.95	3620.81
432.15	3047.38
432.36	3067.86
432.56	3084.24
432.77	3708.87
432.98	3618.76
433.18	3098.58
433.39	2987.99
433.59	3248.08
433.80	3624.90
434.00	3225.55
434.21	3114.96
434.41	3172.30
434.62	3778.50
434.82	2920.40
435.03	2983.89
435.23	3321.81
435.44	2922.45
435.64	2961.36
435.85	3141.58
436.06	3485.64
436.26	3487.69
436.47	3033.04
436.67	2996.18
436.88	3299.28
437.08	3483.59
437.29	3164.11
437.49	3164.11
437.70	3563.47
437.90	3162.06
438.11	3307.47
438.31	3104.72
438.52	3502.03
438.72	3434.44
438.93	3340.24
439.13	3166.16
439.34	3422.16
439.54	3217.36
439.75	3141.58
439.95	3164.11
440.16	3170.26
440.36	3241.93
440.57	2998.23
440.77	3020.75
440.98	3250.13
441.18	3338.19
441.39	2947.03
441.59	2926.55
441.80	3760.07
442.00	3305.42
442.21	3207.12
442.41	2908.12
442.62	3532.75
442.82	3139.54
443.02	3045.33
443.23	3119.06
443.43	3184.59
443.64	3583.95
443.84	2953.17
444.05	3229.65
444.25	3233.74
444.46	3272.65
444.66	3022.80
444.87	3317.71
445.07	3049.43
445.28	3225.55
445.48	3147.73
445.69	3172.30
445.89	3737.54
446.09	3209.17
446.30	3319.76
446.50	3499.98
446.71	5033.91
446.91	6311.84
447.12	7217.04
447.32	7573.39
447.53	7516.05
447.73	6438.81
447.93	5492.65
448.14	5212.08
448.34	5429.17
448.55	4556.73
448.75	4542.39
448.96	4140.99
449.16	4014.02
449.36	3827.65
449.57	3428.30
449.77	3182.54
449.98	3280.85
450.18	3377.10
450.39	3037.14
450.59	3203.02
450.79	3270.61
451.00	3221.45
451.20	3297.23
451.41	3094.48
451.61	3383.24
451.81	3213.26
452.02	2918.36
452.22	3084.24
452.43	3168.21
