SpectraSuite Data File
++++++++++++++++++++++++++++++++++++
Date: Fri May 06 08:14:01 CEST 2016
User: root
Dark Spectrum Present: No
Reference Spectrum Present: No
Number of Sampled Component Spectra: 1
Spectrometers: USB4C02835
Integration Time (usec): 100000 (USB4C02835)
Spectra Averaged: 1 (USB4C02835)
Boxcar Smoothing: 0 (USB4C02835)
Correct for Electrical Dark: No (USB4C02835)
Strobe/Lamp Enabled: No (USB4C02835)
Correct for Detector Non-linearity: No (USB4C02835)
Correct for Stray Light: No (USB4C02835)
Number of Pixels in Processed Spectrum: 3648
>>>>>Begin Processed Spectral Data<<<<<
177.47	2310.11
177.69	2310.11
177.91	2310.11
178.13	2299.87
178.36	2308.06
178.58	3094.48
178.80	3231.69
179.02	2975.70
179.24	3028.95
179.46	2803.67
179.68	2891.73
179.90	3200.98
180.13	3266.51
180.35	2668.50
180.57	2772.95
180.79	3405.77
181.01	3256.27
181.23	2938.84
181.45	2992.08
181.67	3549.13
181.90	3377.10
182.12	2992.08
182.34	2650.07
182.56	3321.81
182.78	3368.91
183.00	2813.91
183.22	2881.49
183.44	2854.87
183.66	3876.80
183.89	2955.22
184.11	2977.75
184.33	3364.81
184.55	3524.55
184.77	2869.20
184.99	2858.96
185.21	3176.40
185.43	3917.76
185.65	2885.59
185.87	2760.66
186.10	3790.79
186.32	3827.65
186.54	3065.81
186.76	2985.94
186.98	3561.42
187.20	3260.37
187.42	2928.60
187.64	2815.96
187.86	3336.14
188.08	3553.23
188.30	2783.19
188.52	2959.31
188.75	3536.84
188.97	3493.83
189.19	2815.96
189.41	2789.33
189.63	3401.68
189.85	3256.27
190.07	2742.23
190.29	2684.89
190.51	3452.88
190.73	2992.08
190.95	3069.91
191.17	2981.84
191.39	2969.55
191.61	3198.93
191.84	2836.44
192.06	3071.95
192.28	2977.75
192.50	3973.06
192.72	3047.38
192.94	2916.31
193.16	3487.69
193.38	3366.86
193.60	2748.37
193.82	3024.85
194.04	3518.41
194.26	3319.76
194.48	2844.63
194.70	2850.77
194.92	3313.61
195.14	3391.44
195.36	2846.68
195.58	2940.88
195.80	3164.11
196.02	3215.31
196.24	2910.16
196.46	2934.74
196.69	3164.11
196.91	3774.41
197.13	2887.64
197.35	2924.50
197.57	3583.95
197.79	3495.88
198.01	2918.36
198.23	2879.44
198.45	3524.55
198.67	3074.00
198.89	2705.37
199.11	2934.74
199.33	3125.20
199.55	2809.81
199.77	2856.92
199.99	2975.70
200.21	3301.33
200.43	3450.83
200.65	2762.71
200.87	2680.79
201.09	3270.61
201.31	3235.79
201.53	2881.49
201.75	2998.23
201.97	3334.09
202.19	3258.32
202.41	2938.84
202.63	2901.97
202.85	3401.68
203.07	3413.96
203.29	2963.41
203.51	2731.99
203.73	3090.38
203.95	3813.32
204.17	2850.77
204.39	3010.51
204.61	3241.93
204.83	3188.69
205.05	3053.52
205.27	2879.44
205.49	3778.50
205.71	3227.60
205.93	2725.85
206.15	2789.33
206.37	3205.07
206.59	3153.87
206.81	2686.94
207.03	2695.13
207.25	3049.43
207.47	3352.52
207.69	2815.96
207.91	3074.00
208.13	3694.54
208.34	3131.34
208.56	2848.72
208.78	2897.88
209.00	3209.17
209.22	3153.87
209.44	2861.01
209.66	2820.05
209.88	3311.57
210.10	3258.32
210.32	2811.86
210.54	2936.79
210.76	3184.59
210.98	3413.96
211.20	2725.85
211.42	2992.08
211.64	3573.71
211.86	3401.68
212.08	2949.08
212.30	2863.06
212.52	3190.74
212.74	3379.15
212.96	2953.17
213.17	3037.14
213.39	3495.88
213.61	3633.10
213.83	2781.14
214.05	2686.94
214.27	3469.26
214.49	3141.58
214.71	2719.70
214.93	2942.93
215.15	3266.51
215.37	3397.58
215.59	2736.09
215.81	2959.31
216.03	3524.55
216.24	3303.37
216.46	2822.10
216.68	2920.40
216.90	3381.20
217.12	3510.22
217.34	2822.10
217.56	3053.52
217.78	3532.75
218.00	3393.48
218.22	2981.84
218.44	2996.18
218.66	3272.65
218.87	3665.86
219.09	2867.16
219.31	2836.44
219.53	3418.06
219.75	3198.93
219.97	2908.12
220.19	2949.08
220.41	3219.41
220.63	3688.39
220.85	2942.93
221.06	2897.88
221.28	3475.40
221.50	3465.16
221.72	2893.78
221.94	2748.37
222.16	3270.61
222.38	3448.78
222.60	2811.86
222.82	2947.03
223.03	3452.88
223.25	3155.92
223.47	2844.63
223.69	3162.06
223.91	3459.02
224.13	3260.37
224.35	2750.42
224.57	3028.95
224.78	3475.40
225.00	3155.92
225.22	2983.89
225.44	2770.90
225.66	3463.12
225.88	3184.59
226.10	3002.32
226.32	2840.53
226.53	3559.37
226.75	3258.32
226.97	3030.99
227.19	2924.50
227.41	3096.53
227.63	3209.17
227.85	2738.13
228.06	2963.41
228.28	3356.62
228.50	3409.87
228.72	2660.31
228.94	2813.91
229.16	2922.45
229.37	3057.62
229.59	2713.56
229.81	3069.91
230.03	3258.32
230.25	3026.90
230.47	2746.33
230.69	2846.68
230.90	3330.00
231.12	3160.02
231.34	2934.74
231.56	2936.79
231.78	3065.81
232.00	3350.48
232.21	2928.60
232.43	2910.16
232.65	2889.68
232.87	3319.76
233.09	2721.75
233.30	2852.82
233.52	3467.21
233.74	3272.65
233.96	2775.00
234.18	3084.24
234.40	3282.89
234.61	3768.26
234.83	2785.24
235.05	2832.34
235.27	3852.23
235.49	3459.02
235.70	2824.15
235.92	2887.64
236.14	3428.30
236.36	3751.88
236.58	2848.72
236.79	2904.02
237.01	3231.69
237.23	3334.09
237.45	3123.15
237.67	2928.60
237.88	3364.81
238.10	3661.77
238.32	2791.38
238.54	2803.67
238.76	3334.09
238.97	3121.10
239.19	2828.24
239.41	2985.94
239.63	3493.83
239.85	3194.83
240.06	2881.49
240.28	2799.57
240.50	3471.31
240.72	3370.96
240.93	2758.61
241.15	3074.00
241.37	3303.37
241.59	3553.23
241.81	2807.77
242.02	2912.21
242.24	3350.48
242.46	3504.07
242.68	2717.65
242.89	2766.81
243.11	3440.59
243.33	3246.03
243.55	2912.21
243.76	2908.12
243.98	3139.54
244.20	3293.13
244.42	2828.24
244.64	2863.06
244.85	2996.18
245.07	3125.20
245.29	2899.92
245.51	2916.31
245.72	3354.57
245.94	3581.90
246.16	2828.24
246.38	2838.48
246.59	3143.63
246.81	3166.16
247.03	2758.61
247.24	2697.17
247.46	3262.41
247.68	3375.05
247.90	2807.77
248.11	2861.01
248.33	3442.64
248.55	3174.35
248.77	2910.16
248.98	2924.50
249.20	3592.14
249.42	3373.00
249.64	2822.10
249.85	2762.71
250.07	3125.20
250.29	3450.83
250.50	2932.69
250.72	2809.81
250.94	3307.47
251.16	3696.58
251.37	2877.40
251.59	2981.84
251.81	3430.35
252.02	3545.03
252.24	2889.68
252.46	3045.33
252.68	3164.11
252.89	3117.01
253.11	2729.94
253.33	3067.86
253.54	3549.13
253.76	2992.08
253.98	2854.87
254.20	2901.97
254.41	3022.80
254.63	3313.61
254.85	2795.48
255.06	2992.08
255.28	3459.02
255.50	3184.59
255.71	2885.59
255.93	2707.41
256.15	3307.47
256.36	3485.64
256.58	2736.09
256.80	2815.96
257.02	3289.04
257.23	3235.79
257.45	2844.63
257.67	3018.71
257.88	3131.34
258.10	3448.78
258.32	2844.63
258.53	2971.60
258.75	3592.14
258.97	3166.16
259.18	2725.85
259.40	2822.10
259.62	3602.38
259.83	3590.09
260.05	2893.78
260.27	3786.69
260.48	3512.27
260.70	3121.10
260.92	2805.72
261.13	2877.40
261.35	3317.71
261.57	3428.30
261.78	2729.94
262.00	2805.72
262.22	3432.40
262.43	3112.91
262.65	2889.68
262.86	2869.20
263.08	3749.83
263.30	3246.03
263.51	2682.84
263.73	2805.72
263.95	3592.14
264.16	3207.12
264.38	2709.46
264.60	2795.48
264.81	3250.13
265.03	3493.83
265.25	3282.89
265.46	2766.81
265.68	3485.64
265.89	3459.02
266.11	2731.99
266.33	2779.09
266.54	3545.03
266.76	3493.83
266.98	2910.16
267.19	3053.52
267.41	3516.36
267.62	3243.98
267.84	2684.89
268.06	3043.28
268.27	3336.14
268.49	3561.42
268.70	2893.78
268.92	2942.93
269.14	3127.25
269.35	3045.33
269.57	2969.55
269.79	2918.36
270.00	3127.25
270.22	3651.53
270.43	2834.39
270.65	2697.17
270.87	3348.43
271.08	3377.10
271.30	2979.79
271.51	2899.92
271.73	3401.68
271.95	3565.51
272.16	2795.48
272.38	3045.33
272.59	3188.69
272.81	3358.67
273.02	2738.13
273.24	2912.21
273.46	3395.53
273.67	3014.61
273.89	2713.56
274.10	2801.62
274.32	3629.00
274.54	3366.86
274.75	3012.56
274.97	2979.79
275.18	3446.73
275.40	3362.76
275.61	2906.07
275.83	2983.89
276.05	3157.97
276.26	3258.32
276.48	2928.60
276.69	3022.80
276.91	3110.86
277.12	3696.58
277.34	3078.10
277.55	3157.97
277.77	3319.76
277.99	3196.88
278.20	3000.27
278.42	2861.01
278.63	3145.68
278.85	2992.08
279.06	2996.18
279.28	3051.47
279.49	3506.12
279.71	3479.50
279.93	3008.47
280.14	3055.57
280.36	3117.01
280.57	3428.30
280.79	3155.92
281.00	2842.58
281.22	3123.15
281.43	3520.46
281.65	2762.71
281.86	2910.16
282.08	3426.25
282.29	3669.96
282.51	2844.63
282.73	2885.59
282.94	2969.55
283.16	3399.63
283.37	3067.86
283.59	2990.03
283.80	3387.34
284.02	3215.31
284.23	3047.38
284.45	2981.84
284.66	3135.44
284.88	3133.39
285.09	2975.70
285.31	3082.19
285.52	3313.61
285.74	2887.64
285.95	3205.07
286.17	3033.04
286.38	3502.03
286.60	3166.16
286.81	2963.41
287.03	3000.27
287.24	3280.85
287.46	3450.83
287.67	3162.06
287.89	3076.05
288.10	3207.12
288.32	3295.18
288.53	3098.58
288.75	3082.19
288.96	3504.07
289.18	3198.93
289.39	2897.88
289.61	2996.18
289.82	3780.55
290.04	3631.05
290.25	2805.72
290.47	3100.62
290.68	3258.32
290.90	3436.49
291.11	2795.48
291.33	3182.54
291.54	3110.86
291.76	3172.30
291.97	3121.10
292.18	3082.19
292.40	3196.88
292.61	3053.52
292.83	3248.08
293.04	3045.33
293.26	3323.85
293.47	3207.12
293.69	3006.42
293.90	2906.07
294.12	3512.27
294.33	3305.42
294.55	3008.47
294.76	3176.40
294.97	3651.53
295.19	3821.51
295.40	3000.27
295.62	3059.67
295.83	3395.53
296.05	3162.06
296.26	3237.84
296.48	3008.47
296.69	3270.61
296.90	3254.22
297.12	3076.05
297.33	3145.68
297.55	3332.05
297.76	3327.95
297.98	3041.23
298.19	3182.54
298.41	3264.46
298.62	3182.54
298.83	3155.92
299.05	3153.87
299.26	3262.41
299.48	3094.48
299.69	3078.10
299.90	3084.24
300.12	3117.01
300.33	3368.91
300.55	3112.91
300.76	3033.04
300.98	3061.71
301.19	3391.44
301.40	3008.47
301.62	3030.99
301.83	3422.16
302.05	3286.99
302.26	2883.54
302.47	3006.42
302.69	3082.19
302.90	3313.61
303.12	2844.63
303.33	3084.24
303.54	3694.54
303.76	3098.58
303.97	3033.04
304.19	3297.23
304.40	3110.86
304.61	3403.72
304.83	3076.05
305.04	3033.04
305.26	3481.55
305.47	3151.82
305.68	2944.98
305.90	2994.13
306.11	3590.09
306.33	3286.99
306.54	2815.96
306.75	2961.36
306.97	2994.13
307.18	3147.73
307.39	3006.42
307.61	3076.05
307.82	3200.98
308.04	3426.25
308.25	2852.82
308.46	3172.30
308.68	3282.89
308.89	3284.94
309.10	3098.58
309.32	3057.62
309.53	3254.22
309.74	3426.25
309.96	2930.64
310.17	3133.39
310.39	3162.06
310.60	3491.79
310.81	3039.19
311.03	2951.12
311.24	3401.68
311.45	3336.14
311.67	3274.70
311.88	3112.91
312.09	3178.45
312.31	3207.12
312.52	2971.60
312.73	2979.79
312.95	2977.75
313.16	3147.73
313.37	3108.82
313.59	3092.43
313.80	3454.92
314.01	3592.14
314.23	2996.18
314.44	2963.41
314.65	3039.19
314.87	3082.19
315.08	2977.75
315.29	2957.27
315.51	3102.67
315.72	2953.17
315.93	3100.62
316.15	3067.86
316.36	3227.60
316.57	3385.29
316.79	2926.55
317.00	2926.55
317.21	3362.76
317.43	3074.00
317.64	3008.47
317.85	2942.93
318.07	3114.96
318.28	3221.45
318.49	3069.91
318.70	3198.93
318.92	3411.92
319.13	3332.05
319.34	3172.30
319.56	3037.14
319.77	3338.19
319.98	3411.92
320.20	3284.94
320.41	3174.35
320.62	3430.35
320.83	3082.19
321.05	3211.22
321.26	3030.99
321.47	3250.13
321.69	3497.93
321.90	2881.49
322.11	2889.68
322.32	3291.09
322.54	3674.06
322.75	3057.62
322.96	3938.24
323.18	2992.08
323.39	2920.40
323.60	2893.78
323.81	3123.15
324.03	3178.45
324.24	3309.52
324.45	3121.10
324.66	2885.59
324.88	3450.83
325.09	3565.51
325.30	2955.22
325.52	2955.22
325.73	3368.91
325.94	3024.85
326.15	2928.60
326.37	2904.02
326.58	3532.75
326.79	3649.48
327.00	2832.34
327.22	2942.93
327.43	3221.45
327.64	3057.62
327.85	3053.52
328.07	3045.33
328.28	3735.50
328.49	3123.15
328.70	3026.90
328.92	2949.08
329.13	3217.36
329.34	3375.05
329.55	3114.96
329.76	3147.73
329.98	3170.26
330.19	3491.79
330.40	3018.71
330.61	3196.88
330.83	3442.64
331.04	3069.91
331.25	3057.62
331.46	3065.81
331.68	3090.38
331.89	3520.46
332.10	3051.47
332.31	2865.11
332.52	3319.76
332.74	3524.55
332.95	2822.10
333.16	2985.94
333.37	3477.45
333.58	3196.88
333.80	2994.13
334.01	2867.16
334.22	3184.59
334.43	3192.78
334.64	2998.23
334.86	2885.59
335.07	3153.87
335.28	3655.62
335.49	2934.74
335.70	3086.29
335.92	3553.23
336.13	3745.73
336.34	3090.38
336.55	3002.32
336.76	3348.43
336.98	2932.69
337.19	3041.23
337.40	3090.38
337.61	3829.70
337.82	3215.31
338.04	3065.81
338.25	2797.53
338.46	3205.07
338.67	3246.03
338.88	2932.69
339.09	2918.36
339.31	3147.73
339.52	2955.22
339.73	2865.11
339.94	2967.51
340.15	3489.74
340.36	3149.78
340.58	3065.81
340.79	2947.03
341.00	3362.76
341.21	3076.05
341.42	3170.26
341.63	3024.85
341.85	3381.20
342.06	3342.28
342.27	2971.60
342.48	3213.26
342.69	2992.08
342.90	3344.33
343.12	3385.29
343.33	2901.97
343.54	3463.12
343.75	3583.95
343.96	3123.15
344.17	2942.93
344.38	3233.74
344.60	3139.54
344.81	2979.79
345.02	3024.85
345.23	3516.36
345.44	3753.93
345.65	3041.23
345.86	2998.23
346.07	3276.75
346.29	3123.15
346.50	3135.44
346.71	3057.62
346.92	3518.41
347.13	3721.16
347.34	3082.19
347.55	2850.77
347.76	3377.10
347.98	2998.23
348.19	3076.05
348.40	3239.89
348.61	3168.21
348.82	3655.62
349.03	3010.51
349.24	3000.27
349.45	3672.01
349.66	2930.64
349.88	3006.42
350.09	2910.16
350.30	3631.05
350.51	3540.94
350.72	3205.07
350.93	2985.94
351.14	3196.88
351.35	3434.44
351.56	3014.61
351.77	3059.67
351.99	3385.29
352.20	3526.60
352.41	3114.96
352.62	2881.49
352.83	3399.63
353.04	3254.22
353.25	3016.66
353.46	2977.75
353.67	3477.45
353.88	2906.07
354.09	2906.07
354.30	3102.67
354.52	3364.81
354.73	3203.02
354.94	3053.52
355.15	3016.66
355.36	3712.97
355.57	3149.78
355.78	2947.03
355.99	2957.27
356.20	3229.65
356.41	3577.80
356.62	3088.34
356.83	3008.47
357.04	3493.83
357.25	2818.00
357.46	2938.84
357.68	2871.25
357.89	3088.34
358.10	3295.18
358.31	2979.79
358.52	3094.48
358.73	3035.09
358.94	3088.34
359.15	3022.80
359.36	2971.60
359.57	3205.07
359.78	3299.28
359.99	3200.98
360.20	2951.12
360.41	3209.17
360.62	3416.01
360.83	3051.47
361.04	3016.66
361.25	3323.85
361.46	3657.67
361.67	3221.45
361.88	3020.75
362.09	3393.48
362.30	3258.32
362.51	2932.69
362.72	3012.56
362.93	3454.92
363.14	3368.91
363.35	3166.16
363.56	2936.79
363.78	3598.28
363.99	3428.30
364.20	3028.95
364.41	3051.47
364.62	3575.75
364.83	3416.01
365.04	3047.38
365.25	3051.47
365.46	3686.34
365.67	3117.01
365.88	3114.96
366.09	2987.99
366.30	3237.84
366.51	3237.84
366.72	2924.50
366.93	2963.41
367.14	3338.19
367.35	3504.07
367.56	2967.51
367.77	3225.55
367.98	3311.57
368.18	3393.48
368.39	3071.95
368.60	2938.84
368.81	3456.97
369.02	3403.72
369.23	2983.89
369.44	2893.78
369.65	3231.69
369.86	3385.29
370.07	3043.28
370.28	2908.12
370.49	3434.44
370.70	3276.75
370.91	2979.79
371.12	2842.58
371.33	3567.56
371.54	3239.89
371.75	3094.48
371.96	2863.06
372.17	3424.20
372.38	3205.07
372.59	3035.09
372.80	2998.23
373.01	3186.64
373.22	3330.00
373.43	2947.03
373.64	2865.11
373.85	3592.14
374.06	3647.43
374.26	3131.34
374.47	3133.39
374.68	3606.47
374.89	3327.95
375.10	2969.55
375.31	3143.63
375.52	3272.65
375.73	3332.05
375.94	2891.73
376.15	3157.97
376.36	3119.06
376.57	3237.84
376.78	3004.37
376.99	3061.71
377.20	3553.23
377.40	3155.92
377.61	3340.24
377.82	3000.27
378.03	3622.86
378.24	3401.68
378.45	3127.25
378.66	2992.08
378.87	2944.98
379.08	2983.89
379.29	3037.14
379.50	3160.02
379.71	3213.26
379.91	3469.26
380.12	3000.27
380.33	3174.35
380.54	3321.81
380.75	3258.32
380.96	3065.81
381.17	3047.38
381.38	3188.69
381.59	3336.14
381.80	3045.33
382.00	3160.02
382.21	3276.75
382.42	3608.52
382.63	3387.34
382.84	3106.77
383.05	3465.16
383.26	3684.30
383.47	3123.15
383.68	3010.51
383.88	3442.64
384.09	3362.76
384.30	3217.36
384.51	3143.63
384.72	3151.82
384.93	3057.62
385.14	2987.99
385.35	3403.72
385.55	3033.04
385.76	3461.07
385.97	2985.94
386.18	2889.68
386.39	3121.10
386.60	3143.63
386.81	2971.60
387.02	2906.07
387.22	3084.24
387.43	3403.72
387.64	3090.38
387.85	3286.99
388.06	3258.32
388.27	4446.14
388.48	7847.82
388.68	12050.25
388.89	15202.07
389.10	16498.44
389.31	16199.43
389.52	13117.24
389.73	11423.57
389.93	10422.11
390.14	9342.83
390.35	8609.66
390.56	7974.79
390.77	6616.99
390.98	4970.42
391.18	4171.71
391.39	3876.80
391.60	3342.28
391.81	3280.85
392.02	3076.05
392.23	3770.31
392.43	3315.66
392.64	3137.49
392.85	3174.35
393.06	3696.58
393.27	3215.31
393.47	3020.75
393.68	3078.10
393.89	3254.22
394.10	3524.55
394.31	3100.62
394.52	2955.22
394.72	3182.54
394.93	3577.80
395.14	2895.83
395.35	3178.45
395.56	3114.96
395.76	3178.45
395.97	2981.84
396.18	3213.26
396.39	3278.80
396.60	3960.77
396.80	3409.87
397.01	3270.61
397.22	3354.57
397.43	3510.22
397.64	3098.58
397.84	3172.30
398.05	3723.21
398.26	3250.13
398.47	3153.87
398.67	3297.23
398.88	3344.33
399.09	3409.87
399.30	3059.67
399.51	3112.91
399.71	3147.73
399.92	3325.90
400.13	3137.49
400.34	3028.95
400.54	3397.58
400.75	3551.18
400.96	3295.18
401.17	3307.47
401.37	3471.31
401.58	3270.61
401.79	3055.57
402.00	3166.16
402.21	3813.32
402.41	3395.53
402.62	3409.87
402.83	3534.79
403.04	3735.50
403.24	4065.22
403.45	3284.94
403.66	3385.29
403.87	3549.13
404.07	3653.58
404.28	3346.38
404.49	3397.58
404.70	3313.61
404.90	3459.02
405.11	3004.37
405.32	3166.16
405.52	3141.58
405.73	3262.41
405.94	2955.22
406.15	3205.07
406.35	3377.10
406.56	3416.01
406.77	3129.30
406.98	3051.47
407.18	3149.78
407.39	3588.04
407.60	3137.49
407.80	3178.45
408.01	3186.64
408.22	3330.00
408.43	2961.36
408.63	3190.74
408.84	3409.87
409.05	3444.68
409.25	2971.60
409.46	2953.17
409.67	3229.65
409.88	3108.82
410.08	3123.15
410.29	2977.75
410.50	3508.17
410.70	3354.57
410.91	2983.89
411.12	3088.34
411.32	3297.23
411.53	3076.05
411.74	3030.99
411.95	3237.84
412.15	3327.95
412.36	3436.49
412.57	3196.88
412.77	3303.37
412.98	3243.98
413.19	3133.39
413.39	3100.62
413.60	3110.86
413.81	3592.14
414.01	3088.34
414.22	3043.28
414.43	3184.59
414.63	3241.93
414.84	3426.25
415.05	3084.24
415.25	2953.17
415.46	3385.29
415.67	3147.73
415.87	3119.06
416.08	3024.85
416.29	3196.88
416.49	3452.88
416.70	3106.77
416.91	3078.10
417.11	3223.50
417.32	3454.92
417.53	3190.74
417.73	3235.79
417.94	3254.22
418.15	3327.95
418.35	3117.01
418.56	3094.48
418.77	3729.35
418.97	3313.61
419.18	3182.54
419.38	2686.94
419.59	3307.47
419.80	3592.14
420.00	2957.27
420.21	3012.56
420.42	3553.23
420.62	3377.10
420.83	2992.08
421.04	2985.94
421.24	3338.19
421.45	3418.06
421.65	3090.38
421.86	3065.81
422.07	3403.72
422.27	3317.71
422.48	2996.18
422.69	2906.07
422.89	3315.66
423.10	3299.28
423.30	2942.93
423.51	3141.58
423.72	3364.81
423.92	3418.06
424.13	2914.26
424.33	3117.01
424.54	3391.44
424.75	3268.56
424.95	3250.13
425.16	2996.18
425.36	3295.18
425.57	3389.39
425.78	3213.26
425.98	3168.21
426.19	3248.08
426.39	3160.02
426.60	3092.43
426.81	3225.55
427.01	3381.20
427.22	3155.92
427.42	2906.07
427.63	3026.90
427.83	3518.41
428.04	3598.28
428.25	3123.15
428.45	3086.29
428.66	3373.00
428.86	3200.98
429.07	3137.49
429.28	3110.86
429.48	3370.96
429.69	3057.62
429.89	3096.53
430.10	2981.84
430.30	3407.82
430.51	3477.45
430.71	2904.02
430.92	3125.20
431.13	3254.22
431.33	3428.30
431.54	3151.82
431.74	3272.65
431.95	3749.83
432.15	3055.57
432.36	3180.50
432.56	3092.43
432.77	3682.25
432.98	3702.73
433.18	3131.34
433.39	2969.55
433.59	3370.96
433.80	3684.30
434.00	3241.93
434.21	3067.86
434.41	3094.48
434.62	3811.27
434.82	3020.75
435.03	2914.26
435.23	3389.39
435.44	2996.18
435.64	3059.67
435.85	3088.34
436.06	3366.86
436.26	3493.83
436.47	2961.36
436.67	3041.23
436.88	3194.83
437.08	3485.64
437.29	3284.94
437.49	3182.54
437.70	3581.90
437.90	3182.54
438.11	3323.85
438.31	3119.06
438.52	3561.42
438.72	3489.74
438.93	3434.44
439.13	3176.40
439.34	3459.02
439.54	3286.99
439.75	3194.83
439.95	3160.02
440.16	3139.54
440.36	3313.61
440.57	3141.58
440.77	3139.54
440.98	3243.98
441.18	3360.72
441.39	3004.37
441.59	2985.94
441.80	3715.02
442.00	3190.74
442.21	3164.11
442.41	2926.55
442.62	3473.36
442.82	3182.54
443.02	3094.48
443.23	3110.86
443.43	3178.45
443.64	3682.25
443.84	2922.45
444.05	3121.10
444.25	3315.66
444.46	3205.07
444.66	3071.95
444.87	3305.42
445.07	2918.36
445.28	3186.64
445.48	3291.09
445.69	3106.77
445.89	3866.56
446.09	3239.89
446.30	3401.68
446.50	3471.31
446.71	5074.87
446.91	6322.08
447.12	7266.19
447.32	7628.68
447.53	7634.83
447.73	6322.08
447.93	5617.58
448.14	5285.81
448.34	5365.68
448.55	4591.55
448.75	4409.28
448.96	4261.82
449.16	4075.46
449.36	3938.24
449.57	3360.72
449.77	3168.21
449.98	3190.74
450.18	3444.68
450.39	2996.18
450.59	3266.51
450.79	3258.32
451.00	3233.74
451.20	3313.61
451.41	2992.08
451.61	3338.19
451.81	3108.82
452.02	3037.14
452.22	3096.53
452.43	3182.54
